# XDI/1.0 BlueSky/1.10.0 BMM/2023-1.0-py310-tiled
# Beamline.name: BMM (06BM) -- Beamline for Materials Measurement (NIST)
# Beamline.xray_source: NSLS-II three-pole wiggler
# Beamline.collimation: paraboloid mirror, 5 nm Rh on 30 nm Pt
# Beamline.focusing: not in use
# Beamline.harmonic_rejection: flat mirror, Si stripe, pitch = 7.0 mrad relative to beam
# Beamline.software: Bluesky 1.10.0, Ophyd 1.7.0, DataBroker 2.0.0b13, Python 3.10.8, 2023-1.0-py310-tiled
# Detector.I0: 10 cm N2
# Detector.I1: 25 cm N2
# Detector.I2: 25 cm N2
# Element.symbol: Mn
# Element.edge: K
# Element.reference: Mn
# Element.reference_material: Mn metal powder
# Facility.name: NSLS-II
# Facility.energy: 3.0
# Facility.current: 399.4
# Facility.mode: top-off
# Facility.GUP: 123456
# Facility.SAF: 301027
# Facility.cycle: 2023-2
# Mono.name: Si(111)
# Mono.d_spacing: 3.1351860
# Mono.encoder_resolution: 0.0000050 deg/ct
# Mono.angle_offset: 16.0754326 deg
# Mono.scan_mode: pseudo channel cut
# Mono.scan_type: step
# Mono.direction: forward in energy
# Sample.name: Mn2O3
# Sample.prep: powder on tape
# Sample.x: 123.848 mm
# Sample.y: 114.690 mm
# Sample.SDD_position: 205.000 mm
# Scan.experimenters: Bruce Ravel
# Scan.edge_energy: 6539.0
# Scan.start_time: 2023-05-08T11:20:18
# Scan.end_time: 2023-05-08T11:28:20
# Scan.transient_id: 75368
# Scan.uid: 0b910304-90be-4c4d-b50a-b0a22d34e52a
# Scan.plot_hint: ln(I0/It)  --  ln($5/$6)
# Column.1: energy eV
# Column.2: requested_energy eV
# Column.3: measurement_time seconds
# Column.4: xmu 
# Column.5: I0 nA
# Column.6: It nA
# Column.7: Ir nA
# ///////////
# Welcome to BMM
# -----------
# energy  requested_energy  measurement_time  xmu  I0  It  Ir
  6339.001  6339.000  0.500  2.388038  150.442652  13.812079  0.707224
  6349.011  6349.000  0.500  2.373458  150.666159  14.035757  0.728183
  6359.024  6359.000  0.500  2.359327  150.905274  14.258104  0.750193
  6369.006  6369.000  0.500  2.345515  151.132902  14.478213  0.771544
  6379.051  6379.000  0.500  2.331936  151.358711  14.698072  0.793437
  6388.998  6389.000  0.500  2.317868  151.561763  14.926304  0.816352
  6399.010  6399.000  0.500  2.304076  151.735033  15.150895  0.839877
  6409.011  6409.000  0.500  2.290947  152.171506  15.395285  0.864099
  6419.015  6419.000  0.500  2.277143  152.710876  15.664605  0.890433
  6429.012  6429.000  0.500  2.263297  152.844961  15.896945  0.914974
  6439.014  6439.000  0.500  2.249915  152.984696  16.125841  0.939715
  6449.011  6449.000  0.500  2.236581  150.366456  16.062612  0.947484
  6459.015  6459.000  0.500  2.223368  152.902991  16.550818  0.987681
  6469.014  6469.000  0.500  2.210444  153.474334  16.828760  1.015818
  6479.010  6479.000  0.500  2.197354  153.553855  17.059332  1.041142
  6489.704  6489.000  0.500  2.184339  153.657316  17.294450  1.066511
  6498.979  6499.000  0.500  2.172030  153.894540  17.535677  1.089830
  6508.981  6509.000  0.500  2.159639  154.056281  17.772981  1.110239
  6510.982  6511.000  0.500  2.157591  154.082336  17.812421  1.113301
  6512.981  6513.000  0.500  2.155279  154.113976  17.857324  1.116431
  6514.991  6515.000  0.500  2.153240  154.115131  17.893902  1.117900
  6516.987  6517.000  0.500  2.150963  154.167872  17.940835  1.120294
  6518.990  6519.000  0.500  2.148376  154.197015  17.990695  1.121753
  6520.996  6521.000  0.500  2.146256  154.238899  18.033785  1.121765
  6522.992  6523.000  0.500  2.144151  154.255688  18.073749  1.120132
  6524.995  6525.000  0.500  2.142109  154.264373  18.111721  1.116752
  6526.994  6527.000  0.500  2.140289  154.287352  18.147403  1.110722
  6528.998  6529.000  0.500  2.138798  154.326956  18.179150  1.100499
  6529.283  6529.300  0.500  2.138598  154.310912  18.180903  1.097850
  6529.586  6529.600  0.500  2.138348  154.302147  18.184406  1.095528
  6529.884  6529.900  0.500  2.138830  154.302810  18.175729  1.092492
  6530.183  6530.200  0.500  2.138304  154.310144  18.186155  1.089721
  6530.483  6530.500  0.500  2.137916  154.307774  18.192934  1.086992
  6530.784  6530.800  0.500  2.137355  154.300880  18.202322  1.084478
  6531.086  6531.100  0.500  2.137175  154.302912  18.205852  1.081150
  6531.385  6531.400  0.500  2.137063  154.313232  18.209093  1.076889
  6531.691  6531.700  0.500  2.137330  154.311293  18.204010  1.072253
  6531.988  6532.000  0.500  2.137392  154.313542  18.203147  1.067324
  6532.290  6532.300  0.500  2.136868  154.318139  18.213224  1.063069
  6532.586  6532.600  0.500  2.136435  154.323423  18.221744  1.058413
  6532.888  6532.900  0.500  2.136249  154.318795  18.224585  1.052214
  6533.186  6533.200  0.500  2.136475  154.314344  18.219951  1.045284
  6533.487  6533.500  0.500  2.136548  154.307218  18.217765  1.037222
  6533.791  6533.800  0.500  2.136641  154.312532  18.216700  1.028490
  6534.093  6534.100  0.500  2.136760  154.313852  18.214686  1.019523
  6534.392  6534.400  0.500  2.136430  154.305632  18.219742  1.009078
  6534.694  6534.700  0.500  2.136119  154.308402  18.225721  0.996850
  6534.992  6535.000  0.500  2.136301  154.317524  18.223485  0.982493
  6535.296  6535.300  0.500  2.136773  154.323116  18.215547  0.964564
  6535.594  6535.600  0.500  2.136928  154.318214  18.212153  0.944911
  6535.893  6535.900  0.500  2.136713  154.316677  18.215882  0.921345
  6536.193  6536.200  0.500  2.137266  154.309274  18.204942  0.891585
  6536.493  6536.500  0.500  2.138243  154.316557  18.188017  0.852597
  6536.791  6536.800  0.500  2.138935  154.317295  18.175524  0.802326
  6537.090  6537.100  0.500  2.139813  154.319102  18.159778  0.733647
  6537.397  6537.400  0.500  2.140934  154.321807  18.139758  0.643053
  6537.695  6537.700  0.500  2.142674  154.316297  18.107575  0.535220
  6537.998  6538.000  0.500  2.145538  154.306584  18.054660  0.418144
  6538.298  6538.300  0.500  2.150645  154.305362  17.962534  0.315080
  6538.598  6538.600  0.500  2.157731  154.326675  17.838175  0.239322
  6538.900  6538.900  0.500  2.165624  154.288039  17.693498  0.190854
  6539.201  6539.200  0.500  2.172677  154.281915  17.568443  0.160635
  6539.499  6539.500  0.500  2.177956  154.287327  17.476553  0.140097
  6539.796  6539.800  0.500  2.180625  154.284386  17.429649  0.124439
  6540.097  6540.100  0.500  2.180897  154.292144  17.425784  0.112093
  6540.394  6540.400  0.500  2.180819  154.297280  17.427723  0.102019
  6540.696  6540.700  0.500  2.181899  154.302650  17.409515  0.093574
  6540.997  6541.000  0.500  2.184571  154.303657  17.363175  0.087045
  6541.299  6541.300  0.500  2.187558  154.303093  17.311327  0.082999
  6541.598  6541.600  0.500  2.190819  154.299296  17.254539  0.080865
  6541.900  6541.900  0.500  2.193967  154.280335  17.198185  0.079963
  6542.199  6542.200  0.500  2.196697  154.281949  17.151481  0.079672
  6542.498  6542.500  0.500  2.199407  154.282368  17.105114  0.078425
  6542.797  6542.800  0.500  2.202089  154.278414  17.058866  0.076005
  6543.098  6543.100  0.500  2.204268  154.275969  17.021462  0.072904
  6543.393  6543.400  0.500  2.206723  154.287736  16.981026  0.069008
  6543.694  6543.700  0.500  2.208970  154.286092  16.942719  0.065018
  6543.995  6544.000  0.500  2.211658  154.290233  16.897707  0.061623
  6544.294  6544.300  0.500  2.215468  154.288771  16.833279  0.058533
  6544.597  6544.600  0.500  2.220307  154.286314  16.751753  0.055769
  6544.901  6544.900  0.500  2.226704  154.284827  16.644776  0.053942
  6545.199  6545.200  0.500  2.235086  154.287442  16.506120  0.052103
  6545.501  6545.500  0.500  2.246181  154.274823  16.322661  0.050032
  6545.801  6545.800  0.500  2.260928  154.263351  16.082518  0.047383
  6546.098  6546.100  0.500  2.279106  154.264191  15.792904  0.044334
  6546.396  6546.400  0.500  2.302025  154.266019  15.435244  0.041094
  6546.697  6546.700  0.500  2.327621  154.271197  15.045685  0.037653
  6546.994  6547.000  0.500  2.355512  154.274744  14.632177  0.034182
  6547.299  6547.300  0.500  2.385898  154.277138  14.194471  0.030968
  6547.600  6547.600  0.500  2.416358  154.276381  13.768565  0.027825
  6547.900  6547.900  0.500  2.445576  154.282304  13.372605  0.024935
  6548.205  6548.200  0.500  2.472202  154.272868  13.020443  0.022477
  6548.504  6548.500  0.500  2.497916  154.269478  12.689627  0.020312
  6548.800  6548.800  0.500  2.524436  154.279488  12.358324  0.018389
  6549.100  6549.100  0.500  2.554582  154.268136  11.990447  0.016401
  6549.395  6549.400  0.500  2.586410  154.259672  11.614190  0.014774
  6549.697  6549.700  0.500  2.618755  154.270200  11.245302  0.013188
  6549.998  6550.000  0.500  2.648454  154.274768  10.916568  0.011847
  6550.302  6550.300  0.500  2.675998  154.263800  10.619228  0.010709
  6550.601  6550.600  0.500  2.701654  154.254709  10.349637  0.009698
  6550.903  6550.900  0.500  2.727575  154.245385  10.084195  0.008657
  6551.204  6551.200  0.500  2.754465  154.239071  9.816245  0.007958
  6551.501  6551.500  0.500  2.782807  154.240023  9.541997  0.007349
  6551.797  6551.800  0.500  2.813778  154.245330  9.251324  0.006577
  6552.097  6552.100  0.500  2.845886  154.245293  8.958993  0.006035
  6552.398  6552.400  0.500  2.880721  154.242603  8.652133  0.005473
  6552.698  6552.700  0.500  2.917779  154.244130  8.337454  0.005055
  6553.000  6553.000  0.500  2.956392  154.246910  8.021800  0.004545
  6553.302  6553.300  0.500  2.995534  154.241073  7.713586  0.004161
  6553.603  6553.600  0.500  3.032437  154.250674  7.434578  0.003963
  6553.905  6553.900  0.500  3.065872  154.237870  7.189515  0.003690
  6554.204  6554.200  0.500  3.094978  154.228652  6.982857  0.003395
  6554.505  6554.500  0.500  3.121043  154.228722  6.803201  0.003165
  6554.798  6554.800  0.500  3.143771  154.232653  6.650492  0.002968
  6555.100  6555.100  0.500  3.163178  154.253471  6.523552  0.002883
  6555.393  6555.400  0.500  3.178510  154.266565  6.424844  0.002976
  6555.701  6555.700  0.500  3.189970  154.281089  6.352232  0.002888
  6556.001  6556.000  0.500  3.198337  154.289003  6.299624  0.002914
  6556.303  6556.300  0.500  3.203950  154.289180  6.264373  0.002884
  6556.601  6556.600  0.500  3.207300  154.279318  6.243026  0.002948
  6556.903  6556.900  0.500  3.209413  154.271689  6.229539  0.003042
  6557.204  6557.200  0.500  3.210977  154.262721  6.219440  0.003138
  6557.500  6557.500  0.500  3.212404  154.254973  6.210260  0.003259
  6557.804  6557.800  0.500  3.213896  154.265032  6.201408  0.003189
  6558.101  6558.100  0.500  3.215346  154.257062  6.192100  0.003417
  6558.400  6558.400  0.500  3.215654  154.275811  6.190947  0.003449
  6558.699  6558.700  0.500  3.212298  154.281141  6.211974  0.003572
  6558.999  6559.000  0.500  3.206098  154.278804  6.250512  0.003763
  6559.298  6559.300  0.500  3.197237  154.274083  6.305952  0.003815
  6559.604  6559.600  0.500  3.185357  154.279859  6.381549  0.003849
  6559.901  6559.900  0.500  3.171899  154.294572  6.468629  0.003913
  6560.201  6560.200  0.500  3.157302  154.296533  6.563831  0.004130
  6560.500  6560.500  0.500  3.143935  154.287776  6.651778  0.004194
  6560.799  6560.800  0.500  3.131952  154.278095  6.731548  0.004146
  6561.100  6561.100  0.500  3.121176  154.270700  6.804148  0.004269
  6561.397  6561.400  0.500  3.112696  154.205062  6.859174  0.004314
  6561.699  6561.700  0.500  3.106267  154.065084  6.897150  0.004216
  6561.998  6562.000  0.500  3.102027  153.984233  6.922818  0.004286
  6562.303  6562.300  0.500  3.099065  153.964419  6.942462  0.004355
  6562.604  6562.600  0.500  3.096425  154.114357  6.967595  0.004182
  6562.905  6562.900  0.500  3.094101  154.211454  6.988205  0.004240
  6563.205  6563.200  0.500  3.091574  154.251063  7.007686  0.004169
  6563.506  6563.500  0.500  3.088811  154.262625  7.027601  0.004275
  6563.806  6563.800  0.500  3.085983  154.273525  7.048000  0.004311
  6564.005  6564.000  0.500  3.083869  154.291358  7.063735  0.004106
  6565.001  6564.990  0.500  3.070576  154.303017  7.158802  0.004055
  6566.006  6565.990  0.500  3.052169  154.308124  7.292030  0.004271
  6567.031  6567.010  0.500  3.034438  154.308117  7.422482  0.004232
  6568.049  6568.060  0.500  3.022101  154.324761  7.515429  0.004197
  6569.106  6569.120  0.500  3.016252  154.309693  7.558779  0.004316
  6570.192  6570.200  0.500  3.014013  154.331943  7.576811  0.004441
  6571.286  6571.300  0.500  3.015195  154.346792  7.568594  0.004250
  6572.415  6572.420  0.500  3.017411  154.360100  7.552491  0.004397
  6573.554  6573.560  0.500  3.013753  154.359821  7.580156  0.004344
  6574.707  6574.710  0.500  3.001210  154.388743  7.677264  0.004326
  6575.893  6575.890  0.500  2.978817  154.417959  7.852609  0.004423
  6577.080  6577.080  0.500  2.950908  154.444654  8.076254  0.004424
  6578.304  6578.300  0.500  2.922668  154.452692  8.308008  0.004520
  6579.539  6579.530  0.500  2.895976  154.440719  8.532086  0.004409
  6580.786  6580.780  0.500  2.871710  154.453231  8.742368  0.004379
  6582.055  6582.050  0.500  2.849618  154.453030  8.937643  0.004275
  6583.345  6583.340  0.500  2.832542  154.461502  9.092068  0.004268
  6584.655  6584.650  0.500  2.821094  154.478412  9.197766  0.004332
  6585.984  6585.980  0.500  2.813649  154.420954  9.263045  0.004311
  6587.334  6587.330  0.500  2.809408  154.898561  9.331191  0.004402
  6588.704  6588.700  0.500  2.808489  154.964833  9.343769  0.004683
  6590.090  6590.080  0.500  2.809313  154.990934  9.337638  0.004796
  6591.493  6591.490  0.500  2.813669  155.005220  9.297909  0.004995
  6592.918  6592.910  0.500  2.822624  155.026488  9.216286  0.005080
  6594.347  6594.350  0.500  2.837703  155.042008  9.079261  0.005158
  6595.822  6595.810  0.500  2.856198  155.067461  8.914349  0.005240
  6597.298  6597.290  0.500  2.874572  155.081825  8.752863  0.005414
  6598.798  6598.790  0.500  2.888519  155.078075  8.631424  0.005514
  6600.318  6600.310  0.500  2.901318  155.074820  8.521478  0.005576
  6601.858  6601.850  0.500  2.912437  155.079388  8.427503  0.005504
  6603.414  6603.410  0.500  2.919343  154.800187  8.354429  0.005314
  6604.988  6604.980  0.500  2.921382  155.090229  8.353036  0.005272
  6606.587  6606.580  0.500  2.919798  155.119901  8.367874  0.005214
  6608.203  6608.190  0.500  2.916069  155.142752  8.400374  0.005052
  6609.834  6609.830  0.500  2.910548  155.160816  8.447871  0.005014
  6611.493  6611.480  0.500  2.903888  155.189023  8.505869  0.004888
  6613.159  6613.150  0.500  2.896099  155.183819  8.572091  0.004839
  6614.849  6614.840  0.500  2.887748  155.192865  8.644476  0.004764
  6616.557  6616.550  0.500  2.880236  155.182636  8.709087  0.004794
  6618.291  6618.280  0.500  2.872670  155.162573  8.774091  0.004767
  6620.040  6620.030  0.500  2.867648  155.165106  8.818414  0.004845
  6621.795  6621.790  0.500  2.865206  155.164858  8.839958  0.004938
  6623.594  6623.580  0.500  2.865602  155.185142  8.837615  0.005001
  6625.387  6625.380  0.500  2.869428  155.197477  8.804568  0.004897
  6627.220  6627.210  0.500  2.874481  155.209785  8.760886  0.005037
  6629.056  6629.050  0.500  2.878615  155.155756  8.721700  0.005131
  6630.917  6630.910  0.500  2.879093  155.208495  8.720498  0.005357
  6632.801  6632.790  0.500  2.875865  155.216247  8.749129  0.005338
  6634.698  6634.690  0.500  2.870765  155.238608  8.795136  0.005412
  6636.619  6636.610  0.500  2.865547  155.239385  8.841192  0.005183
  6638.561  6638.550  0.500  2.862350  155.240224  8.869546  0.005303
  6640.515  6640.510  0.500  2.861445  155.229624  8.876971  0.005097
  6642.487  6642.480  0.500  2.861010  155.244305  8.881677  0.005061
  6644.491  6644.480  0.500  2.860263  155.257765  8.889082  0.005226
  6646.495  6646.490  0.500  2.857891  155.263476  8.910518  0.005292
  6648.527  6648.520  0.500  2.852689  155.274120  8.957604  0.005439
  6650.591  6650.580  0.500  2.843484  155.275220  9.040507  0.005532
  6652.655  6652.650  0.500  2.831240  155.264859  9.151272  0.005719
  6654.750  6654.740  0.500  2.817131  155.264185  9.281256  0.005876
  6656.862  6656.850  0.500  2.802956  155.281078  9.414781  0.005930
  6658.989  6658.980  0.500  2.789268  155.284390  9.544742  0.006248
  6661.126  6661.120  0.500  2.776966  155.279949  9.662603  0.006465
  6663.305  6663.290  0.500  2.766066  155.283560  9.768736  0.006510
  6665.486  6665.480  0.500  2.758881  155.285361  9.839285  0.006557
  6667.685  6667.680  0.500  2.755110  155.284516  9.876412  0.006444
  6669.907  6669.900  0.500  2.755200  155.288207  9.875754  0.006391
  6672.156  6672.150  0.500  2.758223  155.281305  9.845509  0.006341
  6674.419  6674.410  0.500  2.762930  155.272510  9.798721  0.006118
  6676.700  6676.690  0.500  2.767922  155.258469  9.749046  0.005951
  6678.995  6678.990  0.500  2.772813  155.267672  9.702054  0.005878
  6681.319  6681.310  0.500  2.777171  155.273951  9.660253  0.005988
  6683.651  6683.650  0.500  2.781339  155.281514  9.620541  0.006073
  6686.004  6686.000  0.500  2.783266  155.268412  9.601213  0.005935
  6688.383  6688.380  0.500  2.783932  155.256627  9.594088  0.006084
  6690.782  6690.770  0.500  2.783247  155.250668  9.600295  0.006039
  6693.200  6693.190  0.500  2.781059  155.234460  9.620318  0.006119
  6695.623  6695.620  0.500  2.777526  155.225521  9.653816  0.006323
  6698.076  6698.070  0.500  2.772384  155.212065  9.702744  0.006310
  6700.564  6700.550  0.500  2.765751  155.203672  9.766785  0.006623
  6703.042  6703.040  0.500  2.758195  155.198929  9.840563  0.006801
  6705.557  6705.550  0.500  2.749205  155.182533  9.928376  0.006965
  6708.078  6708.070  0.500  2.739709  155.174802  10.022606  0.007213
  6710.633  6710.620  0.500  2.730537  155.170643  10.114682  0.007247
  6713.200  6713.190  0.500  2.723000  155.163781  10.190757  0.007220
  6715.773  6715.770  0.500  2.717726  155.159674  10.244379  0.007289
  6718.390  6718.380  0.500  2.714606  155.122238  10.273908  0.007214
  6721.011  6721.000  0.500  2.713446  155.110920  10.285079  0.007335
  6723.662  6723.650  0.500  2.711968  155.119946  10.300893  0.007465
  6726.316  6726.310  0.500  2.709275  155.134248  10.329620  0.007429
  6729.000  6728.990  0.500  2.705831  155.100277  10.362990  0.007404
  6731.700  6731.690  0.500  2.701515  155.066338  10.405541  0.007562
  6734.422  6734.410  0.500  2.697675  155.063251  10.445361  0.007467
  6737.161  6737.150  0.500  2.695378  155.016086  10.466197  0.007492
  6739.907  6739.900  0.500  2.694316  154.985688  10.475265  0.007344
  6742.689  6742.680  0.500  2.693164  154.940393  10.484278  0.007580
  6745.481  6745.470  0.500  2.691195  154.897196  10.502008  0.007545
  6748.297  6748.290  0.500  2.688400  154.873146  10.529771  0.007776
  6751.133  6751.120  0.500  2.685121  154.862219  10.563610  0.007803
  6753.977  6753.970  0.500  2.680493  154.842099  10.611226  0.008122
  6756.860  6756.850  0.500  2.674515  154.828262  10.673900  0.008080
  6759.755  6759.740  0.500  2.667108  154.808682  10.751893  0.008141
  6762.664  6762.650  0.500  2.657781  154.764429  10.849544  0.008291
  6765.586  6765.570  0.500  2.648224  154.748349  10.952593  0.008343
  6768.530  6768.520  0.500  2.639148  154.716003  11.050140  0.008632
  6771.497  6771.490  0.500  2.631485  154.692748  11.133471  0.008556
  6774.485  6774.470  0.500  2.624600  154.670442  11.208768  0.008707
  6777.491  6777.480  0.500  2.618846  154.649156  11.271898  0.008858
  6780.526  6780.500  0.500  2.614066  154.659002  11.326629  0.009149
  6783.563  6783.550  0.500  2.610488  154.621757  11.364492  0.009290
  6786.624  6786.610  0.500  2.607933  154.622617  11.393631  0.009416
  6789.705  6789.690  0.500  2.606070  154.620116  11.414690  0.009534
  6792.804  6792.790  0.500  2.604079  154.536404  11.431243  0.009664
  6795.922  6795.910  0.500  2.601282  152.073553  11.280577  0.009598
  6799.060  6799.050  0.500  2.599329  154.068841  11.450920  0.009899
