# XDI/1.0 BlueSky/1.10.0 BMM/2023-1.0-py310-tiled
# Beamline.name: BMM (06BM) -- Beamline for Materials Measurement (NIST)
# Beamline.xray_source: NSLS-II three-pole wiggler
# Beamline.collimation: paraboloid mirror, 5 nm Rh on 30 nm Pt
# Beamline.focusing: not in use
# Beamline.harmonic_rejection: flat mirror, Si stripe, pitch = 7.0 mrad relative to beam
# Beamline.software: Bluesky 1.10.0, Ophyd 1.7.0, DataBroker 2.0.0b13, Python 3.10.8, 2023-1.0-py310-tiled
# Detector.I0: 10 cm N2
# Detector.I1: 25 cm N2
# Detector.I2: 25 cm N2
# Element.symbol: Mn
# Element.edge: K
# Element.reference: Mn
# Element.reference_material: Mn metal powder
# Facility.name: NSLS-II
# Facility.energy: 3.0
# Facility.current: 399.6
# Facility.mode: top-off
# Facility.GUP: 123456
# Facility.SAF: 301027
# Facility.cycle: 2023-2
# Mono.name: Si(111)
# Mono.d_spacing: 3.1351860
# Mono.encoder_resolution: 0.0000050 deg/ct
# Mono.angle_offset: 16.0754326 deg
# Mono.scan_mode: pseudo channel cut
# Mono.scan_type: step
# Mono.direction: forward in energy
# Sample.name: Mn6O8(SiO4)
# Sample.prep: PEG pellet
# Sample.x: 123.848 mm
# Sample.y: 114.690 mm
# Sample.SDD_position: 205.000 mm
# Scan.experimenters: Bruce Ravel
# Scan.edge_energy: 6539.0
# Scan.start_time: 2023-05-08T11:46:13
# Scan.end_time: 2023-05-08T11:54:10
# Scan.transient_id: 75371
# Scan.uid: 16e80592-699e-4016-84db-69fb0064d1ee
# Scan.plot_hint: ln(I0/It)  --  ln($5/$6)
# Column.1: energy eV
# Column.2: requested_energy eV
# Column.3: measurement_time seconds
# Column.4: xmu 
# Column.5: I0 nA
# Column.6: It nA
# Column.7: Ir nA
# ///////////
# Braunite, Manganese Mine, Copper Harbor, Keweenaw Co., Michigan, USA; 0.2x abs. @Mn
# -----------
# energy  requested_energy  measurement_time  xmu  I0  It  Ir
  6338.994  6339.000  0.500  2.079048  150.533099  18.824038  0.968646
  6349.010  6349.000  0.500  2.066039  150.760765  19.099366  0.995892
  6359.026  6359.000  0.500  2.053119  151.001474  19.378630  1.023621
  6369.001  6369.000  0.500  2.040645  151.238303  19.652646  1.051799
  6379.000  6379.000  0.500  2.028112  151.461969  19.929933  1.080873
  6389.005  6389.000  0.500  2.015406  151.670540  20.212575  1.110310
  6399.009  6399.000  0.500  2.003064  151.851811  20.488045  1.140581
  6409.013  6409.000  0.500  1.990808  152.035016  20.765698  1.170302
  6419.012  6419.000  0.500  1.978225  152.267130  21.060766  1.202111
  6429.016  6429.000  0.500  1.966465  152.401943  21.328750  1.232836
  6439.018  6439.000  0.500  1.954621  152.560403  21.605323  1.263779
  6449.012  6449.000  0.500  1.942443  149.898395  21.488434  1.272488
  6459.008  6459.000  0.500  1.930150  152.447019  22.124081  1.325758
  6469.016  6469.000  0.500  1.918208  153.044078  22.477568  1.361684
  6479.013  6479.000  0.500  1.906607  153.148258  22.755330  1.393794
  6490.632  6489.000  0.500  1.894159  153.130526  23.037695  1.426458
  6498.980  6499.000  0.500  1.883147  153.418568  23.336592  1.455996
  6508.983  6509.000  0.500  1.872104  153.571899  23.619312  1.481938
  6510.986  6511.000  0.500  1.870368  153.579468  23.661510  1.484807
  6512.983  6513.000  0.500  1.867796  153.611796  23.727458  1.489223
  6514.985  6515.000  0.500  1.865999  153.612297  23.770209  1.491571
  6516.989  6517.000  0.500  1.863798  153.672322  23.831893  1.494154
  6518.990  6519.000  0.500  1.861568  153.701370  23.889598  1.495823
  6520.996  6521.000  0.500  1.859508  153.734251  23.943991  1.495164
  6522.992  6523.000  0.500  1.858185  153.769764  23.981221  1.492455
  6524.997  6525.000  0.500  1.855964  153.764542  24.033729  1.488006
  6526.992  6527.000  0.500  1.854166  153.784643  24.080134  1.480117
  6528.996  6529.000  0.500  1.852545  153.813456  24.123715  1.466070
  6529.283  6529.300  0.500  1.852431  153.810068  24.125934  1.463406
  6529.583  6529.600  0.500  1.852135  153.789558  24.129855  1.459867
  6529.884  6529.900  0.500  1.852071  153.793545  24.132036  1.456252
  6530.183  6530.200  0.500  1.851513  153.790415  24.145003  1.453288
  6530.485  6530.500  0.500  1.851347  153.808846  24.151918  1.450195
  6530.784  6530.800  0.500  1.851322  154.225935  24.218012  1.449154
  6531.088  6531.100  0.500  1.851381  154.378988  24.240610  1.446191
  6531.387  6531.400  0.500  1.851255  154.404682  24.247702  1.441106
  6531.691  6531.700  0.500  1.850914  154.410110  24.256831  1.436290
  6531.988  6532.000  0.500  1.850515  154.421695  24.268333  1.430066
  6532.288  6532.300  0.500  1.850210  154.423800  24.276054  1.423765
  6532.586  6532.600  0.500  1.850230  154.426533  24.276004  1.416471
  6532.888  6532.900  0.500  1.850627  154.423274  24.265867  1.408340
  6533.188  6533.200  0.500  1.850525  154.429579  24.269323  1.398904
  6533.486  6533.500  0.500  1.850327  154.436095  24.275146  1.389307
  6533.787  6533.800  0.500  1.850289  154.429946  24.275111  1.377657
  6534.087  6534.100  0.500  1.850241  154.422935  24.275163  1.366326
  6534.391  6534.400  0.500  1.850012  154.412209  24.279037  1.351384
  6534.691  6534.700  0.500  1.849786  154.406387  24.283626  1.336659
  6534.994  6535.000  0.500  1.849643  154.409670  24.287602  1.316840
  6535.294  6535.300  0.500  1.849459  154.398492  24.290307  1.295035
  6535.594  6535.600  0.500  1.849665  154.396502  24.285014  1.268453
  6535.893  6535.900  0.500  1.849773  154.406498  24.283948  1.237349
  6536.196  6536.200  0.500  1.850027  154.416188  24.279303  1.198745
  6536.493  6536.500  0.500  1.850233  154.408216  24.273047  1.149312
  6536.795  6536.800  0.500  1.850711  154.418123  24.263022  1.083592
  6537.091  6537.100  0.500  1.851011  154.419159  24.255903  0.995504
  6537.395  6537.400  0.500  1.852152  154.424758  24.229115  0.877668
  6537.697  6537.700  0.500  1.853323  154.421760  24.200291  0.734955
  6537.998  6538.000  0.500  1.855112  154.426471  24.157769  0.580190
  6538.296  6538.300  0.500  1.857968  154.426314  24.088860  0.439025
  6538.598  6538.600  0.500  1.862175  154.407165  23.984739  0.333539
  6538.899  6538.900  0.500  1.866958  154.406913  23.870261  0.265776
  6539.195  6539.200  0.500  1.871621  154.402793  23.758574  0.223554
  6539.499  6539.500  0.500  1.875169  154.391292  23.672669  0.194720
  6539.794  6539.800  0.500  1.877070  154.405287  23.629857  0.173113
  6540.093  6540.100  0.500  1.877590  154.403044  23.617214  0.155962
  6540.394  6540.400  0.500  1.877528  154.405084  23.619005  0.141696
  6540.694  6540.700  0.500  1.878456  154.409069  23.597713  0.129816
  6540.995  6541.000  0.500  1.880307  154.400956  23.552838  0.120755
  6541.299  6541.300  0.500  1.882572  154.393499  23.498394  0.114719
  6541.598  6541.600  0.500  1.884932  154.405311  23.444800  0.111487
  6541.900  6541.900  0.500  1.886951  154.395812  23.396091  0.110406
  6542.201  6542.200  0.500  1.888858  154.397524  23.351762  0.109938
  6542.500  6542.500  0.500  1.891311  154.407793  23.296113  0.108684
  6542.801  6542.800  0.500  1.893426  154.400187  23.245749  0.105543
  6543.100  6543.100  0.500  1.895772  154.384566  23.188931  0.101357
  6543.399  6543.400  0.500  1.898014  154.387556  23.137433  0.096013
  6543.699  6543.700  0.500  1.900175  154.392000  23.088152  0.090354
  6543.997  6544.000  0.500  1.902444  154.390383  23.035582  0.085563
  6544.298  6544.300  0.500  1.905832  154.379162  22.956009  0.081301
  6544.600  6544.600  0.500  1.910184  154.377859  22.856123  0.077870
  6544.901  6544.900  0.500  1.915848  154.386823  22.728351  0.075177
  6545.200  6545.200  0.500  1.923083  154.386021  22.564387  0.072568
  6545.503  6545.500  0.500  1.932561  154.386284  22.351582  0.069805
  6545.801  6545.800  0.500  1.944806  154.375150  22.077947  0.066415
  6546.100  6546.100  0.500  1.960720  154.385176  21.730802  0.062429
  6546.396  6546.400  0.500  1.979716  154.381439  21.321379  0.058125
  6546.695  6546.700  0.500  2.002783  154.377469  20.834659  0.053584
  6546.996  6547.000  0.500  2.030320  154.369055  20.267644  0.048660
  6547.292  6547.300  0.500  2.060836  154.373185  19.659040  0.044031
  6547.597  6547.600  0.500  2.094623  154.369109  19.005411  0.039318
  6547.898  6547.900  0.500  2.127480  154.364990  18.390600  0.035375
  6548.201  6548.200  0.500  2.157930  154.371065  17.839753  0.031759
  6548.500  6548.500  0.500  2.185103  154.362876  17.360601  0.028648
  6548.802  6548.800  0.500  2.210687  154.353894  16.921102  0.025752
  6549.096  6549.100  0.500  2.234601  154.357778  16.521666  0.023203
  6549.397  6549.400  0.500  2.257931  154.363709  16.141294  0.020959
  6549.701  6549.700  0.500  2.281109  154.351193  15.770190  0.018865
  6550.002  6550.000  0.500  2.303194  154.361543  15.426751  0.017166
  6550.300  6550.300  0.500  2.325062  154.350292  15.091970  0.015547
  6550.603  6550.600  0.500  2.348447  154.345277  14.742652  0.013987
  6550.901  6550.900  0.500  2.373800  154.348579  14.373900  0.012898
  6551.201  6551.200  0.500  2.400922  154.350073  13.989425  0.011546
  6551.501  6551.500  0.500  2.430092  154.352296  13.587435  0.010643
  6551.800  6551.800  0.500  2.459606  154.353226  13.192352  0.009655
  6552.104  6552.100  0.500  2.489136  154.351691  12.808358  0.008836
  6552.402  6552.400  0.500  2.519471  154.350080  12.425514  0.008003
  6552.696  6552.700  0.500  2.550685  154.336569  12.042608  0.007390
  6553.000  6553.000  0.500  2.582831  154.335081  11.661524  0.006751
  6553.296  6553.300  0.500  2.613939  154.336744  11.304462  0.006189
  6553.603  6553.600  0.500  2.643350  154.342246  10.977219  0.005781
  6553.900  6553.900  0.500  2.669156  154.337814  10.697265  0.005283
  6554.204  6554.200  0.500  2.693321  154.335105  10.441675  0.004999
  6554.504  6554.500  0.500  2.714262  154.332235  10.225097  0.004836
  6554.800  6554.800  0.500  2.731580  154.333817  10.049649  0.004562
  6555.102  6555.100  0.500  2.745417  154.332845  9.911491  0.004574
  6555.399  6555.400  0.500  2.755322  154.341371  9.814347  0.004317
  6555.701  6555.700  0.500  2.761604  154.335899  9.752540  0.004343
  6555.999  6556.000  0.500  2.764127  154.337778  9.728082  0.004280
  6556.303  6556.300  0.500  2.763841  154.335280  9.730702  0.004552
  6556.601  6556.600  0.500  2.761604  154.336641  9.752586  0.004467
  6556.903  6556.900  0.500  2.757790  154.324154  9.789062  0.004545
  6557.200  6557.200  0.500  2.754099  154.317427  9.824831  0.004857
  6557.500  6557.500  0.500  2.751593  154.325911  9.850017  0.004895
  6557.803  6557.800  0.500  2.750476  154.310057  9.860014  0.005172
  6558.099  6558.100  0.500  2.750120  154.316590  9.863946  0.005324
  6558.400  6558.400  0.500  2.750133  154.307328  9.863227  0.005407
  6558.700  6558.700  0.500  2.750426  154.316155  9.860900  0.005581
  6559.003  6559.000  0.500  2.749636  154.327563  9.869426  0.005651
  6559.301  6559.300  0.500  2.747337  154.329983  9.892291  0.005830
  6559.602  6559.600  0.500  2.742914  154.320361  9.935521  0.005964
  6559.901  6559.900  0.500  2.735780  154.325243  10.006975  0.006135
  6560.201  6560.200  0.500  2.726981  154.326156  10.095478  0.006232
  6560.502  6560.500  0.500  2.716380  154.328186  10.203199  0.006421
  6560.803  6560.800  0.500  2.704750  154.329260  10.322626  0.006497
  6561.102  6561.100  0.500  2.693088  154.321455  10.443191  0.006420
  6561.397  6561.400  0.500  2.681251  154.254549  10.562955  0.006676
  6561.701  6561.700  0.500  2.670998  154.118856  10.662427  0.006679
  6562.000  6562.000  0.500  2.662038  154.022927  10.751690  0.006550
  6562.306  6562.300  0.500  2.654166  153.996126  10.834784  0.006548
  6562.604  6562.600  0.500  2.648251  154.151029  10.910019  0.006687
  6562.906  6562.900  0.500  2.644081  154.258704  10.963264  0.006624
  6563.207  6563.200  0.500  2.641381  154.294218  10.995435  0.006590
  6563.505  6563.500  0.500  2.639733  154.308068  11.014566  0.006631
  6563.806  6563.800  0.500  2.639388  154.323333  11.019452  0.006472
  6564.000  6564.000  0.500  2.639602  154.332742  11.017767  0.006479
  6565.002  6564.990  0.500  2.642416  154.354397  10.988344  0.006387
  6566.004  6565.990  0.500  2.644871  154.363193  10.962027  0.006405
  6567.035  6567.010  0.500  2.643654  154.349405  10.974400  0.006352
  6568.048  6568.060  0.500  2.639486  154.335425  11.019229  0.006244
  6569.110  6569.120  0.500  2.632264  154.360053  11.100878  0.006271
  6570.192  6570.200  0.500  2.621718  154.370118  11.219299  0.006447
  6571.288  6571.300  0.500  2.608422  154.373006  11.369679  0.006437
  6572.417  6572.420  0.500  2.595113  154.383516  11.522787  0.006522
  6573.557  6573.560  0.500  2.582071  154.392384  11.674727  0.006717
  6574.705  6574.710  0.500  2.569367  154.415238  11.825740  0.006694
  6575.892  6575.890  0.500  2.555332  154.425588  11.993688  0.006673
  6577.082  6577.080  0.500  2.538266  154.437409  12.201060  0.006810
  6578.304  6578.300  0.500  2.518488  154.448653  12.445686  0.006614
  6579.536  6579.530  0.500  2.497584  154.453409  12.708979  0.006555
  6580.782  6580.780  0.500  2.477756  154.466387  12.964580  0.006563
  6582.052  6582.050  0.500  2.459888  154.475044  13.199052  0.006497
  6583.341  6583.340  0.500  2.444812  154.471728  13.399252  0.006408
  6584.650  6584.650  0.500  2.433636  154.487374  13.551224  0.006469
  6585.988  6585.980  0.500  2.426655  154.240614  13.624347  0.006472
  6587.330  6587.330  0.500  2.423858  154.468116  13.682668  0.006524
  6588.702  6588.700  0.500  2.423673  154.491331  13.687254  0.006667
  6590.084  6590.080  0.500  2.426008  154.499948  13.656088  0.007113
  6591.493  6591.490  0.500  2.431566  154.509035  13.581201  0.007286
  6592.916  6592.910  0.500  2.441077  154.526046  13.454122  0.007467
  6594.353  6594.350  0.500  2.453649  154.540443  13.287270  0.007542
  6595.816  6595.810  0.500  2.468123  154.545824  13.096795  0.007657
  6597.298  6597.290  0.500  2.483169  154.562960  12.902644  0.007895
  6598.800  6598.790  0.500  2.491324  154.568802  12.798332  0.008241
  6600.313  6600.310  0.500  2.495499  154.572937  12.745362  0.008272
  6601.861  6601.850  0.500  2.498147  154.569135  12.711344  0.008297
  6603.416  6603.410  0.500  2.500250  154.273967  12.660414  0.008166
  6604.988  6604.980  0.500  2.500691  154.584279  12.680280  0.008047
  6606.581  6606.580  0.500  2.499009  154.590159  12.702111  0.007938
  6608.197  6608.190  0.500  2.496038  154.621379  12.742480  0.007806
  6609.838  6609.830  0.500  2.492100  154.654919  12.795537  0.007754
  6611.489  6611.480  0.500  2.487508  154.651239  12.854116  0.007394
  6613.159  6613.150  0.500  2.482386  154.649926  12.920021  0.007389
  6614.845  6614.840  0.500  2.477764  154.649711  12.979859  0.007205
  6616.557  6616.550  0.500  2.474773  154.666607  13.020160  0.007324
  6618.287  6618.280  0.500  2.472469  154.642745  13.048178  0.007034
  6620.037  6620.030  0.500  2.471608  154.642256  13.059380  0.007141
  6621.798  6621.790  0.500  2.472546  154.633562  13.046394  0.007198
  6623.590  6623.580  0.500  2.475556  154.650643  13.008629  0.007349
  6625.389  6625.380  0.500  2.479671  154.661345  12.956096  0.007424
  6627.220  6627.210  0.500  2.483754  154.675275  12.904475  0.007559
  6629.059  6629.050  0.500  2.484925  154.609587  12.883901  0.007649
  6630.915  6630.910  0.500  2.482939  154.684325  12.915745  0.007875
  6632.795  6632.790  0.500  2.478961  154.713922  12.969709  0.007977
  6634.701  6634.690  0.500  2.473572  154.714816  13.039875  0.007872
  6636.614  6636.610  0.500  2.468188  154.718250  13.110556  0.007707
  6638.561  6638.550  0.500  2.462652  154.717545  13.183278  0.007744
  6640.522  6640.510  0.500  2.456916  154.692781  13.256996  0.007641
  6642.488  6642.480  0.500  2.451785  154.709856  13.326660  0.007687
  6644.486  6644.480  0.500  2.446449  154.718043  13.398663  0.007761
  6646.497  6646.490  0.500  2.440909  154.731375  13.474259  0.007998
  6648.527  6648.520  0.500  2.434973  154.725696  13.553982  0.008150
  6650.589  6650.580  0.500  2.428562  154.737099  13.642171  0.008391
  6652.657  6652.650  0.500  2.422125  154.736780  13.730235  0.008713
  6654.748  6654.740  0.500  2.415450  155.032940  13.848655  0.008891
  6656.858  6656.850  0.500  2.408868  155.233624  13.958145  0.009083
  6658.991  6658.980  0.500  2.402816  155.249350  14.044305  0.009316
  6661.133  6661.120  0.500  2.396882  155.251024  14.128037  0.009432
  6663.300  6663.290  0.500  2.391872  155.247655  14.198684  0.009466
  6665.488  6665.480  0.500  2.387601  155.243870  14.259114  0.009481
  6667.693  6667.680  0.500  2.383490  155.242724  14.317748  0.009521
  6669.910  6669.900  0.500  2.381844  155.249116  14.341924  0.009406
  6672.154  6672.150  0.500  2.382310  155.238557  14.334270  0.009197
  6674.416  6674.410  0.500  2.383331  155.234739  14.319289  0.008938
  6676.700  6676.690  0.500  2.384332  155.226875  14.304233  0.008876
  6678.997  6678.990  0.500  2.385131  155.224989  14.292634  0.008862
  6681.315  6681.310  0.500  2.384919  155.235136  14.296605  0.008887
  6683.655  6683.650  0.500  2.384132  155.247212  14.308969  0.008808
  6686.008  6686.000  0.500  2.382029  155.243303  14.338736  0.009024
  6688.385  6688.380  0.500  2.378890  155.230525  14.382626  0.009071
  6690.780  6690.770  0.500  2.375593  155.228068  14.429893  0.009177
  6693.204  6693.190  0.500  2.371796  155.206262  14.482756  0.009372
  6695.630  6695.620  0.500  2.368041  155.213539  14.537926  0.009631
  6698.081  6698.070  0.500  2.364379  155.191864  14.589228  0.009743
  6700.555  6700.550  0.500  2.360611  155.188426  14.643976  0.009907
  6703.049  6703.040  0.500  2.357235  155.174556  14.692180  0.010167
  6705.557  6705.550  0.500  2.354174  155.152590  14.735135  0.010504
  6708.076  6708.070  0.500  2.351197  155.137079  14.777593  0.010778
  6710.631  6710.620  0.500  2.347939  155.129384  14.825079  0.010728
  6713.204  6713.190  0.500  2.344447  155.125324  14.876554  0.010777
  6715.777  6715.770  0.500  2.340708  155.142120  14.933902  0.010840
  6718.386  6718.380  0.500  2.337386  155.100311  14.979552  0.010909
  6721.011  6721.000  0.500  2.334292  155.076657  15.023681  0.010892
  6723.660  6723.650  0.500  2.331420  155.057522  15.065035  0.010948
  6726.323  6726.310  0.500  2.328913  155.072786  15.104333  0.010854
  6728.995  6728.990  0.500  2.325659  155.053511  15.151682  0.010978
  6731.695  6731.690  0.500  2.322077  155.025941  15.203341  0.010803
  6734.426  6734.410  0.500  2.317463  154.992352  15.270339  0.011018
  6737.165  6737.150  0.500  2.312518  154.972594  15.344091  0.011093
  6739.912  6739.900  0.500  2.308329  154.954444  15.406696  0.011192
  6742.685  6742.680  0.500  2.304546  154.920123  15.461668  0.011205
  6745.481  6745.470  0.500  2.300662  154.886846  15.518492  0.011232
  6748.303  6748.290  0.500  2.296691  154.865010  15.578042  0.011519
  6751.133  6751.120  0.500  2.292527  154.836522  15.640176  0.011832
  6753.980  6753.970  0.500  2.287668  154.811081  15.713779  0.012044
  6756.860  6756.850  0.500  2.282684  154.806837  15.791854  0.012150
  6759.751  6759.740  0.500  2.277819  154.787879  15.866924  0.012320
  6762.659  6762.650  0.500  2.272820  154.771070  15.944708  0.012288
  6765.580  6765.570  0.500  2.267464  154.731064  16.026195  0.012181
  6768.530  6768.520  0.500  2.261732  154.721895  16.117369  0.012544
  6771.497  6771.490  0.500  2.256145  154.681985  16.203477  0.012675
  6774.481  6774.470  0.500  2.250828  154.661221  16.287675  0.012779
  6777.497  6777.480  0.500  2.245617  154.639061  16.370436  0.013045
  6780.516  6780.500  0.500  2.240921  154.616507  16.445086  0.013294
  6783.564  6783.550  0.500  2.237372  154.605697  16.502398  0.013715
  6786.624  6786.610  0.500  2.233949  154.604721  16.558880  0.013839
  6789.707  6789.690  0.500  2.230535  154.621592  16.617332  0.013926
  6792.800  6792.790  0.500  2.227543  154.525085  16.656716  0.014253
