# XDI/1.0 BlueSky/1.10.0 BMM/2023-1.0-py310-tiled
# Beamline.name: BMM (06BM) -- Beamline for Materials Measurement (NIST)
# Beamline.xray_source: NSLS-II three-pole wiggler
# Beamline.collimation: paraboloid mirror, 5 nm Rh on 30 nm Pt
# Beamline.focusing: not in use
# Beamline.harmonic_rejection: flat mirror, Si stripe, pitch = 7.0 mrad relative to beam
# Beamline.software: Bluesky 1.10.0, Ophyd 1.7.0, DataBroker 2.0.0b13, Python 3.10.8, 2023-1.0-py310-tiled
# Detector.I0: 10 cm N2
# Detector.I1: 25 cm N2
# Detector.I2: 25 cm N2
# Element.symbol: Mn
# Element.edge: K
# Element.reference: Mn
# Element.reference_material: Mn metal powder
# Facility.name: NSLS-II
# Facility.energy: 3.0
# Facility.current: 400.0
# Facility.mode: top-off
# Facility.GUP: 301027
# Facility.SAF: 310583
# Facility.cycle: 2023-2
# Mono.name: Si(111)
# Mono.d_spacing: 3.1351860
# Mono.encoder_resolution: 0.0000050 deg/ct
# Mono.angle_offset: 16.0754326 deg
# Mono.scan_mode: pseudo channel cut
# Mono.scan_type: step
# Mono.direction: forward in energy
# Sample.name: Mn metal powder
# Sample.prep: reference
# Sample.x: 109.138 mm
# Sample.y: 153.150 mm
# Sample.SDD_position: 205.000 mm
# Scan.experimenters: Bruce Ravel
# Scan.edge_energy: 6539.0
# Scan.start_time: 2023-05-28T12:25:43
# Scan.end_time: 2023-05-28T12:33:53
# Scan.transient_id: 78679
# Scan.uid: fa86093f-2d6d-47ba-b93d-a09b620c6404
# Scan.plot_hint: ln(It/Ir)  --  ln($6/$7)
# Column.1: energy eV
# Column.2: requested_energy eV
# Column.3: measurement_time seconds
# Column.4: xmu 
# Column.5: I0 nA
# Column.6: It nA
# Column.7: Ir nA
# ///////////
# standard reference
# -----------
# energy  requested_energy  measurement_time  xmu  I0  It  Ir
  6339.005  6339.000  0.500  3.394678  153.702476  113.960131  3.823518
  6349.010  6349.000  0.500  3.379327  153.945186  114.623151  3.905254
  6359.024  6359.000  0.500  3.364345  154.218337  115.352025  3.989410
  6369.002  6369.000  0.500  3.349364  154.489169  116.111525  4.076288
  6379.007  6379.000  0.500  3.334723  154.727183  116.777762  4.160146
  6389.015  6389.000  0.500  3.319652  154.928555  117.461053  4.248028
  6399.021  6399.000  0.500  3.304933  155.090254  118.109550  4.334819
  6409.006  6409.000  0.500  3.290642  155.247790  118.795829  4.422763
  6419.008  6419.000  0.500  3.276115  155.460527  119.499320  4.514053
  6429.012  6429.000  0.500  3.261895  155.577272  120.096905  4.601602
  6439.005  6439.000  0.500  3.247920  155.674523  120.715793  4.690406
  6449.007  6449.000  0.500  3.234092  153.132224  119.257755  4.698275
  6459.010  6459.000  0.500  3.220559  154.802458  121.077846  4.834967
  6469.007  6469.000  0.500  3.207577  155.991012  122.521360  4.956541
  6480.381  6479.000  0.500  3.193365  155.619180  122.821639  5.039808
  6488.981  6489.000  0.500  3.182479  155.572480  123.197567  5.110565
  6498.979  6499.000  0.500  3.172310  155.728332  123.861513  5.190622
  6508.987  6509.000  0.500  3.165265  155.793907  124.433954  5.251481
  6510.986  6511.000  0.500  3.164348  155.862849  124.587854  5.262802
  6512.985  6513.000  0.500  3.163906  155.884575  124.661684  5.268248
  6514.992  6515.000  0.500  3.163867  155.875350  124.797281  5.274182
  6516.990  6517.000  0.500  3.164243  155.943241  124.957486  5.278966
  6518.988  6519.000  0.500  3.165240  155.968990  125.077964  5.278794
  6520.994  6521.000  0.500  3.167228  156.008730  125.174786  5.272389
  6522.990  6523.000  0.500  3.170048  156.016799  125.296982  5.262671
  6524.997  6525.000  0.500  3.174659  156.028764  125.415411  5.243414
  6526.998  6527.000  0.500  3.181590  156.052425  125.562365  5.213300
  6528.996  6529.000  0.500  3.192079  156.083627  125.740578  5.166224
  6529.285  6529.300  0.500  3.193894  156.064489  125.711700  5.155670
  6529.584  6529.600  0.500  3.196342  156.070834  125.702454  5.142686
  6529.886  6529.900  0.500  3.198638  156.085699  125.696696  5.130659
  6530.183  6530.200  0.500  3.201097  156.077783  125.725397  5.119225
  6530.483  6530.500  0.500  3.203637  156.071219  125.691408  5.104857
  6530.784  6530.800  0.500  3.206427  156.090445  125.706058  5.091227
  6531.089  6531.100  0.500  3.209500  156.092868  125.776581  5.078457
  6531.385  6531.400  0.500  3.212919  156.073522  125.793480  5.061804
  6531.683  6531.700  0.500  3.216633  156.097791  125.842531  5.045006
  6531.985  6532.000  0.500  3.220790  156.072879  125.876797  5.025441
  6532.285  6532.300  0.500  3.224951  156.089880  125.866836  5.004177
  6532.588  6532.600  0.500  3.229741  156.117738  125.933532  4.982906
  6532.888  6532.900  0.500  3.235275  156.093347  125.888307  4.953627
  6533.188  6533.200  0.500  3.241425  156.276926  126.054368  4.929751
  6533.491  6533.500  0.500  3.247860  156.598765  126.332325  4.908929
  6533.793  6533.800  0.500  3.255185  156.615601  126.365360  4.874379
  6534.094  6534.100  0.500  3.263297  156.621537  126.393786  4.836084
  6534.396  6534.400  0.500  3.272510  156.621274  126.402379  4.792057
  6534.696  6534.700  0.500  3.283086  156.599570  126.392826  4.741289
  6534.994  6535.000  0.500  3.295705  156.607285  126.457786  4.684237
  6535.292  6535.300  0.500  3.310723  156.619767  126.446442  4.614002
  6535.592  6535.600  0.500  3.327928  156.593565  126.439999  4.535065
  6535.889  6535.900  0.500  3.348994  156.609452  126.481421  4.441983
  6536.189  6536.200  0.500  3.374901  156.594031  126.469720  4.327984
  6536.491  6536.500  0.500  3.409009  156.620316  126.510706  4.184211
  6536.793  6536.800  0.500  3.454207  156.597255  126.528496  3.999865
  6537.095  6537.100  0.500  3.518031  156.624002  126.532642  3.752676
  6537.397  6537.400  0.500  3.608825  156.640245  126.577917  3.428191
  6537.699  6537.700  0.500  3.739457  156.627038  126.617610  3.009322
  6537.996  6538.000  0.500  3.927015  156.629655  126.573244  2.493796
  6538.298  6538.300  0.500  4.177689  156.628406  126.614299  1.941491
  6538.593  6538.600  0.500  4.459716  156.636861  126.603728  1.464254
  6538.897  6538.900  0.500  4.728332  156.621166  126.606469  1.119354
  6539.195  6539.200  0.500  4.940218  156.633924  126.698310  0.906278
  6539.496  6539.500  0.500  5.102419  156.618951  126.678771  0.770463
  6539.796  6539.800  0.500  5.235377  156.596429  126.706288  0.674688
  6540.097  6540.100  0.500  5.350973  156.606013  126.715397  0.601079
  6540.397  6540.400  0.500  5.456175  156.585120  126.693493  0.540963
  6540.698  6540.700  0.500  5.552813  156.609086  126.740340  0.491314
  6540.997  6541.000  0.500  5.636462  156.587559  126.756441  0.451945
  6541.299  6541.300  0.500  5.702318  156.604431  126.777539  0.423211
  6541.596  6541.600  0.500  5.747095  156.614856  126.801949  0.404757
  6541.898  6541.900  0.500  5.769257  156.575058  126.778543  0.395812
  6542.194  6542.200  0.500  5.775779  156.585168  126.805248  0.393322
  6542.498  6542.500  0.500  5.778703  156.606445  126.810344  0.392189
  6542.795  6542.800  0.500  5.790347  156.612811  126.785552  0.387574
  6543.100  6543.100  0.500  5.819950  156.604313  126.802392  0.376318
  6543.399  6543.400  0.500  5.864163  156.621190  126.803711  0.360046
  6543.699  6543.700  0.500  5.918377  156.601578  126.858304  0.341193
  6543.998  6544.000  0.500  5.974977  156.579888  126.857198  0.322415
  6544.299  6544.300  0.500  6.030112  156.600063  126.906587  0.305239
  6544.602  6544.600  0.500  6.076042  156.606501  126.953135  0.291643
  6544.898  6544.900  0.500  6.111616  156.601471  126.975385  0.281500
  6545.195  6545.200  0.500  6.142056  156.595378  126.990355  0.273092
  6545.496  6545.500  0.500  6.170001  156.620505  127.010317  0.265608
  6545.795  6545.800  0.500  6.202252  156.575282  126.990530  0.257139
  6546.100  6546.100  0.500  6.243143  156.579124  127.000632  0.246856
  6546.401  6546.400  0.500  6.290966  156.573968  127.022394  0.235369
  6546.700  6546.700  0.500  6.347535  156.626723  127.047790  0.222468
  6547.001  6547.000  0.500  6.411098  156.591841  127.035272  0.208747
  6547.303  6547.300  0.500  6.481451  156.587389  127.068675  0.194617
  6547.598  6547.600  0.500  6.555417  156.597678  127.057787  0.180726
  6547.898  6547.900  0.500  6.632615  156.599136  127.103135  0.167359
  6548.196  6548.200  0.500  6.711104  156.589698  127.084281  0.154702
  6548.499  6548.500  0.500  6.789758  156.593314  127.068448  0.142983
  6548.798  6548.800  0.500  6.870224  156.597637  127.092023  0.131953
  6549.101  6549.100  0.500  6.950578  156.561759  127.075588  0.121749
  6549.401  6549.400  0.500  7.033476  156.556205  127.123181  0.112105
  6549.704  6549.700  0.500  7.118710  156.580773  127.164236  0.102979
  6550.006  6550.000  0.500  7.200085  156.567971  127.132172  0.094907
  6550.303  6550.300  0.500  7.279352  156.559067  127.147768  0.087685
  6550.600  6550.600  0.500  7.356833  156.568617  127.170128  0.081162
  6550.897  6550.900  0.500  7.430647  156.566245  127.169494  0.075387
  6551.197  6551.200  0.500  7.504184  156.558249  127.168039  0.070041
  6551.495  6551.500  0.500  7.578589  156.517457  127.181244  0.065026
  6551.799  6551.800  0.500  7.647922  156.534605  127.207396  0.060682
  6552.100  6552.100  0.500  7.715856  156.549953  127.260709  0.056721
  6552.402  6552.400  0.500  7.781635  156.533469  127.269643  0.053113
  6552.704  6552.700  0.500  7.846647  156.538894  127.286685  0.049777
  6553.004  6553.000  0.500  7.913982  156.526749  127.306663  0.046543
  6553.303  6553.300  0.500  7.978934  156.519938  127.313463  0.043618
  6553.596  6553.600  0.500  8.040507  156.520222  127.338762  0.041022
  6553.896  6553.900  0.500  8.091353  156.536700  127.370026  0.038998
  6554.196  6554.200  0.500  8.141457  156.523339  127.381043  0.037095
  6554.498  6554.500  0.500  8.182692  156.528329  127.406670  0.035604
  6554.800  6554.800  0.500  8.220590  156.529072  127.407696  0.034280
  6555.102  6555.100  0.500  8.240824  156.531491  127.440728  0.033602
  6555.406  6555.400  0.500  8.257838  156.509669  127.439845  0.033035
  6555.702  6555.700  0.500  8.265423  156.536210  127.488904  0.032798
  6556.001  6556.000  0.500  8.267801  156.532802  127.476461  0.032717
  6556.301  6556.300  0.500  8.259772  156.529726  127.450386  0.032974
  6556.598  6556.600  0.500  8.240029  156.531429  127.457135  0.033633
  6556.902  6556.900  0.500  8.218781  156.519159  127.491849  0.034365
  6557.198  6557.200  0.500  8.188106  156.534010  127.527837  0.035445
  6557.500  6557.500  0.500  8.159934  156.518139  127.497366  0.036449
  6557.803  6557.800  0.500  8.120382  156.504044  127.473117  0.037912
  6558.107  6558.100  0.500  8.085805  156.518146  127.528397  0.039263
  6558.400  6558.400  0.500  8.047139  156.523520  127.565495  0.040823
  6558.708  6558.700  0.500  8.015158  156.500693  127.534652  0.042139
  6559.001  6559.000  0.500  7.988191  156.505104  127.530836  0.043290
  6559.296  6559.300  0.500  7.963281  156.519561  127.584289  0.044401
  6559.593  6559.600  0.500  7.941333  156.492432  127.569515  0.045381
  6559.899  6559.900  0.500  7.922417  156.521917  127.603336  0.046259
  6560.200  6560.200  0.500  7.907960  156.531169  127.615004  0.046937
  6560.502  6560.500  0.500  7.894940  156.525116  127.633960  0.047559
  6560.803  6560.800  0.500  7.888561  156.515228  127.638541  0.047866
  6561.103  6561.100  0.500  7.886659  156.475814  127.606539  0.047945
  6561.402  6561.400  0.500  7.889278  156.456035  127.604534  0.047819
  6561.703  6561.700  0.500  7.889998  156.371843  127.590315  0.047779
  6562.002  6562.000  0.500  7.893523  156.284052  127.545359  0.047594
  6562.301  6562.300  0.500  7.898537  156.177501  127.460927  0.047325
  6562.602  6562.600  0.500  7.905418  156.184688  127.469318  0.047003
  6562.899  6562.900  0.500  7.912898  156.391167  127.674015  0.046728
  6563.198  6563.200  0.500  7.920241  156.465118  127.758697  0.046417
  6563.505  6563.500  0.500  7.925350  156.494891  127.819261  0.046202
  6563.802  6563.800  0.500  7.930799  156.503458  127.821292  0.045952
  6564.005  6564.000  0.500  7.933941  156.505238  127.800749  0.045800
  6565.002  6564.990  0.500  7.955658  156.522702  127.891898  0.044848
  6565.998  6565.990  0.500  7.969588  156.513518  127.956191  0.044250
  6567.026  6567.010  0.500  7.976775  156.509525  128.014893  0.043953
  6568.075  6568.060  0.500  7.978626  156.511148  128.100125  0.043901
  6569.143  6569.120  0.500  7.974210  156.544195  128.183453  0.044124
  6570.200  6570.200  0.500  7.972115  156.553768  128.182210  0.044216
  6571.294  6571.300  0.500  7.971182  156.544344  128.207764  0.044266
  6572.419  6572.420  0.500  7.967312  156.575125  128.309570  0.044473
  6573.563  6573.560  0.500  7.968809  156.563213  128.348498  0.044420
  6574.711  6574.710  0.500  7.980915  156.582054  128.420109  0.043910
  6575.892  6575.890  0.500  7.992236  156.612144  128.504862  0.043445
  6577.084  6577.080  0.500  8.016077  156.592571  128.542634  0.042434
  6578.302  6578.300  0.500  8.033647  156.629234  128.669415  0.041736
  6579.532  6579.530  0.500  8.052290  156.617473  128.733881  0.040985
  6580.784  6580.780  0.500  8.081372  156.612914  128.800272  0.039831
  6582.048  6582.050  0.500  8.109918  156.642228  128.890463  0.038737
  6583.345  6583.340  0.500  8.139879  156.625078  128.926512  0.037604
  6584.653  6584.650  0.500  8.163911  156.656249  129.015793  0.036737
  6585.990  6585.980  0.500  8.165681  156.471495  128.960276  0.036656
  6587.332  6587.330  0.500  8.150716  156.617740  129.142029  0.037261
  6588.704  6588.700  0.500  8.110710  156.626283  129.217085  0.038805
  6590.088  6590.080  0.500  8.065138  156.641528  129.288768  0.040636
  6591.494  6591.490  0.500  8.026033  156.644085  129.368304  0.042283
  6592.916  6592.910  0.500  7.994596  156.696317  129.477541  0.043670
  6594.349  6594.350  0.500  7.964901  156.667320  129.540649  0.045008
  6595.820  6595.810  0.500  7.928750  156.690596  129.658392  0.046708
  6597.295  6597.290  0.500  7.885353  156.686605  129.721053  0.048803
  6598.798  6598.790  0.500  7.852251  156.702471  129.765000  0.050462
  6600.311  6600.310  0.500  7.829630  156.713617  129.849865  0.051651
  6601.858  6601.850  0.500  7.821931  156.710652  129.936449  0.052085
  6603.422  6603.410  0.500  7.828026  156.440089  129.743087  0.051691
  6604.986  6604.980  0.500  7.844822  156.682318  130.045050  0.050948
  6606.587  6606.580  0.500  7.860930  156.713321  130.185314  0.050188
  6608.197  6608.190  0.500  7.880641  156.718486  130.285660  0.049247
  6609.842  6609.830  0.500  7.910347  156.748603  130.431598  0.047859
  6611.483  6611.480  0.500  7.939212  156.741985  130.521082  0.046529
  6613.157  6613.150  0.500  7.963151  156.757984  130.591433  0.045453
  6614.841  6614.840  0.500  7.983102  156.723571  130.625657  0.044567
  6616.563  6616.550  0.500  7.998559  156.770564  130.738866  0.043921
  6618.287  6618.280  0.500  8.008097  156.727580  130.836150  0.043537
  6620.039  6620.030  0.500  7.999656  156.735781  130.930111  0.043937
  6621.800  6621.790  0.500  7.993114  156.737870  130.982496  0.044243
  6623.588  6623.580  0.500  7.976704  156.757919  131.106855  0.045018
  6625.396  6625.380  0.500  7.958583  156.721487  131.167626  0.045863
  6627.220  6627.210  0.500  7.938367  156.767983  131.255635  0.046831
  6629.056  6629.050  0.500  7.916245  156.712191  131.279047  0.047887
  6630.924  6630.910  0.500  7.897438  156.778500  131.465298  0.048865
  6632.795  6632.790  0.500  7.889278  156.780041  131.541446  0.049294
  6634.699  6634.690  0.500  7.890785  156.782929  131.618514  0.049248
  6636.619  6636.610  0.500  7.903389  156.806240  131.747714  0.048679
  6638.553  6638.550  0.500  7.921022  156.807664  131.867323  0.047872
  6640.520  6640.510  0.500  7.931273  156.792379  131.923659  0.047404
  6642.485  6642.480  0.500  7.935336  156.812392  132.066233  0.047263
  6644.493  6644.480  0.500  7.930914  157.227842  132.503113  0.047629
  6646.492  6646.490  0.500  7.914088  157.254299  132.644343  0.048489
  6648.525  6648.520  0.500  7.892538  157.295280  132.780575  0.049596
  6650.586  6650.580  0.500  7.864108  157.319441  132.918781  0.051080
  6652.657  6652.650  0.500  7.841552  157.319074  133.030883  0.052289
  6654.752  6654.740  0.500  7.817073  157.333131  133.148440  0.053632
  6656.854  6656.850  0.500  7.800397  157.347541  133.261874  0.054580
  6658.982  6658.980  0.500  7.784068  157.342938  133.367623  0.055523
  6661.128  6661.120  0.500  7.777714  157.333366  133.476521  0.055923
  6663.300  6663.290  0.500  7.771196  157.330658  133.593269  0.056337
  6665.482  6665.480  0.500  7.778320  157.324151  133.714520  0.055988
  6667.685  6667.680  0.500  7.790402  157.308690  133.827798  0.055363
  6669.914  6669.900  0.500  7.806098  157.326326  133.977749  0.054562
  6672.158  6672.150  0.500  7.824425  157.327204  134.100105  0.053620
  6674.421  6674.410  0.500  7.836694  157.310894  134.200496  0.053006
  6676.700  6676.690  0.500  7.845937  157.281669  134.268801  0.052545
  6679.003  6678.990  0.500  7.853393  157.299920  134.351619  0.052186
  6681.315  6681.310  0.500  7.853435  157.316984  134.485266  0.052236
  6683.659  6683.650  0.500  7.853191  157.311874  134.608841  0.052297
  6686.006  6686.000  0.500  7.849082  157.333544  134.737942  0.052563
  6688.387  6688.380  0.500  7.841404  157.306929  134.874033  0.053021
  6690.780  6690.770  0.500  7.828606  157.306329  134.971304  0.053743
  6693.204  6693.190  0.500  7.810368  157.300273  135.028584  0.054755
  6695.634  6695.620  0.500  7.789723  157.318690  135.189128  0.055964
  6698.083  6698.070  0.500  7.771313  157.303464  135.321852  0.057060
  6700.559  6700.550  0.500  7.751867  157.296716  135.434550  0.058229
  6703.049  6703.040  0.500  7.729244  157.266131  135.538252  0.059607
  6705.563  6705.550  0.500  7.709772  157.241798  135.641436  0.060825
  6708.082  6708.070  0.500  7.691910  157.269007  135.793376  0.061990
  6710.630  6710.620  0.500  7.682357  157.256077  135.923959  0.062646
  6713.206  6713.190  0.500  7.678911  157.253893  136.051805  0.062921
  6715.783  6715.770  0.500  7.682087  157.252141  136.150133  0.062767
  6718.392  6718.380  0.500  7.683363  157.215191  136.248544  0.062732
  6721.009  6721.000  0.500  7.679066  157.207673  136.373867  0.063060
  6723.662  6723.650  0.500  7.679107  157.231075  136.558480  0.063143
  6726.327  6726.310  0.500  7.678038  157.211773  136.622498  0.063240
  6729.004  6728.990  0.500  7.677283  157.197328  136.747070  0.063346
  6731.698  6731.690  0.500  7.678676  157.158457  136.855441  0.063308
  6734.422  6734.410  0.500  7.679336  157.173565  137.014383  0.063339
  6737.173  6737.150  0.500  7.679680  157.135425  137.115719  0.063364
  6739.914  6739.900  0.500  7.677281  157.111588  137.248926  0.063578
  6742.695  6742.680  0.500  7.672970  157.102321  137.380315  0.063914
  6745.491  6745.470  0.500  7.665394  157.074615  137.515474  0.064463
  6748.305  6748.290  0.500  7.652142  157.048277  137.621381  0.065374
  6751.129  6751.120  0.500  7.638921  156.994383  137.697905  0.066281
  6753.984  6753.970  0.500  7.622389  156.987673  137.830223  0.067450
  6756.865  6756.850  0.500  7.611141  157.003687  137.993483  0.068294
  6759.755  6759.740  0.500  7.608573  156.970222  138.097730  0.068521
  6762.664  6762.650  0.500  7.608780  156.953061  138.232622  0.068574
  6765.584  6765.570  0.500  7.606687  156.939096  138.349157  0.068776
  6768.532  6768.520  0.500  7.602515  156.893798  138.438492  0.069108
  6771.501  6771.490  0.500  7.595264  156.883875  138.549564  0.069666
  6774.485  6774.470  0.500  7.585166  156.852994  138.648601  0.070424
  6777.495  6777.480  0.500  7.569976  156.834874  138.820609  0.071590
  6780.529  6780.500  0.500  7.556252  156.837029  138.992384  0.072670
  6783.576  6783.550  0.500  7.535526  156.808386  139.135367  0.074268
