# XDI/1.0 BlueSky/1.5.3
# Beamline.name: 6BM
# Beamline.xray_source: NSLS-II three-pole wiggler
# Beamline.collimation: paraboloid mirror, 5 nm Rh on 30 nm Pt
# Beamline.focusing: not in use
# Beamline.harmonic_rejection: flat mirror, Si stripe, pitch = 7.0 mrad relative to beam
# Detector.i0: 10 cm N2
# Detector.i1: 25 cm N2
# Detector.i2: 25 cm N2
# Element.symbol: Mn
# Element.edge: K
# Facility.name: NSLS-II
# Facility.energy: 3.0
# Facility.current: 399.6
# Facility.mode: top-off
# Facility.gup: 305081
# Facility.saf: 305123
# Mono.name: Si(111)
# Mono.d_spacing: 3.1353241
# Mono.encoder_resolution: 0.0000050 deg/ct
# Mono.angle_offset: 16.0581090 deg
# Mono.scan_mode: fixed exit
# Mono.scan_type: step
# Mono.direction: forward in energy
# Sample.name: MnPO4
# Sample.prep: Powder in polyethylene glycol pellet
# Sample.x_position: -120.140 mm
# Sample.y_position: 112.312 mm
# Scan.experimenters: Neil Hyatt, Martin Stennett, Lucy Mottram
# Scan.edge_energy: 6539.0
# Scan.start_time: 2019-11-11T18:54:51
# Scan.end_time: 2019-11-12T06:32:02
# Scan.transient_id: 17910
# Scan.uid: e05afa74-0a7c-44d3-9357-1f8fce763fbe
# Scan.plot_hint: ln(I0/It)  --  ln($5/$6)
# Scan.sequence: merge of 3 scans
# Column.1: energy eV
# Column.2: requested_energy eV
# Column.3: measurement_time seconds
# Column.4: mutrans
# Column.5: i0
# Column.6: itrans
# Column.7: irefer
# /////
#  likely Heterosite, Roggebaai, South Africa
# -----
# energy   requested_energy   measurement_time   mutrans   i0   itrans   irefer
6338.999000 6339.000000 0.500000 2.200630 89.578497 9.919449 2.281077
6349.010000 6349.000000 0.500000 2.187304 89.741966 10.070966 2.331617
6359.013000 6359.000000 0.500000 2.174164 90.002775 10.233734 2.386203
6369.016000 6369.000000 0.500000 2.161352 90.165797 10.384356 2.437653
6379.021000 6379.000000 0.500000 2.148240 90.446006 10.554226 2.495136
6389.018000 6389.000000 0.500000 2.135454 90.598935 10.708049 2.547921
6399.013000 6399.000000 0.500000 2.122735 90.755752 10.863885 2.603017
6409.018000 6409.000000 0.500000 2.110119 90.889730 11.018075 2.657493
6419.016000 6419.000000 0.500000 2.097384 91.022833 11.175648 2.714001
6429.015000 6429.000000 0.500000 2.084965 91.149307 11.331001 2.769578
6439.012000 6439.000000 0.500000 2.072549 91.269374 11.487663 2.826178
6449.009000 6449.000000 0.500000 2.060170 91.244796 11.627569 2.879420
6459.009000 6459.000000 0.500000 2.047987 91.217324 11.766535 2.932095
6469.004000 6469.000000 0.500000 2.035860 91.635002 11.964574 3.000362
6479.010000 6479.000000 0.500000 2.023756 91.751669 12.125800 3.060180
6489.001000 6489.000000 0.500000 2.011771 91.901519 12.291940 3.122140
6499.003000 6499.000000 0.500000 1.999911 92.175595 12.475634 3.186862
6508.947000 6509.000000 0.500000 1.988079 92.335985 12.645517 3.248475
6510.993000 6511.000000 0.500000 1.985925 92.363026 12.676950 3.259984
6512.987000 6513.000000 0.500000 1.983593 92.373298 12.707939 3.271558
6514.996000 6515.000000 0.500000 1.981342 92.391307 12.739124 3.282581
6516.990000 6517.000000 0.500000 1.979154 92.414565 12.770238 3.293745
6518.986000 6519.000000 0.500000 1.976943 92.460815 12.804820 3.305918
6520.989000 6521.000000 0.500000 1.974624 92.498824 12.839888 3.317395
6523.017000 6523.000000 0.500000 1.972468 92.512727 12.869749 3.327243
6524.990000 6525.000000 0.500000 1.970299 92.549775 12.902671 3.337688
6526.984000 6527.000000 0.500000 1.968206 92.580725 12.933596 3.345763
6528.986000 6529.000000 0.500000 1.966293 92.601090 12.961617 3.353001
6529.087000 6529.100000 0.500000 1.966096 92.589675 12.961906 3.353368
6529.191000 6529.200000 0.500000 1.966149 92.597623 12.963359 3.353854
6529.309000 6529.300000 0.500000 1.966005 92.566511 12.961169 3.352847
6529.476000 6529.400000 0.500000 1.965784 92.575700 12.964306 3.353294
6529.485000 6529.500000 0.500000 1.965841 92.574152 12.963811 3.353033
6529.583000 6529.600000 0.500000 1.965746 92.557176 12.962661 3.352615
6529.684000 6529.700000 0.500000 1.965582 92.552534 12.964166 3.353132
6529.786000 6529.800000 0.500000 1.965509 92.561383 12.966330 3.353433
6529.885000 6529.900000 0.500000 1.965333 92.555691 12.967809 3.354063
6529.985000 6530.000000 0.500000 1.965277 92.551735 12.968004 3.353649
6530.085000 6530.100000 0.500000 1.965242 92.541652 12.967015 3.353365
6530.184000 6530.200000 0.500000 1.965153 92.537622 12.967611 3.353659
6530.285000 6530.300000 0.500000 1.965016 92.548951 12.970982 3.353625
6530.387000 6530.400000 0.500000 1.964928 92.546847 12.971834 3.354195
6530.489000 6530.500000 0.500000 1.964794 92.556655 12.974965 3.354085
6530.588000 6530.600000 0.500000 1.964715 92.543482 12.974124 3.354338
6530.690000 6530.700000 0.500000 1.964653 92.547996 12.975537 3.354510
6530.789000 6530.800000 0.500000 1.964556 92.547189 12.976707 3.354491
6530.887000 6530.900000 0.500000 1.964466 92.551439 12.978449 3.354605
6530.995000 6531.000000 0.500000 1.964358 92.527747 12.976583 3.353911
6531.095000 6531.100000 0.500000 1.964201 92.533149 12.979399 3.354082
6531.192000 6531.200000 0.500000 1.964155 92.548242 12.982049 3.354802
6531.296000 6531.300000 0.500000 1.964131 92.563195 12.984473 3.355889
6531.395000 6531.400000 0.500000 1.963938 92.551385 12.985307 3.355299
6531.494000 6531.500000 0.500000 1.963878 92.529406 12.983035 3.354128
6531.602000 6531.600000 0.500000 1.963767 92.530404 12.984622 3.354833
6531.698000 6531.700000 0.500000 1.963672 92.540291 12.987221 3.354513
6531.801000 6531.800000 0.500000 1.963619 92.545060 12.988600 3.354791
6531.916000 6531.900000 0.500000 1.963573 92.543723 12.989036 3.354370
6532.012000 6532.000000 0.500000 1.963455 92.526714 12.988375 3.353714
6532.086000 6532.100000 0.500000 1.963308 92.533207 12.990748 3.353959
6532.188000 6532.200000 0.500000 1.963268 92.548928 12.993671 3.354897
6532.303000 6532.300000 0.500000 1.963167 92.533445 12.992671 3.353821
6532.407000 6532.400000 0.500000 1.963129 92.513485 12.990562 3.353435
6532.504000 6532.500000 0.500000 1.963002 92.523932 12.993673 3.353174
6532.605000 6532.600000 0.500000 1.962872 92.529399 12.996137 3.353751
6532.707000 6532.700000 0.500000 1.962778 92.526123 12.996889 3.352514
6532.802000 6532.800000 0.500000 1.962663 92.519102 12.997332 3.352580
6532.903000 6532.900000 0.500000 1.962641 92.506675 12.995921 3.351907
6533.005000 6533.000000 0.500000 1.962608 92.512310 12.997116 3.351101
6533.104000 6533.100000 0.500000 1.962457 92.515288 12.999547 3.351450
6533.203000 6533.200000 0.500000 1.962395 92.523202 13.001408 3.350950
6533.301000 6533.300000 0.500000 1.962452 92.527746 13.001345 3.350679
6533.402000 6533.400000 0.500000 1.962254 92.524347 13.003387 3.350283
6533.501000 6533.500000 0.500000 1.962265 92.504606 13.000520 3.348692
6533.601000 6533.600000 0.500000 1.962170 92.505463 13.001930 3.348575
6533.700000 6533.700000 0.500000 1.962014 92.524003 13.006459 3.348484
6533.801000 6533.800000 0.500000 1.962019 92.526164 13.006721 3.347456
6533.901000 6533.900000 0.500000 1.961957 92.519448 13.006592 3.346600
6533.998000 6534.000000 0.500000 1.961825 92.508445 13.006751 3.345574
6534.101000 6534.100000 0.500000 1.961740 92.516964 13.009043 3.344716
6534.201000 6534.200000 0.500000 1.961683 92.512320 13.009162 3.343857
6534.298000 6534.300000 0.500000 1.961559 92.498131 13.008751 3.342263
6534.397000 6534.400000 0.500000 1.961551 92.519482 13.011864 3.341861
6534.499000 6534.500000 0.500000 1.961495 92.515741 13.012074 3.340555
6534.596000 6534.600000 0.500000 1.961385 92.515128 13.013400 3.339431
6534.695000 6534.700000 0.500000 1.961343 92.506248 13.012691 3.338083
6534.799000 6534.800000 0.500000 1.961293 92.503088 13.012910 3.335570
6534.900000 6534.900000 0.500000 1.961166 92.488232 13.012452 3.333676
6534.999000 6535.000000 0.500000 1.961123 92.498494 13.014468 3.332696
6535.101000 6535.100000 0.500000 1.961098 92.508854 13.016263 3.331100
6535.204000 6535.200000 0.500000 1.961066 92.507925 13.016586 3.328285
6535.297000 6535.300000 0.500000 1.961029 92.498179 13.015651 3.326022
6535.401000 6535.400000 0.500000 1.961006 92.497797 13.015899 3.323115
6535.505000 6535.500000 0.500000 1.960897 92.486265 13.015700 3.319498
6535.601000 6535.600000 0.500000 1.960848 92.481656 13.015642 3.315832
6535.701000 6535.700000 0.500000 1.960853 92.505063 13.018914 3.313377
6535.804000 6535.800000 0.500000 1.960777 92.512557 13.020947 3.309574
6535.901000 6535.900000 0.500000 1.960806 92.512360 13.020585 3.305296
6536.001000 6536.000000 0.500000 1.960661 92.496253 13.020164 3.299571
6536.106000 6536.100000 0.500000 1.960720 92.466653 13.015240 3.292666
6536.201000 6536.200000 0.500000 1.960704 92.481495 13.017525 3.287546
6536.301000 6536.300000 0.500000 1.960819 92.484560 13.016470 3.279938
6536.404000 6536.400000 0.500000 1.960646 92.486741 13.019008 3.272360
6536.505000 6536.500000 0.500000 1.960732 92.484927 13.017639 3.262238
6536.600000 6536.600000 0.500000 1.960794 92.477441 13.015790 3.252009
6536.702000 6536.700000 0.500000 1.960878 92.477344 13.014706 3.239638
6536.803000 6536.800000 0.500000 1.960784 92.577321 13.029884 3.228990
6536.898000 6536.900000 0.500000 1.960918 92.601276 13.031615 3.213107
6536.997000 6537.000000 0.500000 1.961006 92.667924 13.039910 3.196732
6537.100000 6537.100000 0.500000 1.961081 92.662490 13.038187 3.174548
6537.198000 6537.200000 0.500000 1.961300 92.666492 13.035850 3.149475
6537.299000 6537.300000 0.500000 1.961419 92.682163 13.036558 3.124136
6537.402000 6537.400000 0.500000 1.961687 92.668460 13.031064 3.095493
6537.497000 6537.500000 0.500000 1.962028 92.655324 13.024890 3.065494
6537.598000 6537.600000 0.500000 1.962358 92.652435 13.020122 3.034528
6537.698000 6537.700000 0.500000 1.962801 92.660826 13.015510 3.004270
6537.795000 6537.800000 0.500000 1.963183 92.670125 13.011939 2.976470
6537.898000 6537.900000 0.500000 1.963746 92.663034 13.003507 2.946459
6537.999000 6538.000000 0.500000 1.964248 92.636416 12.993254 2.919891
6538.097000 6538.100000 0.500000 1.964756 92.656341 12.989503 2.895077
6538.196000 6538.200000 0.500000 1.965215 92.664190 12.984678 2.873607
6538.299000 6538.300000 0.500000 1.965724 92.769577 12.992693 2.854445
6538.394000 6538.400000 0.500000 1.966225 92.756869 12.984497 2.836327
6538.497000 6538.500000 0.500000 1.966748 92.761553 12.978360 2.816964
6538.599000 6538.600000 0.500000 1.967156 92.756445 12.972206 2.800379
6538.700000 6538.700000 0.500000 1.967716 92.765335 12.966244 2.784824
6538.799000 6538.800000 0.500000 1.968106 92.761247 12.960685 2.770951
6538.901000 6538.900000 0.500000 1.968661 92.761458 12.953458 2.756790
6539.000000 6539.000000 0.500000 1.969187 92.757963 12.946121 2.742796
6539.098000 6539.100000 0.500000 1.969690 92.749557 12.938543 2.730921
6539.204000 6539.200000 0.500000 1.970282 92.764012 12.932678 2.718562
6539.304000 6539.300000 0.500000 1.970969 92.775618 12.925551 2.706643
6539.400000 6539.400000 0.500000 1.971379 92.772509 12.919924 2.696307
6539.502000 6539.500000 0.500000 1.971838 92.746813 12.910315 2.684981
6539.601000 6539.600000 0.500000 1.972098 92.749498 12.907377 2.675910
6539.700000 6539.700000 0.500000 1.972186 92.748853 12.906150 2.666764
6539.801000 6539.800000 0.500000 1.972261 92.748102 12.905088 2.657837
6539.904000 6539.900000 0.500000 1.972172 92.741721 12.905310 2.649927
6540.001000 6540.000000 0.500000 1.972049 92.748131 12.907775 2.642726
6540.101000 6540.100000 0.500000 1.971834 92.741956 12.909695 2.636525
6540.202000 6540.200000 0.500000 1.971530 92.745350 12.914115 2.629965
6540.301000 6540.300000 0.500000 1.971200 92.749905 12.918978 2.624602
6540.398000 6540.400000 0.500000 1.970932 92.757310 12.923487 2.619234
6540.503000 6540.500000 0.500000 1.970571 92.749417 12.927114 2.614221
6540.600000 6540.600000 0.500000 1.970338 92.731357 12.927509 2.609413
6540.699000 6540.700000 0.500000 1.969980 92.726884 12.931527 2.605798
6540.800000 6540.800000 0.500000 1.969884 92.725927 12.932652 2.601972
6540.895000 6540.900000 0.500000 1.969640 92.739405 12.937699 2.600431
6540.996000 6541.000000 0.500000 1.969478 92.745964 12.940722 2.598492
6541.100000 6541.100000 0.500000 1.969331 92.722730 12.939363 2.596584
6541.198000 6541.200000 0.500000 1.969318 92.741411 12.942164 2.595397
6541.297000 6541.300000 0.500000 1.969115 92.734287 12.943778 2.594842
6541.401000 6541.400000 0.500000 1.969078 92.726014 12.943157 2.593340
6541.495000 6541.500000 0.500000 1.968976 92.730838 12.945064 2.592792
6541.597000 6541.600000 0.500000 1.968935 92.738277 12.946686 2.592883
6541.702000 6541.700000 0.500000 1.968755 92.743008 12.949703 2.592898
6541.799000 6541.800000 0.500000 1.968682 92.724379 12.947995 2.591481
6541.900000 6541.900000 0.500000 1.968631 92.713424 12.947138 2.589240
6542.002000 6542.000000 0.500000 1.968574 92.723858 12.949340 2.587639
6542.100000 6542.100000 0.500000 1.968460 92.721546 12.950506 2.585420
6542.199000 6542.200000 0.500000 1.968454 92.743364 12.953601 2.583142
6542.303000 6542.300000 0.500000 1.968484 92.736136 12.952254 2.580046
6542.400000 6542.400000 0.500000 1.968334 92.721609 12.952135 2.576121
6542.499000 6542.500000 0.500000 1.968411 92.712952 12.949945 2.571742
6542.602000 6542.600000 0.500000 1.968479 92.703452 12.947715 2.566687
6542.703000 6542.700000 0.500000 1.968488 92.713549 12.948977 2.561314
6542.802000 6542.800000 0.500000 1.968583 92.717220 12.948303 2.556584
6542.903000 6542.900000 0.500000 1.968705 92.728395 12.948268 2.551692
6543.004000 6543.000000 0.500000 1.968898 92.716834 12.944118 2.544947
6543.101000 6543.100000 0.500000 1.969180 92.699152 12.938097 2.538764
6543.204000 6543.200000 0.500000 1.969362 92.706398 12.936679 2.533087
6543.304000 6543.300000 0.500000 1.969664 92.726988 12.935623 2.527381
6543.400000 6543.400000 0.500000 1.969923 92.719765 12.931402 2.521683
6543.503000 6543.500000 0.500000 1.970283 92.717049 12.926249 2.515169
6543.602000 6543.600000 0.500000 1.970596 92.716828 12.922141 2.509042
6543.699000 6543.700000 0.500000 1.971019 92.698740 12.914262 2.502763
6543.798000 6543.800000 0.500000 1.971451 92.704549 12.909625 2.497143
6543.901000 6543.900000 0.500000 1.971949 92.708068 12.903521 2.490762
6543.998000 6544.000000 0.500000 1.972454 92.706216 12.896735 2.484982
6544.099000 6544.100000 0.500000 1.973062 92.704179 12.888714 2.478722
6544.202000 6544.200000 0.500000 1.973648 92.691446 12.879116 2.471915
6544.297000 6544.300000 0.500000 1.974325 92.695540 12.871205 2.465089
6544.396000 6544.400000 0.500000 1.975114 92.686090 12.859686 2.458009
6544.497000 6544.500000 0.500000 1.975938 92.692038 12.849974 2.451262
6544.598000 6544.600000 0.500000 1.976896 92.697164 12.838126 2.443644
6544.695000 6544.700000 0.500000 1.978021 92.685631 12.822771 2.435953
6544.800000 6544.800000 0.500000 1.979221 92.704202 12.809377 2.427430
6544.899000 6544.900000 0.500000 1.980349 92.699060 12.793965 2.418750
6544.998000 6545.000000 0.500000 1.981778 92.684479 12.773902 2.409688
6545.097000 6545.100000 0.500000 1.983303 92.690181 12.755206 2.400344
6545.200000 6545.200000 0.500000 1.984954 92.677518 12.731984 2.390330
6545.292000 6545.300000 0.500000 1.986725 92.666050 12.709298 2.380088
6545.398000 6545.400000 0.500000 1.988723 92.663801 12.682909 2.369506
6545.503000 6545.500000 0.500000 1.990994 92.673546 12.654347 2.357777
6545.600000 6545.600000 0.500000 1.993260 92.669384 12.626111 2.346304
6545.699000 6545.700000 0.500000 1.995727 92.666616 12.595067 2.333983
6545.802000 6545.800000 0.500000 1.998409 92.638277 12.556844 2.319938
6545.901000 6545.900000 0.500000 2.001059 92.642036 12.523707 2.307478
6546.000000 6546.000000 0.500000 2.004159 92.653822 12.487432 2.293703
6546.105000 6546.100000 0.500000 2.007410 92.671416 12.448030 2.279424
6546.202000 6546.200000 0.500000 2.010787 92.660695 12.405912 2.264734
6546.301000 6546.300000 0.500000 2.014343 92.628223 12.357381 2.248478
6546.404000 6546.400000 0.500000 2.018082 92.622276 12.309566 2.232692
6546.500000 6546.500000 0.500000 2.021847 92.621228 12.264051 2.217857
6546.603000 6546.600000 0.500000 2.026010 92.616198 12.211970 2.200874
6546.704000 6546.700000 0.500000 2.030233 92.606638 12.158784 2.184280
6546.803000 6546.800000 0.500000 2.034507 92.609408 12.108449 2.168178
6546.902000 6546.900000 0.500000 2.038913 92.608776 12.055679 2.151298
6547.001000 6547.000000 0.500000 2.043455 92.595288 11.999509 2.134440
6547.102000 6547.100000 0.500000 2.048194 92.599203 11.941456 2.117175
6547.198000 6547.200000 0.500000 2.052793 92.585838 11.886382 2.100712
6547.301000 6547.300000 0.500000 2.057833 92.602736 11.827657 2.082482
6547.402000 6547.400000 0.500000 2.063117 92.591426 11.762603 2.064689
6547.499000 6547.500000 0.500000 2.068662 92.595581 11.700206 2.047117
6547.600000 6547.600000 0.500000 2.074463 92.589360 11.631754 2.027534
6547.699000 6547.700000 0.500000 2.080504 92.572627 11.559644 2.008836
6547.795000 6547.800000 0.500000 2.086596 92.567352 11.489533 1.989149
6547.896000 6547.900000 0.500000 2.093124 92.557224 11.413781 1.969289
6548.002000 6548.000000 0.500000 2.099671 92.564174 11.335682 1.948278
6548.098000 6548.100000 0.500000 2.106473 92.567798 11.263285 1.928623
6548.197000 6548.200000 0.500000 2.113132 92.550363 11.185408 1.908347
6548.300000 6548.300000 0.500000 2.119918 92.536105 11.107063 1.888037
6548.394000 6548.400000 0.500000 2.126295 92.533176 11.037820 1.870402
6548.497000 6548.500000 0.500000 2.132688 92.564426 10.971358 1.851483
6548.599000 6548.600000 0.500000 2.138687 92.544733 10.901517 1.833250
6548.699000 6548.700000 0.500000 2.144250 92.540233 10.841141 1.816649
6548.798000 6548.800000 0.500000 2.149482 92.528305 10.783916 1.800557
6548.899000 6548.900000 0.500000 2.154536 92.540444 10.731448 1.785999
6548.998000 6549.000000 0.500000 2.158883 92.540513 10.684700 1.771852
6549.099000 6549.100000 0.500000 2.163242 92.533241 10.637377 1.757887
6549.204000 6549.200000 0.500000 2.167111 92.523538 10.593940 1.745094
6549.301000 6549.300000 0.500000 2.170678 92.498015 10.553690 1.732193
6549.401000 6549.400000 0.500000 2.174062 92.515646 10.520396 1.720551
6549.504000 6549.500000 0.500000 2.177553 92.528876 10.484772 1.709024
6549.603000 6549.600000 0.500000 2.180828 92.574167 10.455126 1.698385
6549.700000 6549.700000 0.500000 2.184000 92.611881 10.427744 1.688708
6549.805000 6549.800000 0.500000 2.187252 92.731716 10.406061 1.678824
6549.902000 6549.900000 0.500000 2.190444 92.734549 10.373792 1.668916
6550.000000 6550.000000 0.500000 2.193576 92.722434 10.341060 1.658063
6550.103000 6550.100000 0.500000 2.196749 92.723710 10.307267 1.647103
6550.204000 6550.200000 0.500000 2.199968 92.749467 10.277001 1.637675
6550.300000 6550.300000 0.500000 2.203256 92.723204 10.241257 1.626792
6550.403000 6550.400000 0.500000 2.206521 92.704805 10.205276 1.616545
6550.504000 6550.500000 0.500000 2.209856 92.714374 10.171797 1.605730
6550.601000 6550.600000 0.500000 2.213224 92.726401 10.139591 1.597057
6550.700000 6550.700000 0.500000 2.216331 92.709512 10.106271 1.586786
6550.798000 6550.800000 0.500000 2.219777 92.704020 10.071494 1.577021
6550.899000 6550.900000 0.500000 2.222998 92.709707 10.038677 1.567799
6551.000000 6551.000000 0.500000 2.226763 92.717891 10.002331 1.557660
6551.101000 6551.100000 0.500000 2.230310 92.719619 9.966489 1.547879
6551.197000 6551.200000 0.500000 2.234107 92.711916 9.929010 1.538299
6551.296000 6551.300000 0.500000 2.237901 92.811449 9.901735 1.529691
6551.399000 6551.400000 0.500000 2.241935 92.806907 9.860744 1.519488
6551.497000 6551.500000 0.500000 2.246004 92.801121 9.819962 1.509072
6551.594000 6551.600000 0.500000 2.250282 92.789731 9.778224 1.498792
6551.701000 6551.700000 0.500000 2.254522 92.800616 9.736024 1.487838
6551.798000 6551.800000 0.500000 2.258851 92.807976 9.695011 1.477948
6551.898000 6551.900000 0.500000 2.263308 92.792033 9.650840 1.467303
6551.999000 6552.000000 0.500000 2.267567 92.787723 9.609091 1.457338
6552.100000 6552.100000 0.500000 2.271815 92.779955 9.567283 1.446869
6552.198000 6552.200000 0.500000 2.275850 92.780118 9.529180 1.438304
