# XDI/1.0 BlueSky/1.10.0 BMM/2023-1.0-py310-tiled
# Beamline.name: BMM (06BM) -- Beamline for Materials Measurement (NIST)
# Beamline.xray_source: NSLS-II three-pole wiggler
# Beamline.collimation: paraboloid mirror, 5 nm Rh on 30 nm Pt
# Beamline.focusing: not in use
# Beamline.harmonic_rejection: flat mirror, Si stripe, pitch = 7.0 mrad relative to beam
# Beamline.software: Bluesky 1.10.0, Ophyd 1.7.0, DataBroker 2.0.0b13, Python 3.10.8, 2023-1.0-py310-tiled
# Detector.I0: 10 cm N2
# Detector.I1: 25 cm N2
# Detector.I2: 25 cm N2
# Detector.fluorescence: SII Vortex ME4 (4-element silicon drift)
# Detector.deadtime_correction: Xspress3
# Element.symbol: Mn
# Element.edge: K
# Element.reference: Mn
# Element.reference_material: Mn metal powder
# Facility.name: NSLS-II
# Facility.energy: 3.0
# Facility.current: 398.9
# Facility.mode: top-off
# Facility.GUP: 301027
# Facility.SAF: 310583
# Facility.cycle: 2023-2
# Mono.name: Si(111)
# Mono.d_spacing: 3.1351860
# Mono.encoder_resolution: 0.0000050 deg/ct
# Mono.angle_offset: 16.0754326 deg
# Mono.scan_mode: pseudo channel cut
# Mono.scan_type: step
# Mono.direction: forward in energy
# Sample.name: Ca(Zn,Mn,Fe,Mg)Si2O6
# Sample.prep: powder on tape
# Sample.x: 119.711 mm
# Sample.y: 114.376 mm
# Sample.SDD_position: 25.000 mm
# Scan.experimenters: Bruce Ravel
# Scan.edge_energy: 6539.0
# Scan.start_time: 2023-06-27T11:13:01
# Scan.end_time: 2023-06-27T11:29:25
# Scan.transient_id: 85125
# Scan.uid: 5b04dda5-23be-4ab9-b0a8-2d0e256397f4
# Scan.plot_hint: (Mn1+Mn2+Mn3+Mn4)/I0  --  ($8+$9+$10+$11)/$5
# Column.1: energy eV
# Column.2: requested_energy eV
# Column.3: measurement_time seconds
# Column.4: xmu 
# Column.5: I0 nA
# Column.6: It nA
# Column.7: Ir nA
# Column.8: Mn1 
# Column.9: Mn2 
# Column.10: Mn3 
# Column.11: Mn4 
# ///////////
# sample courtesy Martin Stennett, University of Sheffield
# -----------
# energy  requested_energy  measurement_time  xmu  I0  It  Ir  Mn1  Mn2  Mn3  Mn4
  6339.003  6339.000  2.000  6.793716  585.742660  136.944307  6.576862  1237.197844  1001.060039  774.047730  967.063899
  6349.037  6349.000  2.000  6.854109  587.013221  138.574342  6.745008  1304.280383  1029.062593  748.046870  942.062694
  6359.021  6359.000  2.000  6.803612  588.489565  140.369814  6.925652  1230.679009  986.060076  822.051527  965.064340
  6369.016  6369.000  2.000  6.617927  589.997400  142.121278  7.107512  1177.386286  976.059558  793.049823  958.064131
  6379.010  6379.000  2.000  6.705983  591.325837  143.844326  7.286903  1247.244632  958.059490  838.054013  922.063052
  6389.012  6389.000  2.000  6.540696  592.538871  145.578208  7.473291  1246.443675  950.059990  780.050523  899.062316
  6399.007  6399.000  2.000  6.633627  594.220586  147.468648  7.671026  1187.653368  1008.064800  775.050853  971.068564
  6409.009  6409.000  2.000  6.781581  596.689237  149.459565  7.877112  1211.301834  1049.069199  808.054423  978.070916
  6419.005  6419.000  2.000  6.669667  597.939145  151.194515  8.071952  1248.868418  1003.065243  774.051997  962.069389
  6429.002  6429.000  2.000  6.613460  598.697118  152.871680  8.266347  1207.269409  1025.068039  786.053412  941.068816
  6439.005  6439.000  2.000  6.751690  599.419672  154.516406  8.460100  1198.898050  1012.067208  831.056621  1005.073873
  6448.998  6449.000  2.000  6.549271  590.910379  153.789299  8.525460  1184.846063  965.063923  756.051591  964.070655
  6459.001  6459.000  2.000  6.600328  593.403416  155.862779  8.744752  1151.460286  1002.068329  805.056198  958.072413
  6469.001  6469.000  2.000  6.940474  601.680551  159.530594  9.055017  1228.731559  1107.078063  805.057763  1035.080924
  6478.974  6479.000  2.000  6.635115  597.813127  159.951730  9.178876  1188.353496  999.070684  772.055651  1007.078911
  6488.985  6489.000  2.000  6.664474  598.405294  161.535677  9.364194  1186.847846  1044.074834  840.061330  917.072638
  6498.984  6499.000  2.000  6.739759  599.024533  163.216540  9.542531  1191.066687  1005.072748  840.061330  1001.080493
  6508.988  6509.000  2.000  6.821014  599.735771  164.891556  9.695770  1174.582898  1067.078510  871.065368  978.079353
  6510.991  6511.000  2.000  6.837402  599.574275  165.133870  9.714822  1233.312244  991.072200  884.065681  991.080216
  6512.990  6513.000  2.000  6.852088  599.591932  165.500342  9.737994  1217.235463  1051.077070  864.064692  976.079319
  6514.998  6515.000  2.000  6.913484  599.436992  165.768870  9.751866  1259.975900  1108.082234  857.064821  919.074934
  6516.997  6517.000  2.000  7.107304  599.434063  166.019994  9.759230  1249.128180  1094.080805  901.067828  1016.083090
  6518.997  6519.000  2.000  6.975886  599.449871  166.303579  9.763584  1246.467878  1015.075027  910.068796  1010.082215
  6520.997  6521.000  2.000  6.963981  599.445116  166.639375  9.763197  1284.299617  998.074400  893.067840  999.082768
  6523.001  6523.000  2.000  6.968678  599.471894  166.932857  9.747980  1284.299617  998.074400  869.066788  1026.085621
  6525.000  6525.000  2.000  6.949505  599.452891  167.248168  9.720482  1203.669676  1051.078167  873.066555  1038.086174
  6526.998  6527.000  2.000  7.248959  599.449143  167.527426  9.668272  1323.145950  1135.085593  961.073606  926.076841
  6529.002  6529.000  2.000  7.074159  599.449028  167.866764  9.586689  1172.362498  1085.079428  911.068319  1072.087402
  6529.292  6529.300  2.000  6.962081  599.331553  167.905160  9.570482  1172.362498  1078.080425  911.068319  1011.083339
  6529.592  6529.600  2.000  7.117365  599.161477  167.879630  9.547961  1254.214798  1062.080240  912.069084  1036.086721
  6529.893  6529.900  2.000  7.354728  599.086073  167.837302  9.524047  1343.877765  1101.082051  925.070132  1036.085341
  6530.192  6530.200  2.000  6.995799  599.045095  167.937044  9.506030  1254.566867  1100.083888  900.069418  936.078643
  6530.497  6530.500  2.000  7.137019  599.000569  167.939247  9.481341  1262.843872  1022.076081  943.071544  1047.086679
  6530.795  6530.800  2.000  7.255500  599.006168  168.011817  9.460117  1262.843872  1096.083570  952.073941  1035.087620
  6531.100  6531.100  2.000  7.297549  599.042073  167.994421  9.429218  1296.294291  1100.084198  930.072058  1045.088376
  6531.402  6531.400  2.000  7.406509  598.984873  168.038870  9.401040  1279.137171  1073.081293  997.077168  1087.090969
  6531.701  6531.700  2.000  7.336283  598.899166  168.066674  9.368498  1342.453643  1126.085301  879.067639  1046.087427
  6532.001  6532.000  2.000  7.406931  598.830129  168.113343  9.334320  1288.248323  1122.083946  983.075101  1042.086344
  6532.304  6532.300  2.000  7.178298  598.935588  168.153924  9.295629  1259.099950  1072.080962  918.069986  1050.087446
  6532.599  6532.600  2.000  7.304635  598.933166  168.212223  9.256959  1266.747184  1108.082594  942.071262  1058.086995
  6532.898  6532.900  2.000  7.413690  598.891964  168.256331  9.212508  1266.747184  1119.085421  947.073422  1107.093072
  6533.196  6533.200  2.000  7.326102  598.968130  168.305666  9.160863  1297.858910  1102.083510  937.071856  1051.087562
  6533.498  6533.500  2.000  7.268847  598.899267  168.397908  9.107715  1340.072109  1073.080273  932.071059  1008.083867
  6533.798  6533.800  2.000  7.431603  598.870376  168.353864  9.040713  1303.322769  1129.084025  981.074703  1037.085508
  6534.102  6534.100  2.000  7.563765  598.909349  168.409719  8.974789  1309.756096  1148.086673  997.076819  1075.089985
  6534.400  6534.400  2.000  7.563702  598.914018  168.539608  8.903475  1309.756096  1139.084840  997.076819  1084.089641
  6534.705  6534.700  2.000  7.547972  598.820943  168.544691  8.813288  1308.633171  1139.084840  988.075921  1084.089641
  6535.007  6535.000  2.000  7.400264  598.846659  168.538806  8.708202  1288.373361  1114.085255  975.075727  1054.088748
  6535.307  6535.300  2.000  7.567793  598.813476  168.569755  8.587200  1291.440866  1165.088183  965.073979  1110.093338
  6535.607  6535.600  2.000  7.343750  598.771186  168.647678  8.454173  1307.982193  1094.082897  957.073952  1038.086921
  6535.907  6535.900  2.000  7.702946  598.787161  168.658545  8.294005  1348.163261  1151.088396  1013.079977  1100.093570
  6536.203  6536.200  2.000  7.478501  598.788286  168.765176  8.104824  1287.791041  1168.087336  960.072930  1062.087437
  6536.500  6536.500  2.000  7.659793  598.866528  168.810026  7.867140  1341.935813  1120.085210  974.075455  1151.096930
  6536.800  6536.800  2.000  7.654591  598.778057  168.841340  7.561084  1366.148817  1179.088984  938.071716  1100.091645
  6537.102  6537.100  2.000  7.773312  598.792658  168.875637  7.162119  1363.342789  1175.088815  1035.079805  1081.090805
  6537.399  6537.400  2.000  7.779430  598.719306  168.914506  6.642183  1369.433283  1157.088655  996.077215  1135.095895
  6537.701  6537.700  2.000  7.956401  598.744076  168.933107  5.949711  1383.577783  1177.089893  1049.082025  1154.098135
  6538.001  6538.000  2.000  7.964021  598.954561  169.065145  5.074609  1410.818897  1203.092104  1018.079041  1138.096440
  6538.305  6538.300  2.000  8.051828  598.826641  168.989957  4.037443  1395.377342  1163.088387  1098.085013  1165.098072
  6538.604  6538.600  2.000  8.196183  598.848662  169.092776  3.063341  1438.996781  1215.092841  1023.079398  1231.104429
  6538.902  6538.900  2.000  8.554913  598.829125  169.109443  2.303269  1471.640661  1307.099871  1140.088877  1204.101634
  6539.204  6539.200  2.000  8.947814  598.800173  169.195157  1.822328  1562.654102  1386.104322  1094.084149  1315.110108
  6539.512  6539.500  2.000  9.116451  598.804657  169.246346  1.517639  1533.660339  1433.109893  1210.094085  1282.108715
  6539.803  6539.800  2.000  9.323859  598.800821  169.260168  1.315825  1613.814473  1387.107657  1254.098737  1328.113421
  6540.104  6540.100  2.000  9.733517  598.714352  169.295445  1.162757  1706.263876  1491.115981  1254.098737  1376.117495
  6540.401  6540.400  2.000  9.743844  598.786025  169.380172  1.043504  1711.149523  1454.111521  1268.098302  1401.118246
  6540.703  6540.700  2.000  9.563163  598.831043  169.429350  0.942313  1639.390783  1408.108794  1284.100561  1395.118655
  6541.002  6541.000  2.000  9.540639  598.802573  169.502273  0.862535  1634.633422  1421.108964  1328.103626  1329.113033
  6541.306  6541.300  2.000  9.365565  598.882207  169.525687  0.800728  1597.546293  1421.108964  1205.095489  1385.119571
  6541.601  6541.600  2.000  9.290189  598.808491  169.590383  0.757865  1626.728829  1419.108970  1176.092346  1341.114213
  6541.904  6541.900  2.000  9.735319  598.706959  169.566736  0.732675  1708.271525  1452.112693  1314.103864  1354.115151
  6542.203  6542.200  2.000  9.573544  598.718899  169.614719  0.724000  1610.530837  1512.116575  1243.097653  1366.116846
  6542.503  6542.500  2.000  9.769259  598.726180  169.689398  0.721988  1656.774550  1464.113039  1373.107549  1355.116185
  6542.802  6542.800  2.000  10.224665  598.741022  169.810593  0.717987  1710.572592  1505.115875  1427.111957  1479.125939
  6543.105  6543.100  2.000  10.568354  598.735994  169.767503  0.702997  1778.282010  1547.121410  1469.117851  1533.132798
  6543.402  6543.400  2.000  10.783924  598.789746  169.805351  0.677594  1856.934561  1635.125843  1426.111968  1539.130961
  6543.699  6543.700  2.000  11.429571  598.835875  169.854739  0.644287  1852.031347  1724.134407  1617.129189  1651.142019
  6543.998  6544.000  2.000  12.465083  600.731846  170.506478  0.610924  2041.724337  1869.148188  1846.149192  1731.150881
  6544.298  6544.300  2.000  14.168238  600.635717  170.520278  0.577383  2388.437643  2135.171895  1951.159739  2035.180317
  6544.600  6544.600  2.000  15.371957  600.617387  170.492089  0.548952  2595.108224  2291.184297  2152.177084  2194.195284
  6544.903  6544.900  2.000  17.374718  600.663009  170.626373  0.527835  2809.703619  2714.222770  2468.206173  2444.217780
  6545.204  6545.200  2.000  19.693113  600.631637  170.635006  0.510644  3222.571098  3018.248836  2740.229752  2847.257144
  6545.505  6545.500  2.000  21.981906  600.716417  170.627546  0.495856  3693.059391  3018.248836  3229.280928  3264.302520
  6545.804  6545.800  2.000  25.174103  600.626927  170.603522  0.481064  4050.254203  3797.327163  3636.320383  3636.342090
  6546.105  6546.100  2.000  28.588978  600.656590  170.702304  0.464130  4666.023324  4341.380793  4228.380317  3936.373735
  6546.403  6546.400  2.000  31.731206  600.602684  170.700485  0.444033  5124.542320  4779.432061  4689.434155  4464.439079
  6546.702  6546.700  2.000  35.413834  600.685473  170.634441  0.421407  5685.087699  5434.501367  5236.495341  4916.491036
  6547.000  6547.000  2.000  38.461397  600.507795  170.634110  0.396571  6057.719172  5863.549011  5763.553086  5411.547616
  6547.299  6547.300  2.000  41.946542  600.543560  170.703363  0.370951  6534.886950  6447.612644  6202.608051  6005.618092
  6547.602  6547.600  2.000  42.576990  600.577298  170.819515  0.345026  6534.886950  6827.660448  6202.608051  6005.618092
  6547.903  6547.900  2.000  46.554287  600.533330  170.859912  0.319120  7180.288489  7226.710431  6915.701384  6634.700751
  6548.205  6548.200  2.000  49.257872  600.501330  170.776479  0.295188  7827.176201  7484.749223  7293.744693  6973.747457
  6548.509  6548.500  2.000  51.578700  600.433577  170.763809  0.272562  8259.238165  7843.785408  7693.791020  7172.768564
  6548.804  6548.800  2.000  53.907396  600.483237  170.836732  0.251797  8605.988572  8253.841943  8060.845383  7449.811845
  6549.107  6549.100  2.000  56.406716  600.436727  170.873833  0.232472  8946.992500  8685.903551  8498.912520  7736.855312
  6549.405  6549.400  2.000  59.601122  600.347762  170.881928  0.213930  9403.529093  9110.960694  8946.974328  8319.935943
  6549.704  6549.700  2.000  63.499735  600.396980  170.901519  0.196944  10028.904034  9764.059828  9376.046721  8956.038511
  6550.000  6550.000  2.000  67.558641  600.335451  170.918577  0.181540  10737.477361  10323.131286  9975.125821  9522.112959
  6550.300  6550.300  2.000  72.393084  600.483290  171.014495  0.167520  11570.150634  11043.238430  10798.253748  10059.194658
  6550.596  6550.600  2.000  76.077646  600.493296  170.950730  0.154775  12106.154437  11773.352096  11211.319576  10593.290134
  6550.903  6550.900  2.000  80.452122  600.406357  171.004969  0.143369  12807.670271  12285.441697  11944.450135  11266.403305
  6551.201  6551.200  2.000  83.372853  600.445998  170.969657  0.132971  13111.373631  12971.544343  12325.515734  11652.462169
  6551.506  6551.500  2.000  86.572376  600.371108  171.032617  0.123391  13624.785409  13220.598453  12891.603236  12238.566311
  6551.808  6551.800  2.000  88.349565  600.334093  171.052549  0.115026  13971.405417  13632.648954  13083.627362  12351.574135
  6552.104  6552.100  2.000  88.976410  600.335617  171.051349  0.107449  14063.798680  13725.661148  13354.682194  12271.566163
  6552.404  6552.400  2.000  87.882118  600.372533  171.125751  0.100514  13702.127745  13448.631571  13290.669645  12320.580889
  6552.707  6552.700  2.000  86.379624  600.338807  171.201004  0.094254  13505.269219  13314.609487  12914.611344  12122.550175
  6553.002  6553.000  2.000  83.314839  600.313777  171.209276  0.088045  13289.583948  12836.513906  12324.504518  11564.443174
  6553.300  6553.300  2.000  80.002041  600.274089  171.236211  0.082409  12774.902269  12184.425425  12129.474190  10934.350259
  6553.600  6553.600  2.000  79.470015  600.435967  171.348935  0.077602  12697.420698  12078.415892  11748.423325  11192.395416
  6553.898  6553.900  2.000  78.374655  600.417526  171.433458  0.073365  12697.420698  11778.358339  11616.393608  10965.343944
  6554.202  6554.200  2.000  77.129588  600.546736  171.512361  0.069374  12151.858402  11778.358339  11555.374949  10834.330663
  6554.505  6554.500  2.000  75.870655  600.589779  171.546683  0.066593  12114.195689  11589.323935  11285.331179  10578.288836
  6554.802  6554.800  2.000  75.925882  600.703110  171.661712  0.064091  11958.933422  11788.354629  11323.339767  10538.285543
  6555.106  6555.100  2.000  74.016551  600.695483  171.709899  0.062217  11866.593336  11315.281951  10907.275882  10372.256537
  6555.404  6555.400  2.000  73.292088  600.826584  171.817182  0.061279  11480.044344  11164.254932  10992.284658  10399.250838
  6555.706  6555.700  2.000  73.516645  600.920604  171.876895  0.060151  11627.869951  11250.271351  10996.283751  10303.241802
  6556.003  6556.000  2.000  71.396011  601.057261  171.997522  0.060097  11282.395008  10841.229328  10726.251556  10063.215136
  6556.305  6556.300  2.000  69.596693  601.204715  172.070290  0.060377  11026.346076  10762.187473  10316.178756  9737.147465
  6556.599  6556.600  2.000  67.591442  601.340215  172.169604  0.061416  10761.104983  10247.109890  10226.148144  9411.088984
  6556.905  6556.900  2.000  64.741896  601.335487  172.300348  0.062436  10377.372171  9830.075164  9592.085108  9132.067313
  6557.200  6557.200  2.000  63.273044  601.432406  172.374412  0.064225  10377.372171  9830.075164  9161.012982  8685.998567
  6557.504  6557.500  2.000  59.119713  601.575753  172.431276  0.066259  9527.122642  8976.954194  8859.972329  8200.936806
  6557.804  6557.800  2.000  56.535789  601.600345  172.504351  0.068875  9034.283652  8720.903704  8386.893469  7869.869180
  6558.105  6558.100  2.000  54.661846  601.668498  172.629531  0.071492  8618.686485  8403.878626  8168.882242  7696.863206
  6558.402  6558.400  2.000  53.674724  601.806286  172.741260  0.073828  8526.271015  8154.830875  8056.853475  7563.830700
  6558.704  6558.700  2.000  52.093056  601.801137  172.773234  0.076544  8260.230869  7996.813676  7672.801138  7419.814559
  6559.003  6559.000  2.000  51.672473  601.807384  172.805852  0.078826  8243.464148  7854.799717  7723.813658  7274.798548
  6559.301  6559.300  2.000  51.143860  601.915645  172.810348  0.081031  8176.918170  7780.789556  7701.803493  7124.778340
  6559.597  6559.600  2.000  50.870655  601.943779  172.910457  0.083011  8176.918170  7642.776315  7635.795795  7165.783760
  6559.904  6559.900  2.000  50.704525  602.025353  173.004457  0.084572  8111.065128  7842.794622  7497.780755  7073.769053
  6560.201  6560.200  2.000  50.363920  602.044887  173.041488  0.085945  8196.028525  7642.775455  7452.775417  7029.760930
  6560.506  6560.500  2.000  50.260592  602.067350  173.089879  0.087362  8104.949287  7602.766549  7466.776734  7085.769074
  6560.803  6560.800  2.000  49.858160  602.073078  173.135995  0.088245  8060.966403  7563.763987  7444.771978  6948.753681
  6561.109  6561.100  2.000  50.015362  602.100716  173.198922  0.088523  8060.966403  7563.763987  7532.791416  6956.763376
  6561.406  6561.400  2.000  49.745339  602.057757  173.194775  0.088411  7941.267086  7535.759887  7387.768607  7084.771844
  6561.708  6561.700  2.000  49.128521  601.814126  173.214137  0.088571  7817.960657  7562.771214  7350.762184  6834.743921
  6562.004  6562.000  2.000  49.069851  601.316760  173.083451  0.088161  7780.261258  7536.758905  7377.765999  6811.737926
  6562.303  6562.300  2.000  48.366950  600.909653  173.034258  0.087693  7736.953982  7398.744591  7139.737269  6788.731318
  6562.600  6562.600  2.000  47.855583  600.597026  172.972010  0.086971  7574.724122  7295.732720  7144.738991  6726.725059
  6562.903  6562.900  2.000  47.411283  601.309981  173.284449  0.086566  7574.724122  7288.726959  7075.724866  6569.701728
  6563.202  6563.200  2.000  47.919005  601.807703  173.442627  0.086193  7692.835830  7298.729462  7150.739344  6695.721843
  6563.501  6563.500  2.000  47.904318  601.974703  173.530988  0.085570  7548.965244  7372.745845  7120.737265  6794.739397
  6563.804  6563.800  2.000  47.368526  601.980568  173.560216  0.085038  7548.772418  7319.731927  7067.723074  6578.704910
