# XDI/1.0 BlueSky/1.5.3
# Beamline.name: 6BM
# Beamline.xray_source: NSLS-II three-pole wiggler
# Beamline.collimation: paraboloid mirror, 5 nm Rh on 30 nm Pt
# Beamline.focusing: not in use
# Beamline.harmonic_rejection: flat mirror, Si stripe, pitch = 7.0 mrad relative to beam
# Detector.i0: 10 cm N2
# Detector.i1: 25 cm N2
# Detector.i2: 25 cm N2
# Element.symbol: Mn
# Element.edge: K
# Facility.name: NSLS-II
# Facility.energy: 3.0
# Facility.current: 400.9
# Facility.mode: top-off
# Facility.gup: 305081
# Facility.saf: 305123
# Mono.name: Si(111)
# Mono.d_spacing: 3.1353241
# Mono.encoder_resolution: 0.0000050 deg/ct
# Mono.angle_offset: 16.0581090 deg
# Mono.scan_mode: fixed exit
# Mono.scan_type: step
# Mono.direction: forward in energy
# Sample.name: Ca2Mn3(SiO4)(Si2O7)(OH)3
# Sample.prep: Powder in polyethylene glycol pellet
# Sample.x_position: -120.140 mm
# Sample.y_position: 112.312 mm
# Scan.experimenters: Neil Hyatt, Martin Stennett, Lucy Mottram
# Scan.edge_energy: 6539.0
# Scan.start_time: 2019-11-11T14:40:07
# Scan.end_time: 2019-11-12T00:44:04
# Scan.transient_id: 17897
# Scan.uid: 3649bb4e-08b9-4658-bb13-b80cc3aa5441
# Scan.plot_hint: ln(I0/It)  --  ln($5/$6)
# Scan.sequence: merge of 5 scans
# Column.1: energy eV
# Column.2: requested_energy eV
# Column.3: measurement_time seconds
# Column.4: mutrans
# Column.5: i0
# Column.6: itrans
# Column.7: irefer
# /////
#  Mineral
# -----
# energy   requested_energy   measurement_time   mutrans   i0   itrans   irefer
6339.016000 6339.000000 0.500000 2.085022 89.910355 11.176634 2.552910
6349.012000 6349.000000 0.500000 2.073430 90.067460 11.326437 2.605964
6359.012000 6359.000000 0.500000 2.061893 90.234471 11.479094 2.659445
6369.028000 6369.000000 0.500000 2.050336 90.411868 11.635448 2.714438
6379.016000 6379.000000 0.500000 2.038701 90.584334 11.793935 2.770025
6389.021000 6389.000000 0.500000 2.027223 90.750072 11.951983 2.826450
6399.012000 6399.000000 0.500000 2.015738 90.915354 12.111946 2.884099
6409.009000 6409.000000 0.500000 2.004328 91.071415 12.271949 2.941667
6419.012000 6419.000000 0.500000 1.992971 91.234138 12.434294 3.000674
6429.011000 6429.000000 0.500000 1.981753 91.386295 12.595567 3.059513
6439.010000 6439.000000 0.500000 1.970463 91.515177 12.756496 3.118903
6449.011000 6449.000000 0.500000 1.959591 91.511152 12.895411 3.174166
6459.011000 6459.000000 0.500000 1.948577 91.505979 13.037488 3.229746
6469.013000 6469.000000 0.500000 1.937531 92.000432 13.253604 3.304069
6479.004000 6479.000000 0.500000 1.926642 92.149757 13.420321 3.366221
6489.007000 6489.000000 0.500000 1.915938 92.319028 13.589754 3.430346
6499.003000 6499.000000 0.500000 1.905153 92.482663 13.761504 3.494524
6509.398000 6509.000000 0.500000 1.894677 92.656372 13.935716 3.559578
6510.993000 6511.000000 0.500000 1.892678 92.673841 13.962928 3.569783
6512.988000 6513.000000 0.500000 1.890653 92.679977 13.992152 3.580287
6514.987000 6515.000000 0.500000 1.888596 92.701117 14.022760 3.592308
6516.983000 6517.000000 0.500000 1.886639 92.737212 14.056274 3.604193
6519.410000 6519.000000 0.500000 1.884641 92.766938 14.094127 3.617784
6521.107000 6521.000000 0.500000 1.882803 92.796092 14.121367 3.627013
6523.220000 6523.000000 0.500000 1.880831 92.829014 14.155400 3.638199
6524.985000 6525.000000 0.500000 1.878970 92.859000 14.183110 3.647199
6526.982000 6527.000000 0.500000 1.877231 92.941344 14.221199 3.657710
6528.984000 6529.000000 0.500000 1.875490 92.969257 14.250291 3.664558
6529.083000 6529.100000 0.500000 1.875378 92.969796 14.251853 3.664765
6529.182000 6529.200000 0.500000 1.875383 92.967416 14.251485 3.665067
6529.284000 6529.300000 0.500000 1.875268 92.949656 14.250551 3.664957
6529.384000 6529.400000 0.500000 1.875165 92.946692 14.251526 3.664943
6529.485000 6529.500000 0.500000 1.875117 92.946556 14.252209 3.665019
6529.583000 6529.600000 0.500000 1.874993 92.936703 14.252460 3.664806
6529.684000 6529.700000 0.500000 1.874929 92.935268 14.253145 3.664979
6529.784000 6529.800000 0.500000 1.874847 92.936588 14.254484 3.665065
6529.886000 6529.900000 0.500000 1.874785 92.936075 14.255324 3.665082
6529.983000 6530.000000 0.500000 1.874702 92.930913 14.255685 3.665207
6530.085000 6530.100000 0.500000 1.874581 92.932670 14.257688 3.665124
6530.186000 6530.200000 0.500000 1.874460 92.932224 14.259352 3.665615
6530.286000 6530.300000 0.500000 1.874366 92.932639 14.260753 3.665982
6530.387000 6530.400000 0.500000 1.874387 92.932192 14.260406 3.665548
6530.487000 6530.500000 0.500000 1.874233 92.926519 14.261711 3.665813
6530.586000 6530.600000 0.500000 1.874247 92.934963 14.262810 3.666334
6530.688000 6530.700000 0.500000 1.874158 92.931410 14.263526 3.665992
6530.783000 6530.800000 0.500000 1.874047 92.933805 14.265412 3.666053
6530.886000 6530.900000 0.500000 1.873974 92.922341 14.264725 3.665449
6530.988000 6531.000000 0.500000 1.873914 92.925912 14.266192 3.665543
6531.088000 6531.100000 0.500000 1.873826 92.918255 14.266215 3.665890
6531.187000 6531.200000 0.500000 1.873715 92.921217 14.268176 3.666191
6531.291000 6531.300000 0.500000 1.873679 92.919585 14.268514 3.665955
6531.388000 6531.400000 0.500000 1.873607 92.920294 14.269573 3.665401
6531.490000 6531.500000 0.500000 1.873558 92.916788 14.269824 3.665290
6531.594000 6531.600000 0.500000 1.873419 92.921806 14.272553 3.665749
6531.691000 6531.700000 0.500000 1.873422 92.921252 14.272467 3.665701
6531.792000 6531.800000 0.500000 1.873379 92.918158 14.272599 3.664979
6531.896000 6531.900000 0.500000 1.873239 92.921470 14.275069 3.665270
6531.995000 6532.000000 0.500000 1.873168 92.917032 14.275433 3.664673
6532.095000 6532.100000 0.500000 1.873116 92.923522 14.277159 3.664901
6532.201000 6532.200000 0.500000 1.872984 92.925658 14.279401 3.665004
6532.300000 6532.300000 0.500000 1.872922 92.919402 14.279330 3.664854
6532.395000 6532.400000 0.500000 1.872935 92.916712 14.278742 3.663348
6532.497000 6532.500000 0.500000 1.872849 92.913467 14.279405 3.663938
6532.596000 6532.600000 0.500000 1.872834 92.914419 14.279787 3.663646
6532.698000 6532.700000 0.500000 1.872649 92.914222 14.282362 3.663302
6532.799000 6532.800000 0.500000 1.872637 92.908795 14.281784 3.662798
6532.899000 6532.900000 0.500000 1.872578 92.907079 14.282330 3.661978
6533.002000 6533.000000 0.500000 1.872572 92.906195 14.282261 3.661019
6533.097000 6533.100000 0.500000 1.872567 92.897385 14.280995 3.660414
6533.199000 6533.200000 0.500000 1.872449 92.898210 14.282814 3.660036
6533.296000 6533.300000 0.500000 1.872430 92.893256 14.282305 3.659064
6533.397000 6533.400000 0.500000 1.872347 92.906476 14.285544 3.659237
6533.499000 6533.500000 0.500000 1.872246 92.905180 14.286774 3.658540
6533.598000 6533.600000 0.500000 1.872215 92.903113 14.286923 3.657935
6533.696000 6533.700000 0.500000 1.872124 92.893702 14.286727 3.656908
6533.797000 6533.800000 0.500000 1.872102 92.901914 14.288360 3.656671
6533.894000 6533.900000 0.500000 1.872044 92.954852 14.297287 3.657627
6533.995000 6534.000000 0.500000 1.872031 92.953940 14.297318 3.656119
6534.099000 6534.100000 0.500000 1.871899 92.961188 14.300324 3.656000
6534.198000 6534.200000 0.500000 1.871816 92.963385 14.301806 3.654766
6534.296000 6534.300000 0.500000 1.871764 92.964748 14.302813 3.653496
6534.397000 6534.400000 0.500000 1.871756 92.963270 14.302674 3.651873
6534.496000 6534.500000 0.500000 1.871697 92.960706 14.303148 3.650683
6534.595000 6534.600000 0.500000 1.871690 92.949569 14.301554 3.648873
6534.697000 6534.700000 0.500000 1.871660 92.953840 14.302600 3.647123
6534.799000 6534.800000 0.500000 1.871671 92.946144 14.301280 3.645063
6534.896000 6534.900000 0.500000 1.871671 92.941105 14.300453 3.642401
6534.999000 6535.000000 0.500000 1.871634 92.949128 14.302263 3.640874
6535.101000 6535.100000 0.500000 1.871553 92.952113 14.303879 3.639168
6535.196000 6535.200000 0.500000 1.871520 92.938781 14.302250 3.636535
6535.299000 6535.300000 0.500000 1.871475 92.938854 14.302914 3.633785
6535.401000 6535.400000 0.500000 1.871430 92.942220 14.304091 3.630978
6535.500000 6535.500000 0.500000 1.871456 92.947279 14.304517 3.627045
6535.597000 6535.600000 0.500000 1.871430 92.976196 14.309275 3.625006
6535.703000 6535.700000 0.500000 1.871411 93.009669 14.314725 3.621714
6535.796000 6535.800000 0.500000 1.871399 93.008685 14.314692 3.617615
6535.899000 6535.900000 0.500000 1.871384 93.007768 14.314824 3.612997
6536.001000 6536.000000 0.500000 1.871402 93.070562 14.324205 3.608858
6536.100000 6536.100000 0.500000 1.871404 93.077928 14.325320 3.603923
6536.201000 6536.200000 0.500000 1.871421 93.082109 14.325699 3.597296
6536.303000 6536.300000 0.500000 1.871548 93.077505 14.323188 3.588716
6536.400000 6536.400000 0.500000 1.871488 93.078209 14.324147 3.580050
6536.497000 6536.500000 0.500000 1.871588 93.071431 14.321747 3.570047
6536.602000 6536.600000 0.500000 1.871709 93.072268 14.320071 3.557844
6536.702000 6536.700000 0.500000 1.871709 93.073787 14.320281 3.544050
6536.798000 6536.800000 0.500000 1.871861 93.072190 14.317892 3.528453
6536.898000 6536.900000 0.500000 1.872017 93.063113 14.314301 3.510109
6537.002000 6537.000000 0.500000 1.872082 93.068582 14.314102 3.488634
6537.098000 6537.100000 0.500000 1.872291 93.068698 14.311235 3.465719
6537.198000 6537.200000 0.500000 1.872528 93.064871 14.307207 3.438706
6537.299000 6537.300000 0.500000 1.872816 93.063010 14.302811 3.409711
6537.396000 6537.400000 0.500000 1.873134 93.065249 14.298585 3.379125
6537.497000 6537.500000 0.500000 1.873511 93.072953 14.294439 3.346573
6537.599000 6537.600000 0.500000 1.873957 93.066645 14.286899 3.311571
6537.696000 6537.700000 0.500000 1.874486 93.066269 14.279533 3.279337
6537.799000 6537.800000 0.500000 1.875107 93.066538 14.270532 3.246447
6537.898000 6537.900000 0.500000 1.875766 93.068974 14.261491 3.214484
6537.995000 6538.000000 0.500000 1.876467 93.070029 14.251931 3.185332
6538.096000 6538.100000 0.500000 1.877243 93.071618 14.241109 3.156877
6538.200000 6538.200000 0.500000 1.878200 93.065082 14.226327 3.129776
6538.295000 6538.300000 0.500000 1.878975 93.068291 14.216155 3.106728
6538.392000 6538.400000 0.500000 1.879784 93.071620 14.205462 3.085970
6538.502000 6538.500000 0.500000 1.880554 93.133318 14.203047 3.065032
6538.599000 6538.600000 0.500000 1.881299 93.137681 14.193489 3.046342
6538.698000 6538.700000 0.500000 1.881986 93.136628 14.183610 3.028841
6538.801000 6538.800000 0.500000 1.882655 93.137406 14.174237 3.012049
6538.901000 6538.900000 0.500000 1.883246 93.138833 14.165984 2.997116
6538.999000 6539.000000 0.500000 1.883712 93.135059 14.158874 2.982608
6539.099000 6539.100000 0.500000 1.884163 93.137107 14.152852 2.969580
6539.204000 6539.200000 0.500000 1.884428 93.128337 14.147582 2.956627
6539.303000 6539.300000 0.500000 1.884650 93.136447 14.145736 2.945238
6539.400000 6539.400000 0.500000 1.884660 93.131133 14.144776 2.934279
6539.502000 6539.500000 0.500000 1.884653 93.135063 14.145498 2.924018
6539.599000 6539.600000 0.500000 1.884576 93.140116 14.147283 2.914742
6539.702000 6539.700000 0.500000 1.884472 93.134737 14.147982 2.905697
6539.805000 6539.800000 0.500000 1.884210 93.131224 14.151138 2.896546
6539.905000 6539.900000 0.500000 1.884180 93.130206 14.151498 2.888309
6540.001000 6540.000000 0.500000 1.884054 93.134104 14.153795 2.880273
6540.100000 6540.100000 0.500000 1.884074 93.195934 14.162962 2.874659
6540.200000 6540.200000 0.500000 1.884133 93.187092 14.160772 2.866374
6540.299000 6540.300000 0.500000 1.884186 93.190812 14.160596 2.858889
6540.402000 6540.400000 0.500000 1.884474 93.193447 14.156845 2.851218
6540.499000 6540.500000 0.500000 1.884737 93.192106 14.153021 2.844512
6540.600000 6540.600000 0.500000 1.885089 93.190703 14.147792 2.838073
6540.701000 6540.700000 0.500000 1.885453 93.195276 14.143325 2.832051
6540.800000 6540.800000 0.500000 1.885746 93.195694 14.139155 2.827223
6540.897000 6540.900000 0.500000 1.886075 93.194771 14.134472 2.823203
6541.000000 6541.000000 0.500000 1.886347 93.197291 14.130903 2.819594
6541.099000 6541.100000 0.500000 1.886664 93.194905 14.126145 2.816769
6541.196000 6541.200000 0.500000 1.886799 93.193330 14.124053 2.814596
6541.295000 6541.300000 0.500000 1.886953 93.184392 14.120532 2.812726
6541.397000 6541.400000 0.500000 1.887034 93.189176 14.120082 2.811625
6541.495000 6541.500000 0.500000 1.887065 93.183152 14.118723 2.810630
6541.601000 6541.600000 0.500000 1.887072 93.184985 14.118886 2.809591
6541.700000 6541.700000 0.500000 1.887044 93.183646 14.119110 2.808809
6541.797000 6541.800000 0.500000 1.886940 93.182858 14.120396 2.807949
6541.896000 6541.900000 0.500000 1.886864 93.179511 14.120975 2.806550
6542.002000 6542.000000 0.500000 1.886727 93.173723 14.122069 2.804423
6542.100000 6542.100000 0.500000 1.886610 93.171767 14.123401 2.802378
6542.200000 6542.200000 0.500000 1.886567 93.174259 14.124401 2.799866
6542.303000 6542.300000 0.500000 1.886492 93.183361 14.126857 2.796506
6542.402000 6542.400000 0.500000 1.886387 93.184749 14.128539 2.792765
6542.499000 6542.500000 0.500000 1.886406 93.183486 14.128084 2.788492
6542.604000 6542.600000 0.500000 1.886360 93.175769 14.127560 2.782925
6542.703000 6542.700000 0.500000 1.886399 93.173984 14.126741 2.777580
6542.802000 6542.800000 0.500000 1.886469 93.171011 14.125290 2.771826
6542.905000 6542.900000 0.500000 1.886569 93.168519 14.123505 2.765661
6543.004000 6543.000000 0.500000 1.886624 93.167749 14.122592 2.760059
6543.101000 6543.100000 0.500000 1.886752 93.168551 14.120948 2.753436
6543.204000 6543.200000 0.500000 1.886905 93.170122 14.118986 2.747052
6543.303000 6543.300000 0.500000 1.887097 93.164343 14.115384 2.740832
6543.398000 6543.400000 0.500000 1.887330 93.162996 14.112005 2.734708
6543.501000 6543.500000 0.500000 1.887629 93.163801 14.107850 2.727810
6543.603000 6543.600000 0.500000 1.887926 93.158023 14.102646 2.721239
6543.701000 6543.700000 0.500000 1.888358 93.159144 14.096791 2.715450
6543.800000 6543.800000 0.500000 1.888617 93.157041 14.092887 2.709240
6543.903000 6543.900000 0.500000 1.889115 93.155729 14.085463 2.701538
6543.998000 6544.000000 0.500000 1.889632 93.149893 14.077574 2.695784
6544.099000 6544.100000 0.500000 1.890207 93.145969 14.068731 2.688803
6544.202000 6544.200000 0.500000 1.890931 93.149471 14.058928 2.681198
6544.299000 6544.300000 0.500000 1.891596 93.144039 14.048713 2.674105
6544.396000 6544.400000 0.500000 1.892412 93.148258 14.038376 2.666599
6544.497000 6544.500000 0.500000 1.893305 93.146965 14.025496 2.658625
6544.594000 6544.600000 0.500000 1.894189 93.142661 14.012707 2.650889
6544.697000 6544.700000 0.500000 1.895180 93.139195 13.997996 2.641888
6544.798000 6544.800000 0.500000 1.896335 93.137313 13.981580 2.632713
6544.897000 6544.900000 0.500000 1.897496 93.135707 13.964960 2.623820
6544.998000 6545.000000 0.500000 1.898884 93.135448 13.945832 2.614550
6545.097000 6545.100000 0.500000 1.900312 93.128286 13.925203 2.604450
6545.198000 6545.200000 0.500000 1.901877 93.117964 13.901506 2.593567
6545.296000 6545.300000 0.500000 1.903466 93.123093 13.880757 2.583422
6545.398000 6545.400000 0.500000 1.905323 93.122320 13.854744 2.571754
6545.503000 6545.500000 0.500000 1.907247 93.118175 13.826553 2.559684
6545.598000 6545.600000 0.500000 1.909313 93.118103 13.798693 2.547579
6545.699000 6545.700000 0.500000 1.911671 93.113475 13.765792 2.534448
6545.802000 6545.800000 0.500000 1.914197 93.110975 13.730177 2.520678
6545.899000 6545.900000 0.500000 1.916735 93.106951 13.695337 2.507188
6546.000000 6546.000000 0.500000 1.919615 93.110926 13.656524 2.492907
6546.103000 6546.100000 0.500000 1.922859 93.110015 13.611609 2.476578
6546.202000 6546.200000 0.500000 1.926127 93.110629 13.566879 2.461018
6546.300000 6546.300000 0.500000 1.929789 93.107863 13.517808 2.444616
6546.404000 6546.400000 0.500000 1.933697 93.103287 13.463131 2.426707
6546.503000 6546.500000 0.500000 1.937869 93.093621 13.406212 2.408917
6546.601000 6546.600000 0.500000 1.942326 93.099965 13.348141 2.390483
6546.705000 6546.700000 0.500000 1.946999 93.102529 13.284509 2.370977
6546.805000 6546.800000 0.500000 1.951786 93.090654 13.218895 2.351531
6546.900000 6546.900000 0.500000 1.956739 93.082891 13.154601 2.332610
6547.001000 6547.000000 0.500000 1.961700 93.149197 13.098027 2.314654
6547.104000 6547.100000 0.500000 1.966875 93.155215 13.029723 2.294745
6547.200000 6547.200000 0.500000 1.972097 93.156135 12.963788 2.275820
6547.299000 6547.300000 0.500000 1.977361 93.145272 12.894746 2.256365
6547.402000 6547.400000 0.500000 1.982756 93.135578 12.822123 2.236023
6547.497000 6547.500000 0.500000 1.988006 93.135842 12.756924 2.217287
6547.596000 6547.600000 0.500000 1.993494 93.141536 12.689557 2.198212
6547.701000 6547.700000 0.500000 1.998842 93.136652 12.618318 2.177812
6547.797000 6547.800000 0.500000 2.004084 93.138189 12.553772 2.159038
6547.898000 6547.900000 0.500000 2.009423 93.132614 12.485665 2.139579
6548.000000 6548.000000 0.500000 2.014667 93.133391 12.420100 2.120383
6548.096000 6548.100000 0.500000 2.019487 93.127012 12.360866 2.102899
6548.197000 6548.200000 0.500000 2.024574 93.117794 12.297065 2.084029
6548.298000 6548.300000 0.500000 2.029212 93.116331 12.239215 2.066479
6548.397000 6548.400000 0.500000 2.033674 93.119606 12.185484 2.049934
6548.497000 6548.500000 0.500000 2.038002 93.115208 12.132692 2.033723
6548.601000 6548.600000 0.500000 2.042184 93.122683 12.082035 2.018076
6548.699000 6548.700000 0.500000 2.045990 93.147823 12.039716 2.004090
6548.798000 6548.800000 0.500000 2.049652 93.181541 12.000821 1.990558
6548.899000 6548.900000 0.500000 2.053166 93.182216 11.958372 1.976620
6549.000000 6549.000000 0.500000 2.056523 93.229811 11.923827 1.963775
6549.097000 6549.100000 0.500000 2.059891 93.231759 11.885119 1.950686
6549.199000 6549.200000 0.500000 2.063266 93.248375 11.846772 1.937684
6549.301000 6549.300000 0.500000 2.066717 93.250988 11.805737 1.923917
6549.401000 6549.400000 0.500000 2.070221 93.246727 11.764253 1.910823
6549.502000 6549.500000 0.500000 2.073815 93.238136 11.720960 1.897532
6549.603000 6549.600000 0.500000 2.077500 93.230420 11.676725 1.883758
6549.702000 6549.700000 0.500000 2.081296 93.227566 11.631591 1.870303
6549.801000 6549.800000 0.500000 2.085441 93.232907 11.585285 1.856769
6549.906000 6549.900000 0.500000 2.089700 93.229718 11.533498 1.842456
6550.002000 6550.000000 0.500000 2.094063 93.218212 11.483484 1.828866
6550.101000 6550.100000 0.500000 2.098594 93.223433 11.432847 1.815140
6550.204000 6550.200000 0.500000 2.103327 93.223639 11.377626 1.800287
6550.303000 6550.300000 0.500000 2.108066 93.227555 11.323994 1.786748
6550.401000 6550.400000 0.500000 2.112940 93.216822 11.268721 1.772725
6550.504000 6550.500000 0.500000 2.117924 93.214717 11.210777 1.758057
6550.601000 6550.600000 0.500000 2.122971 93.217730 11.155388 1.744709
6550.700000 6550.700000 0.500000 2.127993 93.220955 11.100543 1.730919
6550.800000 6550.800000 0.500000 2.133238 93.216089 11.042047 1.717168
6550.903000 6550.900000 0.500000 2.138514 93.208635 10.980965 1.702810
6550.997000 6551.000000 0.500000 2.143934 93.211741 10.924423 1.689800
6551.100000 6551.100000 0.500000 2.149615 93.224656 10.863436 1.675546
6551.201000 6551.200000 0.500000 2.155269 93.218003 10.799523 1.661267
6551.296000 6551.300000 0.500000 2.161153 93.217106 10.739089 1.647275
6551.399000 6551.400000 0.500000 2.167244 93.213307 10.671928 1.632799
6551.500000 6551.500000 0.500000 2.173340 93.228155 10.608362 1.618354
6551.596000 6551.600000 0.500000 2.179385 93.281420 10.551397 1.605528
6551.697000 6551.700000 0.500000 2.185605 93.283416 10.487199 1.591496
6551.800000 6551.800000 0.500000 2.191742 93.280465 10.419853 1.576875
6551.900000 6551.900000 0.500000 2.197715 93.280009 10.357919 1.563549
6551.997000 6552.000000 0.500000 2.203630 93.277497 10.298919 1.551425
6552.098000 6552.100000 0.500000 2.209270 93.282205 10.241159 1.538252
6552.198000 6552.200000 0.500000 2.214453 93.274544 10.187132 1.525899
