# XDI/1.0 BlueSky/1.5.3
# Beamline.name: 6BM
# Beamline.xray_source: NSLS-II three-pole wiggler
# Beamline.collimation: paraboloid mirror, 5 nm Rh on 30 nm Pt
# Beamline.focusing: not in use
# Beamline.harmonic_rejection: flat mirror, Si stripe, pitch = 7.0 mrad relative to beam
# Detector.i0: 10 cm N2
# Detector.i1: 25 cm N2
# Detector.i2: 25 cm N2
# Element.symbol: Mn
# Element.edge: K
# Facility.name: NSLS-II
# Facility.energy: 3.0
# Facility.current: 400.2
# Facility.mode: top-off
# Facility.gup: 305081
# Facility.saf: 305123
# Mono.name: Si(111)
# Mono.d_spacing: 3.1353241
# Mono.encoder_resolution: 0.0000050 deg/ct
# Mono.angle_offset: 16.0581090 deg
# Mono.scan_mode: fixed exit
# Mono.scan_type: step
# Mono.direction: forward in energy
# Sample.name: CaMn2O4
# Sample.prep: Powder in polyethylene glycol pellet
# Sample.x_position: -120.140 mm
# Sample.y_position: 112.312 mm
# Scan.experimenters: Neil Hyatt, Martin Stennett, Lucy Mottram
# Scan.edge_energy: 6539.0
# Scan.start_time: 2019-11-11T18:34:38
# Scan.end_time: 2019-11-12T05:53:09
# Scan.transient_id: 17909
# Scan.uid: 981eabd5-0629-4f51-b013-e7402f0ca6d9
# Scan.plot_hint: ln(I0/It)  --  ln($5/$6)
# Scan.sequence: merge of 3 scans
# Column.1: energy eV
# Column.2: requested_energy eV
# Column.3: measurement_time seconds
# Column.4: mutrans
# Column.5: i0
# Column.6: itrans
# Column.7: irefer
# /////
#  Tachgagalt nr. Ourzazate, Morocco
# -----
# energy   requested_energy   measurement_time   mutrans   i0   itrans   irefer
6338.996000 6339.000000 0.500000 2.442026 89.619807 7.795606 1.791999
6349.010000 6349.000000 0.500000 2.428484 89.782318 7.916327 1.832405
6359.012000 6359.000000 0.500000 2.414974 90.039439 8.046867 1.875675
6369.023000 6369.000000 0.500000 2.401803 90.198529 8.168006 1.917024
6379.017000 6379.000000 0.500000 2.388560 90.380758 8.293560 1.959802
6389.013000 6389.000000 0.500000 2.375350 90.659254 8.429733 2.005494
6399.010000 6399.000000 0.500000 2.362494 90.808845 8.552886 2.049286
6409.014000 6409.000000 0.500000 2.349608 90.935674 8.675953 2.092086
6419.010000 6419.000000 0.500000 2.336793 91.091972 8.802903 2.137332
6429.011000 6429.000000 0.500000 2.323834 91.224940 8.930759 2.182254
6439.010000 6439.000000 0.500000 2.310926 91.315181 9.055711 2.227734
6449.011000 6449.000000 0.500000 2.298453 91.287864 9.166641 2.269280
6459.011000 6459.000000 0.500000 2.286046 91.283792 9.280673 2.312361
6469.003000 6469.000000 0.500000 2.273652 91.702644 9.439413 2.367282
6479.008000 6479.000000 0.500000 2.261331 91.829609 9.569752 2.414905
6489.003000 6489.000000 0.500000 2.249039 91.979680 9.703892 2.463492
6499.001000 6499.000000 0.500000 2.237282 92.140112 9.835775 2.511653
6509.865000 6509.000000 0.500000 2.225582 92.313098 9.976250 2.563384
6510.989000 6511.000000 0.500000 2.223537 92.325614 9.991869 2.568981
6512.987000 6513.000000 0.500000 2.221206 92.327081 10.015356 2.577526
6514.994000 6515.000000 0.500000 2.219158 92.352688 10.038723 2.586296
6516.987000 6517.000000 0.500000 2.216935 92.399771 10.066156 2.595452
6518.988000 6519.000000 0.500000 2.214803 92.419138 10.089709 2.604638
6521.386000 6521.000000 0.500000 2.212686 92.464524 10.118631 2.614105
6523.035000 6523.000000 0.500000 2.210852 92.502811 10.139165 2.620868
6524.985000 6525.000000 0.500000 2.208772 92.525368 10.161591 2.627589
6526.982000 6527.000000 0.500000 2.207168 92.541426 10.179869 2.633531
6528.990000 6529.000000 0.500000 2.205662 92.578870 10.200070 2.638627
6529.087000 6529.100000 0.500000 2.205595 92.574111 10.200256 2.637906
6529.187000 6529.200000 0.500000 2.205536 92.581130 10.201631 2.638271
6529.298000 6529.300000 0.500000 2.205511 92.557642 10.199369 2.638052
6529.449000 6529.400000 0.500000 2.205415 92.536580 10.198044 2.637168
6529.486000 6529.500000 0.500000 2.205406 92.524299 10.196699 2.637041
6529.581000 6529.600000 0.500000 2.205292 92.531245 10.198594 2.637084
6529.684000 6529.700000 0.500000 2.205192 92.520669 10.198468 2.637249
6529.786000 6529.800000 0.500000 2.205114 92.535322 10.200882 2.637577
6529.883000 6529.900000 0.500000 2.205044 92.534300 10.201477 2.637852
6529.983000 6530.000000 0.500000 2.204963 92.520407 10.200790 2.637526
6530.085000 6530.100000 0.500000 2.204959 92.514327 10.200151 2.636369
6530.184000 6530.200000 0.500000 2.204864 92.523787 10.202159 2.637797
6530.288000 6530.300000 0.500000 2.204811 92.619058 10.213121 2.639931
6530.389000 6530.400000 0.500000 2.204793 92.634620 10.215073 2.640768
6530.487000 6530.500000 0.500000 2.204778 92.630166 10.214678 2.640811
6530.586000 6530.600000 0.500000 2.204697 92.613015 10.213594 2.639919
6530.690000 6530.700000 0.500000 2.204619 92.607334 10.213799 2.639932
6530.785000 6530.800000 0.500000 2.204473 92.621744 10.216832 2.640241
6530.887000 6530.900000 0.500000 2.204481 92.624840 10.217152 2.640340
6530.995000 6531.000000 0.500000 2.204416 92.624346 10.217753 2.640496
6531.092000 6531.100000 0.500000 2.204370 92.614869 10.217187 2.640523
6531.192000 6531.200000 0.500000 2.204271 92.606475 10.217208 2.640092
6531.298000 6531.300000 0.500000 2.204277 92.611616 10.217734 2.639758
6531.397000 6531.400000 0.500000 2.204303 92.612399 10.217591 2.639370
6531.499000 6531.500000 0.500000 2.204164 92.625289 10.220439 2.639649
6531.605000 6531.600000 0.500000 2.204119 92.637476 10.222256 2.640523
6531.706000 6531.700000 0.500000 2.204026 92.622471 10.221562 2.639441
6531.801000 6531.800000 0.500000 2.204077 92.608887 10.219511 2.639227
6531.892000 6531.900000 0.500000 2.203944 92.604508 10.220338 2.638776
6531.996000 6532.000000 0.500000 2.203903 92.610265 10.221421 2.638829
6532.102000 6532.100000 0.500000 2.203841 92.608240 10.221805 2.638654
6532.203000 6532.200000 0.500000 2.203880 92.601391 10.220736 2.639009
6532.307000 6532.300000 0.500000 2.203752 92.604863 10.222311 2.638556
6532.407000 6532.400000 0.500000 2.203793 92.591288 10.220466 2.637443
6532.504000 6532.500000 0.500000 2.203727 92.609534 10.223135 2.637816
6532.608000 6532.600000 0.500000 2.203682 92.614323 10.224125 2.637389
6532.705000 6532.700000 0.500000 2.203600 92.595915 10.222965 2.636756
6532.802000 6532.800000 0.500000 2.203586 92.589256 10.222354 2.636525
6532.906000 6532.900000 0.500000 2.203587 92.584518 10.221836 2.635954
6533.007000 6533.000000 0.500000 2.203631 92.587486 10.221674 2.635481
6533.106000 6533.100000 0.500000 2.203624 92.606301 10.223837 2.635564
6533.199000 6533.200000 0.500000 2.203553 92.603823 10.224282 2.635391
6533.303000 6533.300000 0.500000 2.203510 92.577502 10.221824 2.633810
6533.398000 6533.400000 0.500000 2.203524 92.577072 10.221626 2.633205
6533.499000 6533.500000 0.500000 2.203485 92.588553 10.223338 2.632748
6533.603000 6533.600000 0.500000 2.203353 92.592223 10.225081 2.632856
6533.704000 6533.700000 0.500000 2.203296 92.597544 10.226186 2.632442
6533.799000 6533.800000 0.500000 2.203415 92.599160 10.225216 2.630964
6533.901000 6533.900000 0.500000 2.203446 92.575891 10.222269 2.629924
6533.996000 6534.000000 0.500000 2.203535 92.578858 10.221717 2.628813
6534.097000 6534.100000 0.500000 2.203356 92.588955 10.224630 2.628586
6534.201000 6534.200000 0.500000 2.203402 92.592306 10.224556 2.626779
6534.298000 6534.300000 0.500000 2.203436 92.584649 10.223367 2.626656
6534.399000 6534.400000 0.500000 2.203375 92.580042 10.223472 2.625421
6534.499000 6534.500000 0.500000 2.203298 92.583502 10.224650 2.625003
6534.595000 6534.600000 0.500000 2.203340 92.570992 10.222831 2.622789
6534.697000 6534.700000 0.500000 2.203444 92.567125 10.221358 2.621426
6534.797000 6534.800000 0.500000 2.203489 92.583597 10.222710 2.619972
6534.898000 6534.900000 0.500000 2.203445 92.600227 10.224974 2.619416
6534.997000 6535.000000 0.500000 2.203488 92.583926 10.222755 2.617097
6535.101000 6535.100000 0.500000 2.203583 92.565313 10.219723 2.614813
6535.202000 6535.200000 0.500000 2.203568 92.576370 10.221109 2.613398
6535.299000 6535.300000 0.500000 2.203536 92.574954 10.221273 2.611273
6535.401000 6535.400000 0.500000 2.203725 92.583039 10.220277 2.609053
6535.502000 6535.500000 0.500000 2.203807 92.576720 10.218699 2.605525
6535.601000 6535.600000 0.500000 2.203886 92.560465 10.216106 2.602990
6535.703000 6535.700000 0.500000 2.203878 92.544488 10.214414 2.599577
6535.804000 6535.800000 0.500000 2.203888 92.540302 10.213698 2.595995
6535.901000 6535.900000 0.500000 2.203951 92.554843 10.214761 2.592462
6536.003000 6536.000000 0.500000 2.204094 92.577293 10.215798 2.588701
6536.104000 6536.100000 0.500000 2.204233 92.662316 10.223821 2.587095
6536.201000 6536.200000 0.500000 2.204317 92.656664 10.222355 2.581351
6536.301000 6536.300000 0.500000 2.204512 92.655262 10.220251 2.575159
6536.404000 6536.400000 0.500000 2.204539 92.652529 10.219576 2.568954
6536.505000 6536.500000 0.500000 2.204779 92.664521 10.218477 2.560929
6536.602000 6536.600000 0.500000 2.204927 92.667641 10.217324 2.553076
6536.704000 6536.700000 0.500000 2.205196 92.661105 10.213839 2.541794
6536.801000 6536.800000 0.500000 2.205457 92.656465 10.210695 2.530155
6536.902000 6536.900000 0.500000 2.205552 92.650834 10.209034 2.516953
6537.002000 6537.000000 0.500000 2.205937 92.672778 10.207596 2.501444
6537.100000 6537.100000 0.500000 2.206293 92.665950 10.203175 2.484121
6537.197000 6537.200000 0.500000 2.206649 92.632134 10.195854 2.464526
6537.301000 6537.300000 0.500000 2.207029 92.638047 10.192548 2.443237
6537.396000 6537.400000 0.500000 2.207583 92.654475 10.188786 2.422085
6537.495000 6537.500000 0.500000 2.208168 92.663523 10.183949 2.398162
6537.599000 6537.600000 0.500000 2.208823 92.764696 10.188160 2.375796
6537.698000 6537.700000 0.500000 2.209695 92.757810 10.178562 2.350519
6537.795000 6537.800000 0.500000 2.210568 92.763647 10.170435 2.327235
6537.898000 6537.900000 0.500000 2.211844 92.767579 10.157900 2.302490
6537.997000 6538.000000 0.500000 2.213013 92.759610 10.145248 2.280777
6538.094000 6538.100000 0.500000 2.214575 92.762626 10.129880 2.258739
6538.198000 6538.200000 0.500000 2.216260 92.761376 10.112513 2.237909
6538.299000 6538.300000 0.500000 2.218035 92.759353 10.094174 2.218912
6538.392000 6538.400000 0.500000 2.220093 92.755409 10.073852 2.200865
6538.497000 6538.500000 0.500000 2.222367 92.761233 10.051085 2.182662
6538.601000 6538.600000 0.500000 2.224711 92.753318 10.026497 2.165069
6538.700000 6538.700000 0.500000 2.226966 92.750759 10.003504 2.149489
6538.801000 6538.800000 0.500000 2.229100 92.755332 9.982659 2.134303
6538.901000 6538.900000 0.500000 2.231100 92.761434 9.963408 2.120563
6539.002000 6539.000000 0.500000 2.232768 92.752380 9.945731 2.107731
6539.098000 6539.100000 0.500000 2.234036 92.759346 9.934311 2.097110
6539.204000 6539.200000 0.500000 2.234840 92.766344 9.926785 2.086928
6539.303000 6539.300000 0.500000 2.235232 92.750911 9.921333 2.078010
6539.400000 6539.400000 0.500000 2.235121 92.746458 9.921898 2.070662
6539.502000 6539.500000 0.500000 2.234715 92.752846 9.926694 2.064192
6539.601000 6539.600000 0.500000 2.234029 92.769535 9.935201 2.059566
6539.702000 6539.700000 0.500000 2.232976 92.773551 9.946147 2.054962
6539.805000 6539.800000 0.500000 2.231886 92.754579 9.955025 2.050099
6539.904000 6539.900000 0.500000 2.230843 92.755573 9.965508 2.046332
6540.001000 6540.000000 0.500000 2.229876 92.763819 9.975926 2.042434
6540.101000 6540.100000 0.500000 2.229260 92.775361 9.983304 2.038587
6540.200000 6540.200000 0.500000 2.228665 92.771183 9.988879 2.034370
6540.296000 6540.300000 0.500000 2.228430 92.758406 9.989813 2.029612
6540.400000 6540.400000 0.500000 2.228469 92.734846 9.986847 2.023473
6540.503000 6540.500000 0.500000 2.228868 92.737532 9.982928 2.018196
6540.602000 6540.600000 0.500000 2.229836 92.736292 9.973141 2.013432
6540.701000 6540.700000 0.500000 2.230952 92.744098 9.962942 2.007640
6540.800000 6540.800000 0.500000 2.232328 92.741594 9.948930 2.002087
6540.895000 6540.900000 0.500000 2.233966 92.745355 9.933492 1.996174
6540.996000 6541.000000 0.500000 2.235711 92.737551 9.915588 1.990953
6541.100000 6541.100000 0.500000 2.237714 92.748565 9.896392 1.985639
6541.198000 6541.200000 0.500000 2.239516 92.757684 9.879504 1.981543
6541.297000 6541.300000 0.500000 2.241281 92.762382 9.862871 1.977058
6541.399000 6541.400000 0.500000 2.243002 92.753633 9.844695 1.972066
6541.496000 6541.500000 0.500000 2.244587 92.734831 9.827308 1.968395
6541.597000 6541.600000 0.500000 2.246017 92.745089 9.814261 1.965460
6541.702000 6541.700000 0.500000 2.247298 92.748209 9.801852 1.962065
6541.799000 6541.800000 0.500000 2.248617 92.742430 9.788352 1.959064
6541.898000 6541.900000 0.500000 2.249766 92.739321 9.777118 1.955561
6542.002000 6542.000000 0.500000 2.250830 92.735468 9.765931 1.951100
6542.098000 6542.100000 0.500000 2.251959 92.724513 9.754039 1.947687
6542.200000 6542.200000 0.500000 2.253104 92.728110 9.743165 1.943166
6542.303000 6542.300000 0.500000 2.254127 92.735003 9.733841 1.938904
6542.400000 6542.400000 0.500000 2.255238 92.736261 9.723344 1.933871
6542.499000 6542.500000 0.500000 2.256379 92.728513 9.711581 1.928704
6542.604000 6542.600000 0.500000 2.257370 92.733637 9.702064 1.923017
6542.703000 6542.700000 0.500000 2.258425 92.730610 9.691631 1.917798
6542.804000 6542.800000 0.500000 2.259242 92.737690 9.684315 1.912048
6542.905000 6542.900000 0.500000 2.260202 92.731224 9.674422 1.906035
6543.005000 6543.000000 0.500000 2.261074 92.839293 9.677218 1.902562
6543.101000 6543.100000 0.500000 2.261923 92.840113 9.669147 1.897313
6543.202000 6543.200000 0.500000 2.262766 92.832637 9.660356 1.891311
6543.303000 6543.300000 0.500000 2.263519 92.831492 9.652907 1.886059
6543.402000 6543.400000 0.500000 2.264410 92.847410 9.645801 1.880761
6543.503000 6543.500000 0.500000 2.265435 92.827892 9.633880 1.875169
6543.603000 6543.600000 0.500000 2.266571 92.810267 9.621140 1.868444
6543.699000 6543.700000 0.500000 2.267775 92.818409 9.610603 1.862802
6543.800000 6543.800000 0.500000 2.269402 92.837895 9.597136 1.856790
6543.901000 6543.900000 0.500000 2.271205 92.835447 9.579381 1.849913
6544.000000 6544.000000 0.500000 2.273253 92.827304 9.559073 1.842475
6544.099000 6544.100000 0.500000 2.275638 92.815498 9.535012 1.834157
6544.202000 6544.200000 0.500000 2.278431 92.810981 9.507317 1.825101
6544.297000 6544.300000 0.500000 2.281538 92.806802 9.477945 1.815689
6544.396000 6544.400000 0.500000 2.285121 92.814442 9.445079 1.805906
6544.499000 6544.500000 0.500000 2.289248 92.805021 9.405252 1.794077
6544.598000 6544.600000 0.500000 2.293634 92.789180 9.362231 1.782542
6544.694000 6544.700000 0.500000 2.298535 92.806178 9.319380 1.770586
6544.798000 6544.800000 0.500000 2.303934 92.802312 9.267582 1.756663
6544.895000 6544.900000 0.500000 2.309866 92.812898 9.214584 1.742567
6544.996000 6545.000000 0.500000 2.316252 92.803576 9.154665 1.727294
6545.099000 6545.100000 0.500000 2.323217 92.786479 9.088586 1.711105
6545.198000 6545.200000 0.500000 2.330894 92.803984 9.020996 1.694332
6545.294000 6545.300000 0.500000 2.338933 92.806931 8.950546 1.676594
6545.398000 6545.400000 0.500000 2.347985 92.808729 8.869897 1.657508
6545.503000 6545.500000 0.500000 2.357536 92.778616 8.780486 1.636739
6545.598000 6545.600000 0.500000 2.367702 92.779976 8.694190 1.616418
6545.699000 6545.700000 0.500000 2.378654 92.784221 8.599945 1.593830
6545.800000 6545.800000 0.500000 2.390323 92.793198 8.500428 1.571157
6545.899000 6545.900000 0.500000 2.402419 92.788367 8.397819 1.547785
6545.999000 6546.000000 0.500000 2.415311 92.784713 8.290332 1.523166
6546.105000 6546.100000 0.500000 2.428953 92.788816 8.175075 1.497419
6546.204000 6546.200000 0.500000 2.442656 92.792472 8.064823 1.472925
6546.301000 6546.300000 0.500000 2.456415 92.781775 7.954828 1.448547
6546.402000 6546.400000 0.500000 2.470271 92.785487 7.846030 1.423774
6546.503000 6546.500000 0.500000 2.484125 92.775529 7.735638 1.399812
6546.601000 6546.600000 0.500000 2.497029 92.761727 7.638209 1.377268
6546.704000 6546.700000 0.500000 2.509977 92.785571 7.540924 1.355238
6546.803000 6546.800000 0.500000 2.521062 92.781364 7.457692 1.335703
6546.902000 6546.900000 0.500000 2.530698 92.755732 7.384530 1.318582
6547.001000 6547.000000 0.500000 2.539137 92.758430 7.322642 1.303133
6547.104000 6547.100000 0.500000 2.545866 92.768745 7.272542 1.289379
6547.196000 6547.200000 0.500000 2.551105 92.767569 7.235886 1.279266
6547.302000 6547.300000 0.500000 2.554967 92.747763 7.205658 1.269229
6547.400000 6547.400000 0.500000 2.557814 92.748896 7.185667 1.261325
6547.499000 6547.500000 0.500000 2.559683 92.760408 7.172954 1.254960
6547.600000 6547.600000 0.500000 2.560936 92.751554 7.163399 1.248580
6547.701000 6547.700000 0.500000 2.561772 92.754951 7.157539 1.243463
6547.795000 6547.800000 0.500000 2.562609 92.746050 7.151045 1.238255
6547.898000 6547.900000 0.500000 2.563521 92.755057 7.145202 1.232203
6548.000000 6548.000000 0.500000 2.564654 92.760308 7.137397 1.226412
6548.098000 6548.100000 0.500000 2.565893 92.736135 7.126568 1.220115
6548.199000 6548.200000 0.500000 2.567795 92.728786 7.112601 1.214361
6548.300000 6548.300000 0.500000 2.570041 92.714480 7.095186 1.206453
6548.392000 6548.400000 0.500000 2.572805 92.741145 7.078605 1.199489
6548.497000 6548.500000 0.500000 2.576092 92.757254 7.055785 1.190608
6548.603000 6548.600000 0.500000 2.579671 92.731760 7.028061 1.182015
6548.700000 6548.700000 0.500000 2.583654 92.728070 7.000471 1.172872
6548.800000 6548.800000 0.500000 2.587830 92.715378 6.970323 1.164012
6548.901000 6548.900000 0.500000 2.592395 92.724918 6.938841 1.154814
6549.000000 6549.000000 0.500000 2.597194 92.729061 6.906573 1.145389
6549.097000 6549.100000 0.500000 2.602417 92.780631 6.875174 1.136126
6549.206000 6549.200000 0.500000 2.607861 92.808502 6.837872 1.125875
6549.301000 6549.300000 0.500000 2.613572 92.807414 6.800428 1.116222
6549.401000 6549.400000 0.500000 2.619640 92.835747 6.760962 1.105898
6549.504000 6549.500000 0.500000 2.626049 92.842279 6.717947 1.095359
6549.603000 6549.600000 0.500000 2.632470 92.831990 6.674645 1.084598
6549.699000 6549.700000 0.500000 2.638949 92.824439 6.631858 1.074012
6549.803000 6549.800000 0.500000 2.645832 92.811701 6.584161 1.062842
6549.902000 6549.900000 0.500000 2.652574 92.811706 6.540803 1.052589
6550.002000 6550.000000 0.500000 2.658812 92.806210 6.499302 1.042225
6550.103000 6550.100000 0.500000 2.665410 92.809732 6.456810 1.032763
6550.204000 6550.200000 0.500000 2.671516 92.807974 6.417391 1.022243
6550.300000 6550.300000 0.500000 2.677410 92.837710 6.382228 1.014121
6550.401000 6550.400000 0.500000 2.682659 92.838824 6.348710 1.005727
6550.504000 6550.500000 0.500000 2.687481 92.802640 6.315175 0.997383
6550.601000 6550.600000 0.500000 2.691996 92.833396 6.289063 0.990419
6550.700000 6550.700000 0.500000 2.695689 92.938603 6.273273 0.985176
6550.802000 6550.800000 0.500000 2.699183 92.948338 6.251628 0.978913
6550.897000 6550.900000 0.500000 2.701841 92.932767 6.234516 0.973865
6550.998000 6551.000000 0.500000 2.704195 92.919383 6.218601 0.968744
6551.101000 6551.100000 0.500000 2.706238 92.912640 6.205297 0.964124
6551.197000 6551.200000 0.500000 2.707928 92.933912 6.196491 0.960138
6551.296000 6551.300000 0.500000 2.709130 92.927318 6.188529 0.956557
6551.399000 6551.400000 0.500000 2.710282 92.913744 6.180415 0.952206
6551.497000 6551.500000 0.500000 2.711381 92.923368 6.174374 0.948787
6551.596000 6551.600000 0.500000 2.712442 92.922344 6.167720 0.945213
6551.701000 6551.700000 0.500000 2.713575 92.910208 6.159737 0.941756
6551.797000 6551.800000 0.500000 2.714829 92.910405 6.152251 0.938057
6551.896000 6551.900000 0.500000 2.716519 92.915160 6.142248 0.933763
6551.999000 6552.000000 0.500000 2.718290 92.907968 6.130898 0.929955
6552.100000 6552.100000 0.500000 2.720519 92.909470 6.116849 0.925453
6552.194000 6552.200000 0.500000 2.722931 92.920898 6.103583 0.920918
6552.301000 6552.300000 0.500000 2.725938 92.922098 6.084642 0.916099
6552.400000 6552.400000 0.500000 2.729310 92.891179 6.062743 0.910345
