# XDI/1.0 BlueSky/1.5.3
# Beamline.name: 6BM
# Beamline.xray_source: NSLS-II three-pole wiggler
# Beamline.collimation: paraboloid mirror, 5 nm Rh on 30 nm Pt
# Beamline.focusing: not in use
# Beamline.harmonic_rejection: flat mirror, Si stripe, pitch = 7.0 mrad relative to beam
# Detector.i0: 10 cm N2
# Detector.i1: 25 cm N2
# Detector.i2: 25 cm N2
# Element.symbol: Mn
# Element.edge: K
# Facility.name: NSLS-II
# Facility.energy: 3.0
# Facility.current: 400.7
# Facility.mode: top-off
# Facility.gup: 305081
# Facility.saf: 305123
# Mono.name: Si(111)
# Mono.d_spacing: 3.1353241
# Mono.encoder_resolution: 0.0000050 deg/ct
# Mono.angle_offset: 16.0581090 deg
# Mono.scan_mode: fixed exit
# Mono.scan_type: step
# Mono.direction: forward in energy
# Sample.name: Mn2SiO4
# Sample.prep: Powder in polyethylene glycol pellet
# Sample.x_position: -120.140 mm
# Sample.y_position: 112.312 mm
# Scan.experimenters: Neil Hyatt, Martin Stennett, Lucy Mottram
# Scan.edge_energy: 6539.0
# Scan.start_time: 2019-11-11T17:55:26
# Scan.end_time: 2019-11-12T04:35:59
# Scan.transient_id: 17907
# Scan.uid: f9fee9a5-b81b-4432-9f03-38e695c9cebd
# Scan.plot_hint: ln(I0/It)  --  ln($5/$6)
# Scan.sequence: merge of 3 scans
# Column.1: energy eV
# Column.2: requested_energy eV
# Column.3: measurement_time seconds
# Column.4: mutrans
# Column.5: i0
# Column.6: itrans
# Column.7: irefer
# /////
#  Franklin, Sussex Co., NJ
# -----
# energy   requested_energy   measurement_time   mutrans   i0   itrans   irefer
6338.996000 6339.000000 0.500000 1.997742 89.617231 12.155864 2.789926
6349.015000 6349.000000 0.500000 1.985524 89.764725 12.325608 2.848614
6359.013000 6359.000000 0.500000 1.973440 90.052647 12.515392 2.912686
6369.024000 6369.000000 0.500000 1.961492 90.297727 12.700406 2.975949
6379.016000 6379.000000 0.500000 1.949588 90.481034 12.878473 3.038669
6389.016000 6389.000000 0.500000 1.937625 90.630208 13.054907 3.101184
6399.015000 6399.000000 0.500000 1.925860 90.777294 13.230879 3.164505
6409.020000 6409.000000 0.500000 1.914053 90.945488 13.412893 3.229231
6419.016000 6419.000000 0.500000 1.902494 91.073381 13.587878 3.293497
6429.013000 6429.000000 0.500000 1.890929 91.192477 13.763839 3.358809
6439.010000 6439.000000 0.500000 1.879461 91.317835 13.941688 3.424120
6449.013000 6449.000000 0.500000 1.868048 91.295305 14.098266 3.484898
6459.007000 6459.000000 0.500000 1.856901 91.257720 14.250369 3.545314
6469.004000 6469.000000 0.500000 1.845585 91.657507 14.475663 3.624131
6479.010000 6479.000000 0.500000 1.834495 91.813028 14.662017 3.694779
6489.003000 6489.000000 0.500000 1.823319 91.980534 14.853745 3.765695
6499.003000 6499.000000 0.500000 1.812517 92.134025 15.040094 3.836892
6508.929000 6509.000000 0.500000 1.801849 92.225668 15.216048 3.902235
6510.991000 6511.000000 0.500000 1.800041 92.297176 15.255907 3.916667
6512.988000 6513.000000 0.500000 1.798111 92.319778 15.289138 3.929474
6514.992000 6515.000000 0.500000 1.795938 92.342568 15.326181 3.942505
6516.994000 6517.000000 0.500000 1.794099 92.385498 15.361565 3.955963
6519.496000 6519.000000 0.500000 1.791949 92.428593 15.406547 3.971689
6520.985000 6521.000000 0.500000 1.790191 92.456265 15.433441 3.980814
6523.198000 6523.000000 0.500000 1.788374 92.490802 15.468146 3.992989
6524.983000 6525.000000 0.500000 1.786575 92.471016 15.490598 4.000169
6526.982000 6527.000000 0.500000 1.785016 92.529392 15.525669 4.010372
6528.984000 6529.000000 0.500000 1.783562 92.541152 15.550369 4.016440
6529.085000 6529.100000 0.500000 1.783570 92.536456 15.549195 4.015865
6529.191000 6529.200000 0.500000 1.783428 92.542529 15.551634 4.016986
6529.300000 6529.300000 0.500000 1.783365 92.532984 15.552234 4.016368
6529.415000 6529.400000 0.500000 1.783249 92.532646 15.553982 4.016147
6529.565000 6529.500000 0.500000 1.783211 92.528687 15.554609 4.016695
6529.583000 6529.600000 0.500000 1.783181 92.526634 15.553888 4.016550
6529.682000 6529.700000 0.500000 1.783092 92.528204 15.555529 4.017349
6529.782000 6529.800000 0.500000 1.783005 92.511522 15.554057 4.016526
6529.881000 6529.900000 0.500000 1.782954 92.508781 15.554364 4.015814
6529.983000 6530.000000 0.500000 1.782872 92.510640 15.556008 4.016665
6530.085000 6530.100000 0.500000 1.782857 92.510460 15.556199 4.016904
6530.186000 6530.200000 0.500000 1.782958 92.508749 15.554356 4.016512
6530.285000 6530.300000 0.500000 1.782773 92.519773 15.559060 4.016841
6530.385000 6530.400000 0.500000 1.782654 92.506814 15.558748 4.016902
6530.487000 6530.500000 0.500000 1.782668 92.496801 15.556848 4.015838
6530.586000 6530.600000 0.500000 1.782553 92.493011 15.557987 4.015686
6530.690000 6530.700000 0.500000 1.782514 92.506066 15.560844 4.016233
6530.790000 6530.800000 0.500000 1.782438 92.515637 15.563616 4.016221
6530.886000 6530.900000 0.500000 1.782469 92.509536 15.562102 4.016774
6530.991000 6531.000000 0.500000 1.782387 92.501603 15.562100 4.016281
6531.094000 6531.100000 0.500000 1.782273 92.505183 15.564395 4.015962
6531.192000 6531.200000 0.500000 1.782329 92.487012 15.560464 4.014887
6531.298000 6531.300000 0.500000 1.782215 92.487213 15.562313 4.015342
6531.395000 6531.400000 0.500000 1.782163 92.508873 15.566757 4.016026
6531.499000 6531.500000 0.500000 1.782068 92.506748 15.567877 4.015489
6531.596000 6531.600000 0.500000 1.782099 92.491449 15.564811 4.014211
6531.704000 6531.700000 0.500000 1.782098 92.469666 15.561200 4.013153
6531.799000 6531.800000 0.500000 1.781968 92.473763 15.563852 4.013538
6531.898000 6531.900000 0.500000 1.781995 92.477815 15.564153 4.012834
6532.004000 6532.000000 0.500000 1.781918 92.494522 15.568129 4.013621
6532.100000 6532.100000 0.500000 1.781927 92.491684 15.567553 4.013172
6532.205000 6532.200000 0.500000 1.781812 92.490267 15.569103 4.013308
6532.305000 6532.300000 0.500000 1.781746 92.482574 15.568830 4.012023
6532.404000 6532.400000 0.500000 1.781696 92.482840 15.569601 4.010955
6532.504000 6532.500000 0.500000 1.781718 92.475825 15.568129 4.011039
6532.607000 6532.600000 0.500000 1.781659 92.469379 15.567980 4.010480
6532.702000 6532.700000 0.500000 1.781627 92.478910 15.570034 4.010170
6532.806000 6532.800000 0.500000 1.781634 92.484933 15.571105 4.009859
6532.906000 6532.900000 0.500000 1.781503 92.477649 15.571710 4.009709
6533.003000 6533.000000 0.500000 1.781526 92.468753 15.569910 4.008201
6533.102000 6533.100000 0.500000 1.781527 92.458659 15.568199 4.006601
6533.203000 6533.200000 0.500000 1.781433 92.450603 15.568287 4.006283
6533.301000 6533.300000 0.500000 1.781444 92.469686 15.571353 4.005712
6533.402000 6533.400000 0.500000 1.781417 92.475412 15.572736 4.006003
6533.503000 6533.500000 0.500000 1.781400 92.484952 15.574588 4.004926
6533.603000 6533.600000 0.500000 1.781421 92.480375 15.573535 4.003828
6533.700000 6533.700000 0.500000 1.781359 92.499608 15.577701 4.003942
6533.802000 6533.800000 0.500000 1.781295 92.567900 15.590029 4.005463
6533.899000 6533.900000 0.500000 1.781255 92.578276 15.592433 4.004818
6533.998000 6534.000000 0.500000 1.781279 92.583143 15.592881 4.003992
6534.102000 6534.100000 0.500000 1.781293 92.582341 15.592558 4.003009
6534.199000 6534.200000 0.500000 1.781340 92.581176 15.591566 4.001199
6534.295000 6534.300000 0.500000 1.781405 92.586731 15.591537 3.999881
6534.401000 6534.400000 0.500000 1.781236 92.576896 15.592442 3.997490
6534.496000 6534.500000 0.500000 1.781293 92.565682 15.589730 3.995379
6534.596000 6534.600000 0.500000 1.781315 92.574946 15.590950 3.994182
6534.699000 6534.700000 0.500000 1.781362 92.561583 15.587963 3.991510
6534.799000 6534.800000 0.500000 1.781451 92.543854 15.583610 3.988020
6534.900000 6534.900000 0.500000 1.781395 92.568475 15.588609 3.986470
6534.997000 6535.000000 0.500000 1.781432 92.552944 15.585406 3.984404
6535.103000 6535.100000 0.500000 1.781412 92.545795 15.584510 3.981367
6535.198000 6535.200000 0.500000 1.781456 92.544243 15.583568 3.978935
6535.302000 6535.300000 0.500000 1.781535 92.563538 15.585578 3.976165
6535.401000 6535.400000 0.500000 1.781565 92.642916 15.598544 3.975505
6535.500000 6535.500000 0.500000 1.781653 92.645110 15.597548 3.972114
6535.602000 6535.600000 0.500000 1.781698 92.638477 15.595692 3.966870
6535.705000 6535.700000 0.500000 1.781689 92.658600 15.599219 3.962765
6535.800000 6535.800000 0.500000 1.781751 92.658885 15.598363 3.959137
6535.901000 6535.900000 0.500000 1.781736 92.656277 15.598134 3.953286
6536.005000 6536.000000 0.500000 1.781798 92.660562 15.597870 3.946787
6536.100000 6536.100000 0.500000 1.781884 92.666677 15.597614 3.940418
6536.203000 6536.200000 0.500000 1.782058 92.639990 15.590369 3.930736
6536.303000 6536.300000 0.500000 1.782086 92.645014 15.590750 3.922025
6536.404000 6536.400000 0.500000 1.782207 92.665378 15.592309 3.912418
6536.499000 6536.500000 0.500000 1.782342 92.655084 15.588504 3.901884
6536.602000 6536.600000 0.500000 1.782464 92.640440 15.584101 3.887249
6536.702000 6536.700000 0.500000 1.782647 92.618445 15.577554 3.870378
6536.799000 6536.800000 0.500000 1.782787 92.639135 15.578871 3.855125
6536.902000 6536.900000 0.500000 1.783003 92.647261 15.576807 3.834112
6537.002000 6537.000000 0.500000 1.783279 92.640722 15.571463 3.810031
6537.098000 6537.100000 0.500000 1.783477 92.640918 15.568426 3.783781
6537.198000 6537.200000 0.500000 1.783763 92.636289 15.563164 3.755141
6537.301000 6537.300000 0.500000 1.784136 92.650573 15.559640 3.722438
6537.396000 6537.400000 0.500000 1.784545 92.735309 15.567699 3.692250
6537.497000 6537.500000 0.500000 1.784979 92.742961 15.562079 3.656265
6537.599000 6537.600000 0.500000 1.785611 92.736734 15.551146 3.618122
6537.695000 6537.700000 0.500000 1.786311 92.728042 15.539151 3.582036
6537.799000 6537.800000 0.500000 1.787066 92.734810 15.528207 3.544995
6537.900000 6537.900000 0.500000 1.787958 92.742048 15.515543 3.509156
6537.997000 6538.000000 0.500000 1.789026 92.714967 15.494792 3.475977
6538.096000 6538.100000 0.500000 1.790066 92.701765 15.476488 3.444047
6538.200000 6538.200000 0.500000 1.791376 92.726935 15.459926 3.414195
6538.295000 6538.300000 0.500000 1.792683 92.733850 15.441807 3.387624
6538.394000 6538.400000 0.500000 1.794093 92.727285 15.419016 3.360977
6538.504000 6538.500000 0.500000 1.795381 92.698082 15.393277 3.334375
6538.599000 6538.600000 0.500000 1.796722 92.700871 15.373970 3.312904
6538.700000 6538.700000 0.500000 1.798067 92.719695 15.356087 3.291644
6538.804000 6538.800000 0.500000 1.799135 92.737929 15.342376 3.272636
6538.901000 6538.900000 0.500000 1.800030 92.715719 15.325202 3.254397
6538.997000 6539.000000 0.500000 1.800760 92.700412 15.311898 3.238687
6539.105000 6539.100000 0.500000 1.801295 92.689645 15.301388 3.222330
6539.205000 6539.200000 0.500000 1.801731 92.702333 15.297010 3.209540
6539.301000 6539.300000 0.500000 1.801802 92.731183 15.300698 3.198773
6539.403000 6539.400000 0.500000 1.801666 92.724155 15.301718 3.186767
6539.502000 6539.500000 0.500000 1.801296 92.712903 15.305397 3.176001
6539.599000 6539.600000 0.500000 1.800837 92.697316 15.309559 3.166499
6539.702000 6539.700000 0.500000 1.800234 92.695844 15.318837 3.158379
6539.805000 6539.800000 0.500000 1.799367 92.711500 15.334899 3.151097
6539.902000 6539.900000 0.500000 1.798477 92.729332 15.351242 3.145849
6540.001000 6540.000000 0.500000 1.797622 92.731959 15.364841 3.139155
6540.103000 6540.100000 0.500000 1.796730 92.715401 15.376150 3.132875
6540.199000 6540.200000 0.500000 1.795917 92.704365 15.386369 3.126515
6540.298000 6540.300000 0.500000 1.795123 92.696813 15.397427 3.120590
6540.400000 6540.400000 0.500000 1.794590 92.700073 15.406258 3.115068
6540.501000 6540.500000 0.500000 1.794153 92.717684 15.416004 3.110077
6540.598000 6540.600000 0.500000 1.793882 92.710794 15.418865 3.105525
6540.701000 6540.700000 0.500000 1.793764 92.705704 15.419884 3.100201
6540.798000 6540.800000 0.500000 1.793723 92.697198 15.419124 3.095621
6540.895000 6540.900000 0.500000 1.793828 92.698161 15.417644 3.091800
6540.998000 6541.000000 0.500000 1.794170 92.707434 15.413908 3.087519
6541.099000 6541.100000 0.500000 1.794553 92.697864 15.406480 3.084278
6541.196000 6541.200000 0.500000 1.794998 92.686124 15.397719 3.080847
6541.298000 6541.300000 0.500000 1.795437 92.690973 15.391615 3.078352
6541.397000 6541.400000 0.500000 1.796148 92.698809 15.382264 3.074907
6541.496000 6541.500000 0.500000 1.796944 92.684466 15.367612 3.071773
6541.601000 6541.600000 0.500000 1.797778 92.691107 15.355277 3.068391
6541.700000 6541.700000 0.500000 1.798821 92.670777 15.336322 3.063892
6541.801000 6541.800000 0.500000 1.799865 92.682975 15.322168 3.059369
6541.900000 6541.900000 0.500000 1.801083 92.697807 15.305896 3.054001
6542.001000 6542.000000 0.500000 1.802499 92.704662 15.285791 3.047845
6542.098000 6542.100000 0.500000 1.803900 92.680468 15.260606 3.039612
6542.202000 6542.200000 0.500000 1.805694 92.673341 15.231337 3.031081
6542.303000 6542.300000 0.500000 1.807644 92.685665 15.203850 3.021905
6542.402000 6542.400000 0.500000 1.809817 92.702796 15.174108 3.011702
6542.501000 6542.500000 0.500000 1.812085 92.691648 15.136996 2.998856
6542.604000 6542.600000 0.500000 1.814893 92.674199 15.092359 2.985099
6542.701000 6542.700000 0.500000 1.817868 92.664461 15.046688 2.970485
6542.802000 6542.800000 0.500000 1.821122 92.670666 14.998426 2.954729
6542.905000 6542.900000 0.500000 1.824764 92.689894 14.946094 2.938055
6543.004000 6543.000000 0.500000 1.828763 92.693468 14.887170 2.920747
6543.103000 6543.100000 0.500000 1.833067 92.655476 14.817112 2.900370
6543.205000 6543.200000 0.500000 1.837818 92.652004 14.745782 2.880813
6543.303000 6543.300000 0.500000 1.843025 92.677488 14.675006 2.861379
6543.402000 6543.400000 0.500000 1.848532 92.692491 14.594319 2.839278
6543.504000 6543.500000 0.500000 1.854437 92.683045 14.506122 2.816332
6543.602000 6543.600000 0.500000 1.860900 92.672997 14.412939 2.793338
6543.697000 6543.700000 0.500000 1.867575 92.681134 14.322457 2.769848
6543.800000 6543.800000 0.500000 1.874720 92.672547 14.213449 2.743560
6543.903000 6543.900000 0.500000 1.882789 92.677253 14.100604 2.716388
6543.998000 6544.000000 0.500000 1.890864 92.666633 13.987913 2.689460
6544.101000 6544.100000 0.500000 1.899574 92.651477 13.860980 2.658881
6544.200000 6544.200000 0.500000 1.908878 92.660966 13.734927 2.630131
6544.299000 6544.300000 0.500000 1.918445 92.666768 13.608307 2.601110
6544.398000 6544.400000 0.500000 1.928044 92.670881 13.474586 2.569432
6544.499000 6544.500000 0.500000 1.938365 92.658605 13.337107 2.538019
6544.594000 6544.600000 0.500000 1.948371 92.657853 13.207011 2.508841
6544.699000 6544.700000 0.500000 1.958708 92.655693 13.066348 2.477034
6544.800000 6544.800000 0.500000 1.969014 92.644845 12.929999 2.444623
6544.897000 6544.900000 0.500000 1.979144 92.633218 12.801532 2.415705
6544.998000 6545.000000 0.500000 1.989030 92.655196 12.676547 2.385900
6545.099000 6545.100000 0.500000 1.998940 92.665984 12.552697 2.356569
6545.196000 6545.200000 0.500000 2.008529 92.668518 12.439369 2.329778
6545.296000 6545.300000 0.500000 2.017531 92.651741 12.321533 2.302769
6545.402000 6545.400000 0.500000 2.026840 92.644856 12.204566 2.274184
6545.501000 6545.500000 0.500000 2.035562 92.633049 12.097772 2.248447
6545.598000 6545.600000 0.500000 2.043982 92.633407 11.999087 2.224279
6545.699000 6545.700000 0.500000 2.052223 92.647415 11.900399 2.199829
6545.802000 6545.800000 0.500000 2.060404 92.652322 11.804685 2.175469
6545.898000 6545.900000 0.500000 2.068188 92.635836 11.712930 2.152745
6546.002000 6546.000000 0.500000 2.075878 92.620184 11.618745 2.128702
6546.103000 6546.100000 0.500000 2.083663 92.606178 11.526367 2.105100
6546.202000 6546.200000 0.500000 2.091092 92.633473 11.446674 2.084590
6546.300000 6546.300000 0.500000 2.098508 92.645313 11.362164 2.062952
6546.402000 6546.400000 0.500000 2.106053 92.635580 11.275826 2.040273
6546.500000 6546.500000 0.500000 2.113674 92.616378 11.188829 2.018329
6546.601000 6546.600000 0.500000 2.121167 92.635580 11.106972 1.997078
6546.705000 6546.700000 0.500000 2.129029 92.619627 11.016165 1.973976
6546.803000 6546.800000 0.500000 2.136633 92.717942 10.945914 1.954846
6546.900000 6546.900000 0.500000 2.144241 92.731260 10.863942 1.933788
6547.001000 6547.000000 0.500000 2.151860 92.746830 10.782202 1.913189
6547.100000 6547.100000 0.500000 2.159700 92.759329 10.701628 1.891716
6547.200000 6547.200000 0.500000 2.167278 92.747427 10.618129 1.871453
6547.301000 6547.300000 0.500000 2.175107 92.731788 10.534078 1.850393
6547.400000 6547.400000 0.500000 2.182802 92.709347 10.450519 1.829541
6547.499000 6547.500000 0.500000 2.190612 92.720347 10.372056 1.809437
6547.600000 6547.600000 0.500000 2.198150 92.723238 10.291574 1.789188
6547.699000 6547.700000 0.500000 2.206031 92.736846 10.214121 1.769389
6547.793000 6547.800000 0.500000 2.213558 92.735327 10.139215 1.750241
6547.899000 6547.900000 0.500000 2.221712 92.707164 10.051199 1.728463
6547.999000 6548.000000 0.500000 2.229665 92.716228 9.973081 1.709499
6548.098000 6548.100000 0.500000 2.237576 92.726068 9.895288 1.689725
6548.199000 6548.200000 0.500000 2.245622 92.712117 9.812024 1.669308
6548.296000 6548.300000 0.500000 2.254254 92.706358 9.730099 1.649076
6548.394000 6548.400000 0.500000 2.262696 92.712543 9.650587 1.630304
6548.500000 6548.500000 0.500000 2.271498 92.789394 9.571232 1.610799
6548.599000 6548.600000 0.500000 2.280327 92.782061 9.486925 1.590412
6548.699000 6548.700000 0.500000 2.289199 92.751081 9.400799 1.571001
6548.798000 6548.800000 0.500000 2.297838 92.744673 9.319012 1.552022
6548.903000 6548.900000 0.500000 2.306906 92.769178 9.235740 1.532034
6548.996000 6549.000000 0.500000 2.315502 92.790011 9.163039 1.515200
6549.101000 6549.100000 0.500000 2.324316 92.790740 9.078996 1.495823
6549.204000 6549.200000 0.500000 2.332930 92.771739 8.998300 1.477101
6549.300000 6549.300000 0.500000 2.341315 92.766509 8.925846 1.460382
6549.401000 6549.400000 0.500000 2.349425 92.779061 8.853725 1.443975
6549.504000 6549.500000 0.500000 2.357346 92.797938 8.785178 1.427773
6549.601000 6549.600000 0.500000 2.364752 92.779871 8.719527 1.412050
6549.702000 6549.700000 0.500000 2.371436 92.731333 8.656439 1.397287
6549.807000 6549.800000 0.500000 2.378005 92.768128 8.601794 1.383220
6549.904000 6549.900000 0.500000 2.383770 92.779515 8.554423 1.371416
6550.004000 6550.000000 0.500000 2.388756 92.771487 8.510593 1.359698
6550.106000 6550.100000 0.500000 2.393339 92.775325 8.471850 1.349607
6550.204000 6550.200000 0.500000 2.397310 92.779098 8.439122 1.340300
6550.300000 6550.300000 0.500000 2.400549 92.833685 8.417338 1.332354
6550.404000 6550.400000 0.500000 2.403241 92.873830 8.397611 1.325389
6550.502000 6550.500000 0.500000 2.405530 92.878598 8.379363 1.318496
6550.599000 6550.600000 0.500000 2.407334 92.878439 8.364325 1.312884
6550.700000 6550.700000 0.500000 2.408698 92.847950 8.349890 1.306166
6550.803000 6550.800000 0.500000 2.409634 92.844003 8.341688 1.301540
6550.897000 6550.900000 0.500000 2.410445 92.856068 8.336154 1.297058
6551.000000 6551.000000 0.500000 2.411002 92.867496 8.332462 1.293281
6551.101000 6551.100000 0.500000 2.411297 92.874029 8.330605 1.289255
6551.199000 6551.200000 0.500000 2.411636 92.854600 8.326070 1.284950
6551.296000 6551.300000 0.500000 2.411842 92.848721 8.323819 1.281313
6551.401000 6551.400000 0.500000 2.411869 92.835323 8.322379 1.277477
6551.497000 6551.500000 0.500000 2.411974 92.858235 8.323572 1.274302
6551.598000 6551.600000 0.500000 2.412215 92.867988 8.322417 1.270991
6551.699000 6551.700000 0.500000 2.412400 92.846154 8.318925 1.266603
6551.798000 6551.800000 0.500000 2.412596 92.840716 8.316836 1.262933
6551.896000 6551.900000 0.500000 2.412678 92.849860 8.316961 1.260050
6551.999000 6552.000000 0.500000 2.412767 92.856292 8.316791 1.256923
6552.098000 6552.100000 0.500000 2.412779 92.844769 8.315686 1.253346
6552.196000 6552.200000 0.500000 2.412450 92.805661 8.314874 1.250105
6552.301000 6552.300000 0.500000 2.411800 92.843222 8.323722 1.248096
