# XDI/1.0 BlueSky/1.5.3
# Beamline.name: 6BM
# Beamline.xray_source: NSLS-II three-pole wiggler
# Beamline.collimation: paraboloid mirror, 5 nm Rh on 30 nm Pt
# Beamline.focusing: not in use
# Beamline.harmonic_rejection: flat mirror, Si stripe, pitch = 7.0 mrad relative to beam
# Detector.i0: 10 cm N2
# Detector.i1: 25 cm N2
# Detector.i2: 25 cm N2
# Element.symbol: Mn
# Element.edge: K
# Facility.name: NSLS-II
# Facility.energy: 3.0
# Facility.current: 399.8
# Facility.mode: top-off
# Facility.gup: 305081
# Facility.saf: 305123
# Mono.name: Si(111)
# Mono.d_spacing: 3.1353241
# Mono.encoder_resolution: 0.0000050 deg/ct
# Mono.angle_offset: 16.0581090 deg
# Mono.scan_mode: fixed exit
# Mono.scan_type: step
# Mono.direction: forward in energy
# Sample.name: Mn9Al6Si5O20(OH)16
# Sample.prep: Powder in polyethylene glycol pellet
# Sample.x_position: -120.140 mm
# Sample.y_position: 112.312 mm
# Scan.experimenters: Neil Hyatt, Martin Stennett, Lucy Mottram
# Scan.edge_energy: 6539.0
# Scan.start_time: 2019-11-11T17:15:46
# Scan.end_time: 2019-11-12T03:18:48
# Scan.transient_id: 17905
# Scan.uid: 9c8bfa9d-e248-4b07-a703-e2380b455f0d
# Scan.plot_hint: ln(I0/It)  --  ln($5/$6)
# Scan.sequence: merge of 3 scans
# Column.1: energy eV
# Column.2: requested_energy eV
# Column.3: measurement_time seconds
# Column.4: mutrans
# Column.5: i0
# Column.6: itrans
# Column.7: irefer
# /////
#  Harstigen Mine, Persberg, Sweden
# -----
# energy   requested_energy   measurement_time   mutrans   i0   itrans   irefer
6338.998000 6339.000000 0.500000 2.048874 89.630455 11.551667 2.650540
6349.015000 6349.000000 0.500000 2.036681 89.951590 11.735446 2.711698
6359.012000 6359.000000 0.500000 2.024448 90.107954 11.900386 2.769296
6369.016000 6369.000000 0.500000 2.012417 90.268414 12.065885 2.827020
6379.021000 6379.000000 0.500000 2.000270 90.448343 12.237690 2.887011
6389.013000 6389.000000 0.500000 1.988352 90.601866 12.405349 2.946609
6399.015000 6399.000000 0.500000 1.976524 90.751068 12.573689 3.006915
6409.018000 6409.000000 0.500000 1.964743 90.891382 12.742374 3.067355
6419.014000 6419.000000 0.500000 1.952955 91.166862 12.932527 3.134474
6429.013000 6429.000000 0.500000 1.941235 91.307278 13.105168 3.196963
6439.014000 6439.000000 0.500000 1.929519 91.427146 13.276987 3.259315
6449.011000 6449.000000 0.500000 1.918208 91.386990 13.422133 3.317304
6459.009000 6459.000000 0.500000 1.906755 91.366377 13.573620 3.376680
6469.004000 6469.000000 0.500000 1.895408 91.773044 13.789545 3.451624
6479.006000 6479.000000 0.500000 1.883990 91.932162 13.972123 3.519969
6489.001000 6489.000000 0.500000 1.872698 92.094640 14.155694 3.588159
6499.001000 6499.000000 0.500000 1.861540 92.242171 14.337455 3.655839
6508.911000 6509.000000 0.500000 1.850461 92.425141 14.525142 3.724357
6510.993000 6511.000000 0.500000 1.848303 92.436511 14.559132 3.737319
6512.988000 6513.000000 0.500000 1.846203 92.453552 14.592449 3.749867
6515.001000 6515.000000 0.500000 1.844098 92.477769 14.627118 3.762749
6516.989000 6517.000000 0.500000 1.841904 92.498155 14.662368 3.774497
6518.988000 6519.000000 0.500000 1.839776 92.527358 14.698155 3.787501
6521.361000 6521.000000 0.500000 1.837597 92.576244 14.741967 3.802235
6523.082000 6523.000000 0.500000 1.835461 92.722288 14.793782 3.818283
6524.979000 6525.000000 0.500000 1.833167 92.745984 14.826601 3.828113
6526.982000 6527.000000 0.500000 1.831409 92.753039 14.857641 3.836974
6528.983000 6529.000000 0.500000 1.829357 92.783036 14.893070 3.845767
6529.085000 6529.100000 0.500000 1.829338 92.788483 14.894325 3.845937
6529.185000 6529.200000 0.500000 1.829214 92.785485 14.895688 3.846504
6529.289000 6529.300000 0.500000 1.829108 92.774849 14.895087 3.846244
6529.402000 6529.400000 0.500000 1.829000 92.772457 14.896892 3.846294
6529.531000 6529.500000 0.500000 1.828925 92.760028 14.896346 3.846017
6529.581000 6529.600000 0.500000 1.828801 92.755735 14.897025 3.846017
6529.682000 6529.700000 0.500000 1.828667 92.751523 14.898346 3.846050
6529.782000 6529.800000 0.500000 1.828707 92.741982 14.896244 3.845527
6529.885000 6529.900000 0.500000 1.828524 92.747407 14.899817 3.846469
6529.981000 6530.000000 0.500000 1.828394 92.740181 14.900545 3.846440
6530.084000 6530.100000 0.500000 1.828327 92.739181 14.901471 3.846065
6530.188000 6530.200000 0.500000 1.828261 92.734784 14.901755 3.846740
6530.286000 6530.300000 0.500000 1.828163 92.738555 14.903763 3.847174
6530.385000 6530.400000 0.500000 1.828028 92.729608 14.904365 3.847106
6530.485000 6530.500000 0.500000 1.827915 92.726134 14.905476 3.846928
6530.584000 6530.600000 0.500000 1.827840 92.744210 14.909458 3.847612
6530.686000 6530.700000 0.500000 1.827691 92.727840 14.909044 3.846640
6530.790000 6530.800000 0.500000 1.827612 92.734309 14.911314 3.847859
6530.886000 6530.900000 0.500000 1.827562 92.723904 14.910340 3.846863
6530.993000 6531.000000 0.500000 1.827435 92.717677 14.911315 3.847350
6531.110000 6531.100000 0.500000 1.827316 92.726537 14.914642 3.847896
6531.203000 6531.200000 0.500000 1.827274 92.735852 14.916683 3.848170
6531.293000 6531.300000 0.500000 1.827117 92.724561 14.917097 3.847559
6531.402000 6531.400000 0.500000 1.827039 92.718699 14.917394 3.847534
6531.492000 6531.500000 0.500000 1.826910 92.719907 14.919349 3.847340
6531.603000 6531.600000 0.500000 1.826831 92.715633 14.919961 3.847084
6531.702000 6531.700000 0.500000 1.826836 92.707314 14.918619 3.846653
6531.803000 6531.800000 0.500000 1.826703 92.708471 14.920740 3.847057
6531.903000 6531.900000 0.500000 1.826643 92.711928 14.922232 3.847124
6532.004000 6532.000000 0.500000 1.826585 92.716273 14.923864 3.846930
6532.099000 6532.100000 0.500000 1.826439 92.721351 14.926723 3.847243
6532.203000 6532.200000 0.500000 1.826354 92.719097 14.927627 3.846290
6532.305000 6532.300000 0.500000 1.826220 92.712968 14.928701 3.846297
6532.402000 6532.400000 0.500000 1.826144 92.708981 14.929163 3.846306
6532.506000 6532.500000 0.500000 1.826008 92.712304 14.931792 3.846189
6532.603000 6532.600000 0.500000 1.825985 92.719076 14.933178 3.845778
6532.702000 6532.700000 0.500000 1.825848 92.710827 14.933854 3.845330
6532.804000 6532.800000 0.500000 1.825803 92.706937 14.933972 3.845077
6532.905000 6532.900000 0.500000 1.825732 92.706556 14.934981 3.844636
6533.002000 6533.000000 0.500000 1.825551 92.705084 14.937410 3.844159
6533.100000 6533.100000 0.500000 1.825476 92.700483 14.937759 3.844441
6533.203000 6533.200000 0.500000 1.825400 92.711237 14.940642 3.843846
6533.300000 6533.300000 0.500000 1.825348 92.717595 14.942431 3.843573
6533.400000 6533.400000 0.500000 1.825332 92.720650 14.943251 3.843155
6533.501000 6533.500000 0.500000 1.825208 92.715699 14.944215 3.842371
6533.601000 6533.600000 0.500000 1.825138 92.714479 14.945090 3.841782
6533.702000 6533.700000 0.500000 1.824924 92.700564 14.946034 3.840357
6533.801000 6533.800000 0.500000 1.824928 92.705982 14.946933 3.840436
6533.898000 6533.900000 0.500000 1.824769 92.707292 14.949438 3.839246
6533.998000 6534.000000 0.500000 1.824701 92.711256 14.951094 3.838476
6534.101000 6534.100000 0.500000 1.824574 92.714438 14.953420 3.837599
6534.196000 6534.200000 0.500000 1.824595 92.715214 14.953315 3.836718
6534.296000 6534.300000 0.500000 1.824415 92.719283 14.956633 3.836379
6534.399000 6534.400000 0.500000 1.824418 92.720256 14.956766 3.834602
6534.494000 6534.500000 0.500000 1.824367 92.707868 14.955516 3.832906
6534.598000 6534.600000 0.500000 1.824261 92.710438 14.957435 3.831381
6534.699000 6534.700000 0.500000 1.824175 92.716041 14.959739 3.830333
6534.799000 6534.800000 0.500000 1.824051 92.702735 14.959361 3.828199
6534.898000 6534.900000 0.500000 1.823989 92.699787 14.959827 3.825878
6535.000000 6535.000000 0.500000 1.823929 92.712003 14.962728 3.824501
6535.101000 6535.100000 0.500000 1.823871 92.711404 14.963526 3.821713
6535.198000 6535.200000 0.500000 1.823795 92.699359 14.962685 3.819287
6535.301000 6535.300000 0.500000 1.823735 92.692028 14.962422 3.816010
6535.401000 6535.400000 0.500000 1.823673 92.692198 14.963393 3.812459
6535.500000 6535.500000 0.500000 1.823628 92.699366 14.965204 3.810019
6535.602000 6535.600000 0.500000 1.823582 92.694938 14.965187 3.806304
6535.703000 6535.700000 0.500000 1.823435 92.699778 14.968117 3.802202
6535.800000 6535.800000 0.500000 1.823414 92.690669 14.967029 3.798612
6535.902000 6535.900000 0.500000 1.823331 92.682821 14.966969 3.792233
6536.003000 6536.000000 0.500000 1.823295 92.700579 14.970413 3.787137
6536.102000 6536.100000 0.500000 1.823196 92.694875 14.970956 3.780761
6536.201000 6536.200000 0.500000 1.823135 92.695031 14.971893 3.773937
6536.303000 6536.300000 0.500000 1.823094 92.729547 14.978121 3.767016
6536.400000 6536.400000 0.500000 1.823033 92.794896 14.989588 3.761118
6536.501000 6536.500000 0.500000 1.822980 92.798232 14.990958 3.751468
6536.603000 6536.600000 0.500000 1.822987 92.794590 14.990259 3.738389
6536.702000 6536.700000 0.500000 1.822978 92.803934 14.991932 3.724443
6536.798000 6536.800000 0.500000 1.822809 92.811830 14.995607 3.710366
6536.902000 6536.900000 0.500000 1.822744 92.804255 14.995465 3.690497
6537.001000 6537.000000 0.500000 1.822750 92.801297 14.994905 3.668675
6537.096000 6537.100000 0.500000 1.822789 92.797793 14.993770 3.644463
6537.200000 6537.200000 0.500000 1.822803 92.796057 14.993237 3.617307
6537.299000 6537.300000 0.500000 1.822807 92.799093 14.993676 3.587586
6537.396000 6537.400000 0.500000 1.822741 92.794920 14.994001 3.556892
6537.497000 6537.500000 0.500000 1.822900 92.789825 14.990794 3.523112
6537.598000 6537.600000 0.500000 1.822825 92.772261 14.989057 3.488530
6537.695000 6537.700000 0.500000 1.822853 92.786543 14.990969 3.456736
6537.797000 6537.800000 0.500000 1.823013 92.786246 14.988527 3.422839
6537.898000 6537.900000 0.500000 1.823122 92.899198 15.005185 3.394549
6537.995000 6538.000000 0.500000 1.823288 92.907822 15.004165 3.366685
6538.097000 6538.100000 0.500000 1.823402 92.900967 15.001292 3.338810
6538.200000 6538.200000 0.500000 1.823597 92.895115 14.997387 3.312561
6538.295000 6538.300000 0.500000 1.823745 92.892081 14.994762 3.289533
6538.398000 6538.400000 0.500000 1.823935 92.908006 14.994466 3.268427
6538.500000 6538.500000 0.500000 1.824087 92.911573 14.992699 3.247954
6538.601000 6538.600000 0.500000 1.824355 92.905260 14.987701 3.229283
6538.700000 6538.700000 0.500000 1.824508 92.899122 14.984410 3.212565
6538.801000 6538.800000 0.500000 1.824571 92.902334 14.983977 3.196721
6538.901000 6538.900000 0.500000 1.824629 92.905598 14.983649 3.182894
6538.999000 6539.000000 0.500000 1.824550 92.899997 14.983914 3.169794
6539.105000 6539.100000 0.500000 1.824654 92.907922 14.983592 3.155807
6539.202000 6539.200000 0.500000 1.824688 92.902015 14.982200 3.144071
6539.303000 6539.300000 0.500000 1.824587 93.021435 15.002809 3.135834
6539.403000 6539.400000 0.500000 1.824522 93.018984 15.003410 3.124536
6539.500000 6539.500000 0.500000 1.824464 93.015694 15.003750 3.113941
6539.599000 6539.600000 0.500000 1.824338 93.008891 15.004509 3.104575
6539.704000 6539.700000 0.500000 1.824171 93.015751 15.008161 3.094374
6539.805000 6539.800000 0.500000 1.824037 93.020730 15.010984 3.085724
6539.902000 6539.900000 0.500000 1.823859 93.006420 15.011307 3.076521
6540.001000 6540.000000 0.500000 1.823589 93.008177 15.015639 3.068477
6540.101000 6540.100000 0.500000 1.823320 92.996433 15.017759 3.060789
6540.199000 6540.200000 0.500000 1.823115 93.016216 15.024045 3.053651
6540.299000 6540.300000 0.500000 1.822934 93.006537 15.025212 3.046360
6540.400000 6540.400000 0.500000 1.822781 92.985585 15.024150 3.038610
6540.499000 6540.500000 0.500000 1.822637 93.003423 15.029194 3.033468
6540.600000 6540.600000 0.500000 1.822555 93.004921 15.030664 3.028084
6540.701000 6540.700000 0.500000 1.822503 93.001092 15.030814 3.023012
6540.796000 6540.800000 0.500000 1.822475 93.013420 15.033178 3.019589
6540.895000 6540.900000 0.500000 1.822448 93.002305 15.031838 3.014734
6541.001000 6541.000000 0.500000 1.822435 93.004600 15.032409 3.011912
6541.099000 6541.100000 0.500000 1.822491 93.000465 15.030914 3.009182
6541.198000 6541.200000 0.500000 1.822462 93.000023 15.031259 3.008106
6541.298000 6541.300000 0.500000 1.822495 92.999773 15.030704 3.006970
6541.394000 6541.400000 0.500000 1.822626 92.995445 15.028094 3.005377
6541.498000 6541.500000 0.500000 1.822694 92.993898 15.026781 3.003811
6541.601000 6541.600000 0.500000 1.822829 92.983448 15.023058 3.002351
6541.698000 6541.700000 0.500000 1.822914 92.994809 15.023625 3.001831
6541.797000 6541.800000 0.500000 1.823070 92.992819 15.021000 2.999606
6541.901000 6541.900000 0.500000 1.823282 92.992701 15.017751 2.997802
6542.001000 6542.000000 0.500000 1.823418 92.983814 15.014308 2.994185
6542.098000 6542.100000 0.500000 1.823720 92.981614 15.009491 2.990695
6542.200000 6542.200000 0.500000 1.824034 92.988614 15.005809 2.986924
6542.301000 6542.300000 0.500000 1.824298 92.986837 15.001558 2.982149
6542.400000 6542.400000 0.500000 1.824665 92.981180 14.995304 2.976155
6542.503000 6542.500000 0.500000 1.825062 92.976098 14.988166 2.970804
6542.602000 6542.600000 0.500000 1.825544 92.965457 14.979435 2.962735
6542.699000 6542.700000 0.500000 1.826104 92.982523 14.974028 2.956303
6542.802000 6542.800000 0.500000 1.826772 92.970020 14.961781 2.948696
6542.905000 6542.900000 0.500000 1.827483 92.980020 14.952503 2.940198
6543.004000 6543.000000 0.500000 1.828440 92.975031 14.937503 2.931299
6543.104000 6543.100000 0.500000 1.829293 92.962975 14.922677 2.921658
6543.204000 6543.200000 0.500000 1.830324 92.963467 14.907455 2.912971
6543.301000 6543.300000 0.500000 1.831499 92.961106 14.889821 2.903413
6543.402000 6543.400000 0.500000 1.832785 92.965680 14.871249 2.893668
6543.503000 6543.500000 0.500000 1.834111 92.957118 14.850005 2.883555
6543.600000 6543.600000 0.500000 1.835523 92.956956 14.829483 2.874170
6543.699000 6543.700000 0.500000 1.836967 92.946367 14.806537 2.864333
6543.800000 6543.800000 0.500000 1.838710 92.954565 14.781424 2.853912
6543.901000 6543.900000 0.500000 1.840496 92.954931 14.755119 2.842723
6543.998000 6544.000000 0.500000 1.842267 92.954156 14.729029 2.832036
6544.101000 6544.100000 0.500000 1.844228 92.957510 14.700324 2.821727
6544.196000 6544.200000 0.500000 1.846185 92.948236 14.671300 2.809801
6544.297000 6544.300000 0.500000 1.848202 92.947544 14.641247 2.798823
6544.400000 6544.400000 0.500000 1.850122 92.946576 14.612213 2.787867
6544.501000 6544.500000 0.500000 1.852142 92.946218 14.582640 2.776361
6544.594000 6544.600000 0.500000 1.854155 92.937556 14.552964 2.764805
6544.699000 6544.700000 0.500000 1.856169 92.941755 14.523747 2.753298
6544.800000 6544.800000 0.500000 1.858128 92.938345 14.494461 2.741584
6544.895000 6544.900000 0.500000 1.860002 92.935772 14.467979 2.730463
6544.996000 6545.000000 0.500000 1.861935 92.939437 14.440001 2.718850
6545.099000 6545.100000 0.500000 1.863841 92.935937 14.411845 2.706547
6545.195000 6545.200000 0.500000 1.865788 92.923234 14.382873 2.695151
6545.297000 6545.300000 0.500000 1.867817 92.922315 14.353013 2.682666
6545.402000 6545.400000 0.500000 1.870024 92.925501 14.321810 2.670054
6545.499000 6545.500000 0.500000 1.872367 92.928082 14.288706 2.656734
6545.600000 6545.600000 0.500000 1.874725 92.920624 14.253662 2.643009
6545.701000 6545.700000 0.500000 1.877310 92.895685 14.212505 2.627604
6545.800000 6545.800000 0.500000 1.880209 92.910349 14.174437 2.613769
6545.899000 6545.900000 0.500000 1.883318 92.906484 14.130261 2.598290
6546.002000 6546.000000 0.500000 1.886755 92.905842 14.080651 2.580757
6546.103000 6546.100000 0.500000 1.890377 92.909964 14.030671 2.563899
6546.200000 6546.200000 0.500000 1.894303 92.892235 13.973463 2.546410
6546.303000 6546.300000 0.500000 1.898477 92.900820 13.915132 2.527181
6546.402000 6546.400000 0.500000 1.902911 92.905602 13.855295 2.508418
6546.500000 6546.500000 0.500000 1.907506 92.905056 13.792332 2.488905
6546.603000 6546.600000 0.500000 1.912479 92.910655 13.724109 2.468329
6546.705000 6546.700000 0.500000 1.917631 92.900371 13.651132 2.447395
6546.801000 6546.800000 0.500000 1.922757 92.887735 13.581823 2.426828
6546.902000 6546.900000 0.500000 1.928057 92.894392 13.509604 2.406799
6547.003000 6547.000000 0.500000 1.933664 92.894819 13.433454 2.384433
6547.099000 6547.100000 0.500000 1.938988 92.888782 13.363098 2.364449
6547.201000 6547.200000 0.500000 1.944547 92.881506 13.285805 2.342504
6547.302000 6547.300000 0.500000 1.950296 92.885808 13.210277 2.321346
6547.400000 6547.400000 0.500000 1.955997 92.891127 13.137886 2.301381
6547.499000 6547.500000 0.500000 1.961654 92.879255 13.061135 2.279531
6547.600000 6547.600000 0.500000 1.967523 92.890827 12.985132 2.258361
6547.696000 6547.700000 0.500000 1.973295 92.893248 12.913872 2.238553
6547.795000 6547.800000 0.500000 1.979034 92.893718 12.838612 2.217978
6547.899000 6547.900000 0.500000 1.985073 92.879613 12.758871 2.196034
6547.999000 6548.000000 0.500000 1.990811 92.873855 12.684099 2.175496
6548.096000 6548.100000 0.500000 1.996578 92.876532 12.612497 2.155503
6548.201000 6548.200000 0.500000 2.002345 92.881581 12.538272 2.134772
6548.296000 6548.300000 0.500000 2.008129 92.873270 12.467679 2.115190
6548.399000 6548.400000 0.500000 2.013607 92.874121 12.398534 2.095533
6548.500000 6548.500000 0.500000 2.019027 92.839207 12.327562 2.076399
6548.598000 6548.600000 0.500000 2.024228 92.866920 12.267495 2.058827
6548.699000 6548.700000 0.500000 2.028973 92.864529 12.209256 2.041388
6548.802000 6548.800000 0.500000 2.033241 92.859517 12.155598 2.024344
6548.903000 6548.900000 0.500000 2.037163 92.858877 12.108287 2.009782
6548.998000 6549.000000 0.500000 2.040584 92.843280 12.066040 1.996372
6549.101000 6549.100000 0.500000 2.043491 92.832307 12.028549 1.982987
6549.204000 6549.200000 0.500000 2.046003 92.847983 11.999935 1.971285
6549.301000 6549.300000 0.500000 2.047895 92.914274 11.986878 1.962674
6549.402000 6549.400000 0.500000 2.049317 92.928197 11.971226 1.953329
6549.505000 6549.500000 0.500000 2.050211 92.929925 11.960739 1.944415
6549.599000 6549.600000 0.500000 2.050756 92.925679 11.953855 1.937438
6549.700000 6549.700000 0.500000 2.050971 92.932920 11.952111 1.930618
6549.805000 6549.800000 0.500000 2.050955 92.929616 11.951920 1.924071
6549.901000 6549.900000 0.500000 2.050624 92.920729 11.954600 1.918331
6550.002000 6550.000000 0.500000 2.050049 92.903301 11.959320 1.913250
6550.105000 6550.100000 0.500000 2.049684 92.909164 11.964508 1.907240
6550.202000 6550.200000 0.500000 2.048901 92.916967 11.974672 1.903792
6550.301000 6550.300000 0.500000 2.048159 92.919165 11.983985 1.898773
6550.403000 6550.400000 0.500000 2.047238 92.890087 11.991417 1.894770
6550.500000 6550.500000 0.500000 2.046173 92.887837 12.003546 1.890855
6550.599000 6550.600000 0.500000 2.045052 92.884678 12.016636 1.887736
6550.704000 6550.700000 0.500000 2.043960 92.892577 12.031571 1.884446
6550.800000 6550.800000 0.500000 2.042582 92.879096 12.045612 1.881081
6550.897000 6550.900000 0.500000 2.041226 92.861808 12.059831 1.878343
6551.000000 6551.000000 0.500000 2.039729 93.001370 12.096437 1.879210
6551.098000 6551.100000 0.500000 2.037909 92.996225 12.117289 1.877291
6551.199000 6551.200000 0.500000 2.036234 92.975861 12.135389 1.874813
6551.296000 6551.300000 0.500000 2.034449 92.975523 12.156741 1.873340
6551.401000 6551.400000 0.500000 2.032637 92.981953 12.180148 1.871814
6551.493000 6551.500000 0.500000 2.030808 92.979923 12.200963 1.869648
6551.598000 6551.600000 0.500000 2.029219 92.969707 12.220014 1.867523
6551.697000 6551.700000 0.500000 2.027399 92.957618 12.240121 1.866324
6551.797000 6551.800000 0.500000 2.025768 92.961922 12.260887 1.864742
6551.896000 6551.900000 0.500000 2.024115 92.957294 12.280773 1.861991
6552.001000 6552.000000 0.500000 2.022486 92.959295 12.301169 1.860990
6552.095000 6552.100000 0.500000 2.021003 92.954157 12.317985 1.858692
6552.196000 6552.200000 0.500000 2.019677 92.940665 12.332800 1.855921
