# XDI/1.0 BlueSky/1.5.3
# Beamline.name: 6BM
# Beamline.xray_source: NSLS-II three-pole wiggler
# Beamline.collimation: paraboloid mirror, 5 nm Rh on 30 nm Pt
# Beamline.focusing: not in use
# Beamline.harmonic_rejection: flat mirror, Si stripe, pitch = 7.0 mrad relative to beam
# Detector.i0: 10 cm N2
# Detector.i1: 25 cm N2
# Detector.i2: 25 cm N2
# Element.symbol: Mn
# Element.edge: K
# Facility.name: NSLS-II
# Facility.energy: 3.0
# Facility.current: 400.5
# Facility.mode: top-off
# Facility.gup: 305081
# Facility.saf: 305123
# Mono.name: Si(111)
# Mono.d_spacing: 3.1353241
# Mono.encoder_resolution: 0.0000050 deg/ct
# Mono.angle_offset: 16.0581090 deg
# Mono.scan_mode: fixed exit
# Mono.scan_type: step
# Mono.direction: forward in energy
# Sample.name: Ca2(Mn2+,Mg)(Al,Mn3+,Fe)2(SiO4)(Si2O7)(OH)2.H2O]
# Sample.prep: Powder in polyethylene glycol pellet
# Sample.x_position: -120.140 mm
# Sample.y_position: 112.312 mm
# Scan.experimenters: Neil Hyatt, Martin Stennett, Lucy Mottram
# Scan.edge_energy: 6539.0
# Scan.start_time: 2019-11-11T15:38:23
# Scan.end_time: 2019-11-12T01:22:51
# Scan.transient_id: 17900
# Scan.uid: c5bfe02d-1571-4879-817d-13eefa1d3ad7
# Scan.plot_hint: ln(I0/It)  --  ln($5/$6)
# Scan.sequence: merge of 5 scans
# Column.1: energy eV
# Column.2: requested_energy eV
# Column.3: measurement_time seconds
# Column.4: mutrans
# Column.5: i0
# Column.6: itrans
# Column.7: irefer
# /////
#  Mineral
# -----
# energy   requested_energy   measurement_time   mutrans   i0   itrans   irefer
6338.996000 6339.000000 0.500000 2.566321 89.832484 6.900765 1.579230
6349.010000 6349.000000 0.500000 2.552373 89.995942 7.010365 1.616060
6359.012000 6359.000000 0.500000 2.538461 90.156472 7.121277 1.653097
6369.014000 6369.000000 0.500000 2.524560 90.325487 7.234446 1.690788
6379.021000 6379.000000 0.500000 2.510833 90.505378 7.349101 1.729494
6389.011000 6389.000000 0.500000 2.497135 90.678219 7.464614 1.768749
6399.012000 6399.000000 0.500000 2.483548 90.840211 7.580278 1.807940
6409.014000 6409.000000 0.500000 2.469939 90.986209 7.696504 1.848144
6419.009000 6419.000000 0.500000 2.456440 91.140333 7.814276 1.888572
6429.010000 6429.000000 0.500000 2.443135 91.289487 7.931902 1.930453
6439.009000 6439.000000 0.500000 2.429719 91.423830 8.050846 1.972342
6449.013000 6449.000000 0.500000 2.416623 91.410529 8.155840 2.010649
6459.009000 6459.000000 0.500000 2.403608 91.393334 8.261083 2.050039
6469.011000 6469.000000 0.500000 2.390564 91.822296 8.408856 2.099940
6479.006000 6479.000000 0.500000 2.377615 92.045670 8.539162 2.145657
6489.005000 6489.000000 0.500000 2.364720 92.223752 8.666715 2.191335
6499.004000 6499.000000 0.500000 2.352000 92.377833 8.792329 2.236443
6509.473000 6509.000000 0.500000 2.339516 92.568949 8.924775 2.283709
6510.993000 6511.000000 0.500000 2.337132 92.582368 8.943777 2.290263
6512.996000 6513.000000 0.500000 2.334696 92.595958 8.966949 2.298609
6514.982000 6515.000000 0.500000 2.332257 92.690528 8.997974 2.309127
6517.394000 6517.000000 0.500000 2.329815 92.723371 9.025238 2.318829
6519.472000 6519.000000 0.500000 2.327444 92.760455 9.052257 2.327177
6521.391000 6521.000000 0.500000 2.325183 92.788496 9.074628 2.334754
6522.985000 6523.000000 0.500000 2.322985 92.823304 9.094803 2.341450
6524.983000 6525.000000 0.500000 2.320664 92.859852 9.118858 2.348603
6526.982000 6527.000000 0.500000 2.318429 92.885808 9.142512 2.355439
6528.984000 6529.000000 0.500000 2.316334 92.912395 9.164314 2.360795
6529.085000 6529.100000 0.500000 2.316318 92.916400 9.164810 2.361254
6529.187000 6529.200000 0.500000 2.316183 92.922927 9.166773 2.360934
6529.284000 6529.300000 0.500000 2.316129 92.918272 9.166503 2.361213
6529.384000 6529.400000 0.500000 2.315947 92.921094 9.168748 2.361824
6529.486000 6529.500000 0.500000 2.315869 92.922364 9.169586 2.362039
6529.585000 6529.600000 0.500000 2.315808 92.941281 9.172049 2.362513
6529.685000 6529.700000 0.500000 2.315642 92.923474 9.171788 2.362188
6529.786000 6529.800000 0.500000 2.315581 92.935262 9.173494 2.362830
6529.888000 6529.900000 0.500000 2.315420 92.934978 9.174961 2.362505
6529.985000 6530.000000 0.500000 2.315348 92.927121 9.174832 2.362370
6530.085000 6530.100000 0.500000 2.315242 92.935200 9.176582 2.363048
6530.186000 6530.200000 0.500000 2.315203 92.932799 9.176714 2.363280
6530.286000 6530.300000 0.500000 2.315116 92.930418 9.177268 2.363344
6530.385000 6530.400000 0.500000 2.315016 92.934722 9.178599 2.363641
6530.487000 6530.500000 0.500000 2.314840 92.941292 9.180907 2.363928
6530.588000 6530.600000 0.500000 2.314712 92.934367 9.181367 2.363731
6530.685000 6530.700000 0.500000 2.314709 92.928272 9.180797 2.363550
6530.785000 6530.800000 0.500000 2.314588 92.929539 9.182000 2.363884
6530.889000 6530.900000 0.500000 2.314489 92.931117 9.183106 2.363605
6530.988000 6531.000000 0.500000 2.314421 92.939004 9.184492 2.364239
6531.087000 6531.100000 0.500000 2.314355 92.935555 9.184711 2.363469
6531.192000 6531.200000 0.500000 2.314280 92.933955 9.185337 2.363680
6531.286000 6531.300000 0.500000 2.314053 92.934841 9.187376 2.364158
6531.392000 6531.400000 0.500000 2.313956 92.946279 9.189472 2.364457
6531.496000 6531.500000 0.500000 2.313885 93.005236 9.195958 2.366232
6531.593000 6531.600000 0.500000 2.313791 93.008200 9.197047 2.366068
6531.693000 6531.700000 0.500000 2.313721 93.010746 9.197981 2.366033
6531.795000 6531.800000 0.500000 2.313657 93.004994 9.198072 2.365806
6531.894000 6531.900000 0.500000 2.313489 93.036740 9.202630 2.366792
6531.993000 6532.000000 0.500000 2.313464 93.064916 9.205682 2.367175
6532.099000 6532.100000 0.500000 2.313319 93.070343 9.207562 2.367419
6532.197000 6532.200000 0.500000 2.313280 93.074616 9.208356 2.367573
6532.294000 6532.300000 0.500000 2.313120 93.072486 9.209511 2.366716
6532.398000 6532.400000 0.500000 2.312992 93.080402 9.211545 2.367208
6532.497000 6532.500000 0.500000 2.312956 93.077204 9.211596 2.367166
6532.598000 6532.600000 0.500000 2.312820 93.078337 9.212945 2.367230
6532.698000 6532.700000 0.500000 2.312773 93.073827 9.212915 2.366300
6532.801000 6532.800000 0.500000 2.312726 93.069535 9.213004 2.366788
6532.896000 6532.900000 0.500000 2.312671 93.070042 9.213543 2.366231
6532.996000 6533.000000 0.500000 2.312647 93.074015 9.214125 2.366208
6533.097000 6533.100000 0.500000 2.312643 93.108308 9.217527 2.366261
6533.195000 6533.200000 0.500000 2.312437 93.141639 9.222670 2.367100
6533.298000 6533.300000 0.500000 2.312360 93.133536 9.222641 2.366767
6533.398000 6533.400000 0.500000 2.312245 93.127233 9.223065 2.366119
6533.497000 6533.500000 0.500000 2.312166 93.127160 9.223803 2.365541
6533.598000 6533.600000 0.500000 2.312052 93.139317 9.226049 2.365978
6533.695000 6533.700000 0.500000 2.312005 93.136788 9.226228 2.365349
6533.795000 6533.800000 0.500000 2.311940 93.141624 9.227315 2.364917
6533.892000 6533.900000 0.500000 2.311887 93.136929 9.227293 2.364547
6533.996000 6534.000000 0.500000 2.311862 93.142400 9.228128 2.363693
6534.093000 6534.100000 0.500000 2.311746 93.137257 9.228657 2.362886
6534.194000 6534.200000 0.500000 2.311686 93.137266 9.229222 2.362620
6534.298000 6534.300000 0.500000 2.311588 93.131747 9.229561 2.361381
6534.393000 6534.400000 0.500000 2.311506 93.136292 9.230730 2.361222
6534.496000 6534.500000 0.500000 2.311512 93.145818 9.231690 2.360564
6534.598000 6534.600000 0.500000 2.311412 93.138336 9.231858 2.359540
6534.697000 6534.700000 0.500000 2.311388 93.141597 9.232405 2.358059
6534.796000 6534.800000 0.500000 2.311376 93.127622 9.231117 2.356747
6534.900000 6534.900000 0.500000 2.311278 93.118763 9.231146 2.355087
6534.999000 6535.000000 0.500000 2.311249 93.128158 9.232340 2.354338
6535.098000 6535.100000 0.500000 2.311173 93.133195 9.233513 2.353280
6535.200000 6535.200000 0.500000 2.311107 93.126890 9.233541 2.351199
6535.301000 6535.300000 0.500000 2.311143 93.126181 9.233141 2.349675
6535.399000 6535.400000 0.500000 2.311102 93.125571 9.233440 2.347454
6535.500000 6535.500000 0.500000 2.311087 93.125863 9.233616 2.345073
6535.601000 6535.600000 0.500000 2.311049 93.118698 9.233262 2.342750
6535.698000 6535.700000 0.500000 2.311018 93.118352 9.233510 2.340577
6535.802000 6535.800000 0.500000 2.311012 93.118684 9.233604 2.337542
6535.901000 6535.900000 0.500000 2.310961 93.111069 9.233308 2.334185
6536.001000 6536.000000 0.500000 2.310998 93.111858 9.233062 2.330630
6536.102000 6536.100000 0.500000 2.311043 93.102078 9.231694 2.326127
6536.203000 6536.200000 0.500000 2.310966 93.108576 9.233020 2.322025
6536.300000 6536.300000 0.500000 2.311021 93.110755 9.232739 2.316616
6536.400000 6536.400000 0.500000 2.311105 93.099042 9.230810 2.310651
6536.503000 6536.500000 0.500000 2.311125 93.093373 9.230023 2.304144
6536.602000 6536.600000 0.500000 2.311189 93.095966 9.229709 2.297197
6536.699000 6536.700000 0.500000 2.311246 93.091103 9.228707 2.288200
6536.801000 6536.800000 0.500000 2.311320 93.091202 9.227993 2.277677
6536.898000 6536.900000 0.500000 2.311579 93.089656 9.225542 2.266314
6536.997000 6537.000000 0.500000 2.311687 93.090821 9.224635 2.252770
6537.100000 6537.100000 0.500000 2.311868 93.082450 9.222076 2.236685
6537.198000 6537.200000 0.500000 2.312160 93.084258 9.219598 2.219791
6537.296000 6537.300000 0.500000 2.312474 93.083590 9.216699 2.200972
6537.398000 6537.400000 0.500000 2.312837 93.092597 9.214081 2.180706
6537.497000 6537.500000 0.500000 2.313324 93.092090 9.209667 2.159622
6537.592000 6537.600000 0.500000 2.313877 93.089332 9.204554 2.138946
6537.698000 6537.700000 0.500000 2.314545 93.085400 9.197711 2.115540
6537.797000 6537.800000 0.500000 2.315368 93.076639 9.189285 2.093770
6537.898000 6537.900000 0.500000 2.316235 93.082311 9.181939 2.073947
6537.999000 6538.000000 0.500000 2.317008 93.079700 9.174493 2.053734
6538.101000 6538.100000 0.500000 2.318077 93.080283 9.164472 2.034968
6538.193000 6538.200000 0.500000 2.319106 93.077063 9.155429 2.019013
6538.299000 6538.300000 0.500000 2.319919 93.075927 9.147539 2.002764
6538.400000 6538.400000 0.500000 2.320772 93.094454 9.141464 1.988700
6538.499000 6538.500000 0.500000 2.321607 93.096203 9.134139 1.975674
6538.599000 6538.600000 0.500000 2.322214 93.088544 9.127845 1.963316
6538.702000 6538.700000 0.500000 2.322693 93.118748 9.126333 1.952831
6538.801000 6538.800000 0.500000 2.322992 93.126419 9.124456 1.943451
6538.900000 6538.900000 0.500000 2.323150 93.126296 9.122980 1.934237
6539.004000 6539.000000 0.500000 2.323258 93.123275 9.121685 1.925451
6539.101000 6539.100000 0.500000 2.323237 93.116911 9.121277 1.917689
6539.200000 6539.200000 0.500000 2.322971 93.122020 9.124138 1.911366
6539.304000 6539.300000 0.500000 2.322643 93.192484 9.134161 1.905716
6539.403000 6539.400000 0.500000 2.322353 93.193598 9.136909 1.899723
6539.502000 6539.500000 0.500000 2.321721 93.189094 9.142147 1.893899
6539.603000 6539.600000 0.500000 2.321295 93.182535 9.145507 1.888196
6539.704000 6539.700000 0.500000 2.320862 93.188841 9.150147 1.883210
6539.799000 6539.800000 0.500000 2.320443 93.191945 9.154115 1.878787
6539.900000 6539.900000 0.500000 2.319987 93.188052 9.157930 1.873673
6540.001000 6540.000000 0.500000 2.319596 93.189303 9.161703 1.868731
6540.100000 6540.100000 0.500000 2.319422 93.188500 9.163194 1.864072
6540.199000 6540.200000 0.500000 2.319267 93.191495 9.164914 1.859100
6540.301000 6540.300000 0.500000 2.319216 93.188171 9.165076 1.854207
6540.398000 6540.400000 0.500000 2.319158 93.190924 9.165863 1.850579
6540.499000 6540.500000 0.500000 2.319048 93.194071 9.167183 1.846232
6540.600000 6540.600000 0.500000 2.319049 93.185854 9.166358 1.843094
6540.697000 6540.700000 0.500000 2.319063 93.182746 9.165943 1.840331
6540.796000 6540.800000 0.500000 2.319021 93.185878 9.166606 1.837471
6540.901000 6540.900000 0.500000 2.319003 93.186372 9.166874 1.835393
6540.998000 6541.000000 0.500000 2.318906 93.194265 9.168511 1.834181
6541.097000 6541.100000 0.500000 2.318843 93.200222 9.169665 1.832859
6541.201000 6541.200000 0.500000 2.318678 93.199296 9.171144 1.831791
6541.295000 6541.300000 0.500000 2.318496 93.197366 9.172535 1.831467
6541.396000 6541.400000 0.500000 2.318334 93.200371 9.174329 1.831268
6541.500000 6541.500000 0.500000 2.318164 93.200589 9.175970 1.830966
6541.599000 6541.600000 0.500000 2.318013 93.205076 9.177771 1.830726
6541.698000 6541.700000 0.500000 2.317796 93.202115 9.179448 1.830898
6541.801000 6541.800000 0.500000 2.317667 93.199226 9.180385 1.830192
6541.900000 6541.900000 0.500000 2.317525 93.198098 9.181570 1.829271
6542.001000 6542.000000 0.500000 2.317466 93.197386 9.182038 1.828185
6542.103000 6542.100000 0.500000 2.317448 93.205078 9.182932 1.826653
6542.200000 6542.200000 0.500000 2.317498 93.198210 9.181829 1.824075
6542.299000 6542.300000 0.500000 2.317569 93.196739 9.181039 1.822152
6542.404000 6542.400000 0.500000 2.317696 93.197195 9.179866 1.819088
6542.501000 6542.500000 0.500000 2.317877 93.197703 9.178329 1.815806
6542.598000 6542.600000 0.500000 2.318087 93.202743 9.176949 1.812020
6542.703000 6542.700000 0.500000 2.318387 93.198155 9.173644 1.808098
6542.804000 6542.800000 0.500000 2.318713 93.191185 9.169943 1.803846
6542.901000 6542.900000 0.500000 2.319013 93.195421 9.167695 1.799439
6543.002000 6543.000000 0.500000 2.319418 93.197294 9.164153 1.795393
6543.103000 6543.100000 0.500000 2.319837 93.197642 9.160252 1.790579
6543.202000 6543.200000 0.500000 2.320281 93.188102 9.155376 1.785917
6543.301000 6543.300000 0.500000 2.320806 93.191167 9.150923 1.781691
6543.400000 6543.400000 0.500000 2.321282 93.196657 9.147054 1.776926
6543.503000 6543.500000 0.500000 2.321862 93.199086 9.141872 1.772231
6543.598000 6543.600000 0.500000 2.322414 93.197830 9.136904 1.767823
6543.701000 6543.700000 0.500000 2.323047 93.194166 9.130560 1.763297
6543.800000 6543.800000 0.500000 2.323791 93.194384 9.123881 1.758317
6543.895000 6543.900000 0.500000 2.324556 93.189806 9.116620 1.753631
6544.002000 6544.000000 0.500000 2.325438 93.188895 9.108002 1.748480
6544.097000 6544.100000 0.500000 2.326384 93.185903 9.099556 1.743017
6544.196000 6544.200000 0.500000 2.327382 93.185152 9.090534 1.738665
6544.295000 6544.300000 0.500000 2.328522 93.177221 9.079224 1.732378
6544.398000 6544.400000 0.500000 2.329790 93.175582 9.067469 1.727053
6544.495000 6544.500000 0.500000 2.331124 93.246156 9.062573 1.722614
6544.598000 6544.600000 0.500000 2.332668 93.244340 9.047854 1.716221
6544.699000 6544.700000 0.500000 2.334252 93.243651 9.033364 1.709886
6544.796000 6544.800000 0.500000 2.336173 93.241715 9.016509 1.702497
6544.897000 6544.900000 0.500000 2.337995 93.235409 8.999025 1.695634
6545.000000 6545.000000 0.500000 2.340095 93.301839 8.986038 1.688870
6545.094000 6545.100000 0.500000 2.342375 93.310715 8.967962 1.681744
6545.196000 6545.200000 0.500000 2.344764 93.305380 8.945878 1.673405
6545.301000 6545.300000 0.500000 2.347371 93.302395 8.921218 1.664233
6545.400000 6545.400000 0.500000 2.350230 93.304131 8.896223 1.655748
6545.499000 6545.500000 0.500000 2.353170 93.301948 8.870212 1.646354
6545.602000 6545.600000 0.500000 2.356346 93.295421 8.840684 1.636692
6545.699000 6545.700000 0.500000 2.359716 93.292209 8.811584 1.627129
6545.800000 6545.800000 0.500000 2.363422 93.289969 8.778964 1.616052
6545.903000 6545.900000 0.500000 2.367222 93.285818 8.744197 1.605162
6546.004000 6546.000000 0.500000 2.371367 93.296745 8.708797 1.593709
6546.101000 6546.100000 0.500000 2.375789 93.362896 8.677461 1.583410
6546.202000 6546.200000 0.500000 2.380404 93.358349 8.636359 1.570705
6546.300000 6546.300000 0.500000 2.385490 93.356026 8.593364 1.558288
6546.401000 6546.400000 0.500000 2.390768 93.352890 8.548227 1.545488
6546.502000 6546.500000 0.500000 2.396339 93.348684 8.499277 1.531522
6546.604000 6546.600000 0.500000 2.402277 93.345144 8.448008 1.517237
6546.704000 6546.700000 0.500000 2.408494 93.353422 8.397009 1.503166
6546.801000 6546.800000 0.500000 2.414778 93.349913 8.344832 1.488901
6546.904000 6546.900000 0.500000 2.421273 93.345205 8.288448 1.473971
6547.001000 6547.000000 0.500000 2.427950 93.339468 8.233534 1.459384
6547.099000 6547.100000 0.500000 2.434694 93.339088 8.179273 1.445435
6547.201000 6547.200000 0.500000 2.441591 93.339053 8.121917 1.430270
6547.301000 6547.300000 0.500000 2.448671 93.334380 8.064559 1.415351
6547.400000 6547.400000 0.500000 2.455591 93.332419 8.008561 1.400863
6547.501000 6547.500000 0.500000 2.462661 93.326350 7.950749 1.386127
6547.600000 6547.600000 0.500000 2.469732 93.320566 7.894873 1.371464
6547.697000 6547.700000 0.500000 2.476763 93.316620 7.840679 1.357655
6547.798000 6547.800000 0.500000 2.483801 93.319146 7.785129 1.343336
6547.899000 6547.900000 0.500000 2.490825 93.311932 7.729404 1.329028
6547.997000 6548.000000 0.500000 2.497691 93.310835 7.678010 1.315545
6548.096000 6548.100000 0.500000 2.504200 93.311264 7.627290 1.302172
6548.197000 6548.200000 0.500000 2.510854 93.312117 7.576778 1.288806
6548.295000 6548.300000 0.500000 2.517230 93.306864 7.530086 1.276029
6548.399000 6548.400000 0.500000 2.523308 93.303813 7.481906 1.263351
6548.502000 6548.500000 0.500000 2.529245 93.301617 7.437061 1.250423
6548.599000 6548.600000 0.500000 2.534800 93.295611 7.396829 1.239882
6548.697000 6548.700000 0.500000 2.540093 93.292437 7.357525 1.228959
6548.802000 6548.800000 0.500000 2.544990 93.283410 7.319702 1.217964
6548.897000 6548.900000 0.500000 2.549670 93.285629 7.287392 1.208628
6548.998000 6549.000000 0.500000 2.554241 93.283577 7.253249 1.198631
6549.103000 6549.100000 0.500000 2.558503 93.284846 7.221347 1.189129
6549.200000 6549.200000 0.500000 2.562905 93.276688 7.190136 1.180172
6549.300000 6549.300000 0.500000 2.567123 93.274535 7.159508 1.170918
6549.402000 6549.400000 0.500000 2.571546 93.277759 7.128231 1.162061
6549.502000 6549.500000 0.500000 2.575919 93.279763 7.097225 1.152850
6549.601000 6549.600000 0.500000 2.580523 93.272201 7.064623 1.143833
6549.704000 6549.700000 0.500000 2.585319 93.268725 7.029374 1.134233
6549.801000 6549.800000 0.500000 2.590411 93.270776 6.994944 1.125242
6549.901000 6549.900000 0.500000 2.595493 93.268842 6.959152 1.115903
6550.005000 6550.000000 0.500000 2.600902 93.270648 6.920258 1.105980
6550.103000 6550.100000 0.500000 2.606492 93.268034 6.882472 1.096290
6550.202000 6550.200000 0.500000 2.612379 93.261275 6.841756 1.086815
6550.305000 6550.300000 0.500000 2.618168 93.256220 6.800226 1.076749
6550.403000 6550.400000 0.500000 2.624044 93.260232 6.761522 1.067475
6550.500000 6550.500000 0.500000 2.630024 93.251979 6.721431 1.058019
6550.601000 6550.600000 0.500000 2.636044 93.259419 6.680908 1.048769
6550.704000 6550.700000 0.500000 2.642050 93.251063 6.639497 1.039304
6550.798000 6550.800000 0.500000 2.648412 93.249810 6.599523 1.030058
6550.899000 6550.900000 0.500000 2.654412 93.249778 6.559015 1.020902
6550.998000 6551.000000 0.500000 2.660795 93.245318 6.516969 1.011701
6551.100000 6551.100000 0.500000 2.667283 93.232166 6.473972 1.001982
6551.197000 6551.200000 0.500000 2.673989 93.237602 6.431184 0.993154
6551.300000 6551.300000 0.500000 2.680946 93.235029 6.385338 0.983356
6551.398000 6551.400000 0.500000 2.688031 93.235432 6.341461 0.973697
6551.497000 6551.500000 0.500000 2.695318 93.235575 6.296064 0.964393
6551.600000 6551.600000 0.500000 2.702797 93.278451 6.250382 0.954935
6551.699000 6551.700000 0.500000 2.710461 93.279950 6.203516 0.944950
6551.798000 6551.800000 0.500000 2.718003 93.276305 6.157042 0.935600
6551.900000 6551.900000 0.500000 2.725570 93.265808 6.108348 0.925790
6551.995000 6552.000000 0.500000 2.733409 93.272409 6.063781 0.916823
6552.095000 6552.100000 0.500000 2.741117 93.267172 6.017517 0.907614
6552.201000 6552.200000 0.500000 2.748546 93.263807 5.970585 0.898327
6552.301000 6552.300000 0.500000 2.755748 93.327173 5.931826 0.890104
6552.400000 6552.400000 0.500000 2.762569 93.328380 5.892276 0.882256
6552.503000 6552.500000 0.500000 2.769161 93.327137 5.852292 0.874250
