# XDI/1.0 BlueSky/1.5.3
# Beamline.name: 6BM
# Beamline.xray_source: NSLS-II three-pole wiggler
# Beamline.collimation: paraboloid mirror, 5 nm Rh on 30 nm Pt
# Beamline.focusing: not in use
# Beamline.harmonic_rejection: flat mirror, Si stripe, pitch = 7.0 mrad relative to beam
# Detector.i0: 10 cm N2
# Detector.i1: 25 cm N2
# Detector.i2: 25 cm N2
# Element.symbol: Mn
# Element.edge: K
# Facility.name: NSLS-II
# Facility.energy: 3.0
# Facility.current: 400.2
# Facility.mode: top-off
# Facility.gup: 305081
# Facility.saf: 305123
# Mono.name: Si(111)
# Mono.d_spacing: 3.1353241
# Mono.encoder_resolution: 0.0000050 deg/ct
# Mono.angle_offset: 16.0581090 deg
# Mono.scan_mode: fixed exit
# Mono.scan_type: step
# Mono.direction: forward in energy
# Sample.name: MnO(OH)
# Sample.prep: Powder in polyethylene glycol pellet
# Sample.x_position: -120.140 mm
# Sample.y_position: 112.312 mm
# Scan.experimenters: Neil Hyatt, Martin Stennett, Lucy Mottram
# Scan.edge_energy: 6539.0
# Scan.start_time: 2019-11-11T16:55:52
# Scan.end_time: 2019-11-12T02:40:17
# Scan.transient_id: 17904
# Scan.uid: c2dde32e-a877-4e3c-8eec-01e8f3f7e6ed
# Scan.plot_hint: ln(I0/It)  --  ln($5/$6)
# Scan.sequence: merge of 3 scans
# Column.1: energy eV
# Column.2: requested_energy eV
# Column.3: measurement_time seconds
# Column.4: mutrans
# Column.5: i0
# Column.6: itrans
# Column.7: irefer
# /////
#  Ilfeld, Harz, Germany
# -----
# energy   requested_energy   measurement_time   mutrans   i0   itrans   irefer
6338.998000 6339.000000 0.500000 1.937481 89.688518 12.921184 2.961959
6349.015000 6349.000000 0.500000 1.925770 89.854684 13.097680 3.023713
6359.013000 6359.000000 0.500000 1.914026 90.028095 13.277894 3.086592
6369.016000 6369.000000 0.500000 1.902388 90.294317 13.472976 3.153227
6379.016000 6379.000000 0.500000 1.890785 90.461972 13.655604 3.218445
6389.013000 6389.000000 0.500000 1.879325 90.624157 13.837700 3.283629
6399.012000 6399.000000 0.500000 1.867809 90.783785 14.022623 3.350340
6409.013000 6409.000000 0.500000 1.856537 90.926709 14.203946 3.416654
6419.012000 6419.000000 0.500000 1.845167 91.071163 14.389156 3.483686
6429.011000 6429.000000 0.500000 1.833943 91.208881 14.573582 3.551863
6439.009000 6439.000000 0.500000 1.822863 91.330249 14.755505 3.620128
6449.013000 6449.000000 0.500000 1.811980 91.304904 14.912865 3.682154
6459.011000 6459.000000 0.500000 1.801024 91.285250 15.073881 3.746880
6469.010000 6469.000000 0.500000 1.790065 91.707525 15.310486 3.829314
6479.008000 6479.000000 0.500000 1.779468 91.850566 15.497753 3.900503
6489.007000 6489.000000 0.500000 1.768828 92.009899 15.690646 3.973520
6499.003000 6499.000000 0.500000 1.758576 92.172916 15.880378 4.046264
6509.562000 6509.000000 0.500000 1.748678 92.284938 16.063195 4.116193
6510.988000 6511.000000 0.500000 1.746848 92.355630 16.099515 4.128989
6512.988000 6513.000000 0.500000 1.745039 92.364178 16.130224 4.141950
6514.992000 6515.000000 0.500000 1.743249 92.399550 16.165322 4.154827
6516.985000 6517.000000 0.500000 1.741536 92.420769 16.196698 4.166759
6518.988000 6519.000000 0.500000 1.739817 92.437869 16.227556 4.178072
6521.044000 6521.000000 0.500000 1.738173 92.498744 16.265436 4.191321
6523.248000 6523.000000 0.500000 1.736612 92.532806 16.298264 4.203020
6524.979000 6525.000000 0.500000 1.735307 92.545788 16.319938 4.210195
6526.986000 6527.000000 0.500000 1.734069 92.576381 16.345561 4.217900
6528.981000 6529.000000 0.500000 1.733062 92.610966 16.368152 4.222991
6529.085000 6529.100000 0.500000 1.733074 92.596322 16.365273 4.222549
6529.185000 6529.200000 0.500000 1.733054 92.604423 16.367168 4.223229
6529.287000 6529.300000 0.500000 1.732998 92.579714 16.363742 4.222140
6529.395000 6529.400000 0.500000 1.732987 92.600486 16.367643 4.222983
6529.504000 6529.500000 0.500000 1.732908 92.583559 16.365805 4.221370
6529.619000 6529.600000 0.500000 1.732912 92.590509 16.367136 4.222190
6529.682000 6529.700000 0.500000 1.732889 92.589202 16.367143 4.222195
6529.782000 6529.800000 0.500000 1.732796 92.604046 16.371280 4.223085
6529.881000 6529.900000 0.500000 1.732712 92.683315 16.386532 4.227100
6529.981000 6530.000000 0.500000 1.732713 92.675709 16.385280 4.226371
6530.085000 6530.100000 0.500000 1.732655 92.664021 16.384169 4.226535
6530.182000 6530.200000 0.500000 1.732688 92.670666 16.384746 4.226082
6530.286000 6530.300000 0.500000 1.732630 92.690400 16.389245 4.226757
6530.387000 6530.400000 0.500000 1.732536 92.683383 16.389511 4.226546
6530.487000 6530.500000 0.500000 1.732607 92.680451 16.387852 4.226010
6530.586000 6530.600000 0.500000 1.732530 92.667898 16.386865 4.225226
6530.690000 6530.700000 0.500000 1.732569 92.678412 16.388108 4.226198
6530.790000 6530.800000 0.500000 1.732555 92.692746 16.390866 4.226223
6530.912000 6530.900000 0.500000 1.732561 92.696229 16.391537 4.225906
6531.004000 6531.000000 0.500000 1.732506 92.684749 16.390200 4.225719
6531.095000 6531.100000 0.500000 1.732563 92.676872 16.388000 4.224810
6531.189000 6531.200000 0.500000 1.732443 92.685928 16.391495 4.225420
6531.300000 6531.300000 0.500000 1.732512 92.676695 16.388834 4.224441
6531.397000 6531.400000 0.500000 1.732441 92.664788 16.387763 4.223932
6531.499000 6531.500000 0.500000 1.732459 92.661298 16.386887 4.223490
6531.602000 6531.600000 0.500000 1.732493 92.669421 16.387809 4.222297
6531.702000 6531.700000 0.500000 1.732446 92.686898 16.391566 4.223166
6531.799000 6531.800000 0.500000 1.732512 92.669492 16.387508 4.221987
6531.903000 6531.900000 0.500000 1.732381 92.672882 16.390300 4.222462
6532.002000 6532.000000 0.500000 1.732344 92.670187 16.390356 4.222321
6532.099000 6532.100000 0.500000 1.732357 92.670164 16.390137 4.221399
6532.206000 6532.200000 0.500000 1.732430 92.683860 16.391408 4.220774
6532.301000 6532.300000 0.500000 1.732379 92.669666 16.389688 4.219658
6532.402000 6532.400000 0.500000 1.732392 92.664409 16.388522 4.218928
6532.504000 6532.500000 0.500000 1.732431 92.659529 16.386983 4.218609
6532.603000 6532.600000 0.500000 1.732499 92.672650 16.388306 4.217802
6532.700000 6532.700000 0.500000 1.732376 92.680511 16.391658 4.217853
6532.806000 6532.800000 0.500000 1.732330 92.673216 16.391057 4.217080
6532.903000 6532.900000 0.500000 1.732440 92.667863 16.388321 4.215995
6533.003000 6533.000000 0.500000 1.732497 92.668039 16.387430 4.214884
6533.100000 6533.100000 0.500000 1.732531 92.666332 16.386640 4.214456
6533.201000 6533.200000 0.500000 1.732487 92.656388 16.385522 4.212708
6533.300000 6533.300000 0.500000 1.732539 92.661441 16.385605 4.211756
6533.400000 6533.400000 0.500000 1.732636 92.666489 16.384895 4.210586
6533.503000 6533.500000 0.500000 1.732636 92.661463 16.383975 4.208933
6533.601000 6533.600000 0.500000 1.732660 92.659721 16.383289 4.208170
6533.698000 6533.700000 0.500000 1.732700 92.665171 16.383614 4.207084
6533.801000 6533.800000 0.500000 1.732818 92.674337 16.383316 4.206445
6533.894000 6533.900000 0.500000 1.732757 92.676042 16.384624 4.205172
6533.998000 6534.000000 0.500000 1.732825 92.673656 16.383098 4.203464
6534.101000 6534.100000 0.500000 1.732867 92.661422 16.380225 4.201135
6534.198000 6534.200000 0.500000 1.732951 92.649559 16.376722 4.199010
6534.296000 6534.300000 0.500000 1.733049 92.646345 16.374581 4.197009
6534.401000 6534.400000 0.500000 1.733173 92.657085 16.374493 4.195610
6534.496000 6534.500000 0.500000 1.733175 92.662353 16.375318 4.193136
6534.596000 6534.600000 0.500000 1.733290 92.655181 16.372246 4.191022
6534.699000 6534.700000 0.500000 1.733406 92.645267 16.368612 4.188008
6534.801000 6534.800000 0.500000 1.733412 92.633252 16.366258 4.184536
6534.898000 6534.900000 0.500000 1.733579 92.628944 16.362850 4.181930
6535.000000 6535.000000 0.500000 1.733659 92.627878 16.361329 4.178943
6535.099000 6535.100000 0.500000 1.733829 92.644201 16.361493 4.176641
6535.200000 6535.200000 0.500000 1.733901 92.637054 16.359027 4.172654
6535.301000 6535.300000 0.500000 1.734094 92.633921 16.355306 4.168742
6535.401000 6535.400000 0.500000 1.734237 92.627744 16.351921 4.164377
6535.500000 6535.500000 0.500000 1.734308 92.647917 16.354264 4.161224
6535.602000 6535.600000 0.500000 1.734517 92.642834 16.349942 4.155095
6535.701000 6535.700000 0.500000 1.734777 92.623483 16.342369 4.149306
6535.800000 6535.800000 0.500000 1.734970 92.619454 16.338516 4.143596
6535.901000 6535.900000 0.500000 1.735155 92.628147 16.336935 4.137200
6536.003000 6536.000000 0.500000 1.735314 92.657587 16.339549 4.131001
6536.102000 6536.100000 0.500000 1.735649 92.730550 16.346991 4.126253
6536.204000 6536.200000 0.500000 1.735899 92.723191 16.341562 4.117020
6536.303000 6536.300000 0.500000 1.736234 92.711273 16.333979 4.106030
6536.404000 6536.400000 0.500000 1.736515 92.706268 16.328500 4.094575
6536.503000 6536.500000 0.500000 1.736916 92.707625 16.322139 4.081556
6536.602000 6536.600000 0.500000 1.737396 92.719494 16.316453 4.067575
6536.700000 6536.700000 0.500000 1.737859 92.706392 16.306678 4.050391
6536.799000 6536.800000 0.500000 1.738343 92.693095 16.296596 4.030045
6536.900000 6536.900000 0.500000 1.738922 92.697205 16.287644 4.007314
6536.999000 6537.000000 0.500000 1.739592 92.690839 16.275933 3.981634
6537.098000 6537.100000 0.500000 1.740360 92.682938 16.261888 3.951562
6537.200000 6537.200000 0.500000 1.741267 92.679342 16.246052 3.917666
6537.297000 6537.300000 0.500000 1.742371 92.842297 16.257432 3.890391
6537.394000 6537.400000 0.500000 1.743479 92.836592 16.238728 3.852062
6537.499000 6537.500000 0.500000 1.744998 92.835220 16.213096 3.808523
6537.598000 6537.600000 0.500000 1.746725 92.818878 16.182511 3.765455
6537.695000 6537.700000 0.500000 1.748606 92.803962 16.149749 3.722605
6537.801000 6537.800000 0.500000 1.750983 92.814044 16.112021 3.678246
6537.900000 6537.900000 0.500000 1.753565 92.810726 16.070409 3.636150
6537.999000 6538.000000 0.500000 1.756534 92.800353 16.021285 3.594282
6538.096000 6538.100000 0.500000 1.759633 92.805718 15.972457 3.554987
6538.200000 6538.200000 0.500000 1.763197 92.788271 15.912252 3.514545
6538.292000 6538.300000 0.500000 1.766630 92.785383 15.860049 3.480657
6538.400000 6538.400000 0.500000 1.770208 92.784870 15.800363 3.444249
6538.502000 6538.500000 0.500000 1.773763 92.784410 15.744840 3.411716
6538.599000 6538.600000 0.500000 1.776736 92.787919 15.699116 3.383268
6538.700000 6538.700000 0.500000 1.779452 92.784499 15.655924 3.356800
6538.801000 6538.800000 0.500000 1.781707 92.780833 15.619926 3.333377
6538.900000 6538.900000 0.500000 1.783314 92.771533 15.593440 3.313309
6538.997000 6539.000000 0.500000 1.784340 92.762978 15.576058 3.295586
6539.105000 6539.100000 0.500000 1.784718 92.755481 15.568585 3.279822
6539.200000 6539.200000 0.500000 1.784711 92.763704 15.570034 3.268081
6539.303000 6539.300000 0.500000 1.784220 92.759381 15.577103 3.256831
6539.405000 6539.400000 0.500000 1.783543 92.750713 15.586206 3.246651
6539.502000 6539.500000 0.500000 1.782698 92.745318 15.598317 3.238396
6539.603000 6539.600000 0.500000 1.781795 92.748016 15.613066 3.230930
6539.706000 6539.700000 0.500000 1.780903 92.753362 15.627900 3.222850
6539.805000 6539.800000 0.500000 1.780080 92.740950 15.638566 3.214533
6539.902000 6539.900000 0.500000 1.779531 92.734980 15.645948 3.207021
6540.001000 6540.000000 0.500000 1.779178 92.738175 15.652177 3.198907
6540.103000 6540.100000 0.500000 1.778986 92.734844 15.654597 3.191121
6540.199000 6540.200000 0.500000 1.779013 92.732671 15.653776 3.182660
6540.301000 6540.300000 0.500000 1.779465 92.730895 15.646250 3.173193
6540.402000 6540.400000 0.500000 1.780179 92.719271 15.633181 3.162774
6540.499000 6540.500000 0.500000 1.781109 92.708598 15.616961 3.152594
6540.598000 6540.600000 0.500000 1.782362 92.717039 15.598959 3.143714
6540.699000 6540.700000 0.500000 1.783824 92.714493 15.575546 3.133162
6540.794000 6540.800000 0.500000 1.785584 92.717331 15.549599 3.123269
6540.897000 6540.900000 0.500000 1.787440 92.713017 15.518957 3.113104
6541.001000 6541.000000 0.500000 1.789449 92.705394 15.486437 3.103834
6541.099000 6541.100000 0.500000 1.791255 92.705546 15.458724 3.096225
6541.198000 6541.200000 0.500000 1.793010 92.702463 15.430948 3.088840
6541.300000 6541.300000 0.500000 1.794554 92.686415 15.404552 3.082133
6541.396000 6541.400000 0.500000 1.795732 92.694569 15.388231 3.078817
6541.498000 6541.500000 0.500000 1.796915 92.699404 15.370480 3.074161
6541.601000 6541.600000 0.500000 1.797680 92.689299 15.356960 3.070139
6541.698000 6541.700000 0.500000 1.798178 92.693213 15.350276 3.067583
6541.799000 6541.800000 0.500000 1.798727 92.682785 15.340050 3.064391
6541.900000 6541.900000 0.500000 1.799107 92.671220 15.332198 3.061172
6542.002000 6542.000000 0.500000 1.799443 92.687322 15.329713 3.058594
6542.101000 6542.100000 0.500000 1.799774 92.678583 15.323196 3.054404
6542.204000 6542.200000 0.500000 1.800210 92.708833 15.321474 3.051087
6542.299000 6542.300000 0.500000 1.800474 92.789175 15.330756 3.048846
6542.402000 6542.400000 0.500000 1.800834 92.793755 15.325903 3.042993
6542.501000 6542.500000 0.500000 1.801296 92.800204 15.319878 3.036857
6542.602000 6542.600000 0.500000 1.801639 92.792017 15.313290 3.030896
6542.703000 6542.700000 0.500000 1.802215 92.793694 15.304690 3.023156
6542.804000 6542.800000 0.500000 1.802782 92.795838 15.296351 3.015394
6542.903000 6542.900000 0.500000 1.803397 92.774992 15.283637 3.006346
6543.000000 6543.000000 0.500000 1.804058 92.777826 15.274248 2.998748
6543.103000 6543.100000 0.500000 1.804884 92.784747 15.262322 2.989918
6543.202000 6543.200000 0.500000 1.805645 92.788105 15.251539 2.981175
6543.301000 6543.300000 0.500000 1.806604 92.784958 15.236531 2.972701
6543.402000 6543.400000 0.500000 1.807554 92.780044 15.220918 2.962678
6543.503000 6543.500000 0.500000 1.808640 92.765450 15.201969 2.953073
6543.602000 6543.600000 0.500000 1.809800 92.767820 15.184847 2.944794
6543.701000 6543.700000 0.500000 1.811051 92.779754 15.167673 2.935756
6543.800000 6543.800000 0.500000 1.812359 92.781754 15.148156 2.926088
6543.901000 6543.900000 0.500000 1.813794 92.773986 15.125030 2.915316
6544.000000 6544.000000 0.500000 1.815315 92.767854 15.101181 2.904857
6544.102000 6544.100000 0.500000 1.816924 92.768599 15.076536 2.895109
6544.200000 6544.200000 0.500000 1.818590 92.774524 15.052883 2.884942
6544.295000 6544.300000 0.500000 1.820280 92.771726 15.027720 2.874244
6544.400000 6544.400000 0.500000 1.822177 92.759571 14.995931 2.862965
6544.497000 6544.500000 0.500000 1.824162 92.766914 14.968370 2.851469
6544.594000 6544.600000 0.500000 1.826288 92.775408 14.938195 2.839553
6544.699000 6544.700000 0.500000 1.828599 92.766342 14.901360 2.826481
6544.800000 6544.800000 0.500000 1.831025 92.772850 14.866238 2.813121
6544.897000 6544.900000 0.500000 1.833598 92.765883 14.827449 2.799653
6544.998000 6545.000000 0.500000 1.836368 92.760095 14.785204 2.785662
6545.099000 6545.100000 0.500000 1.839470 92.760345 14.739761 2.770140
6545.193000 6545.200000 0.500000 1.842771 92.759792 14.692574 2.754784
6545.299000 6545.300000 0.500000 1.846469 92.759521 14.636778 2.737866
6545.402000 6545.400000 0.500000 1.850448 92.758324 14.578077 2.719995
6545.501000 6545.500000 0.500000 1.854924 92.762117 14.514848 2.701078
6545.600000 6545.600000 0.500000 1.859624 92.750622 14.444138 2.680970
6545.701000 6545.700000 0.500000 1.864904 92.750107 14.367923 2.658689
6545.800000 6545.800000 0.500000 1.870865 92.752265 14.284082 2.636231
6545.898000 6545.900000 0.500000 1.877303 92.752388 14.193182 2.612149
6546.004000 6546.000000 0.500000 1.884592 92.751002 14.087289 2.584986
6546.103000 6546.100000 0.500000 1.892362 92.754625 13.980254 2.557087
6546.199000 6546.200000 0.500000 1.900595 92.740079 13.863153 2.528470
6546.305000 6546.300000 0.500000 1.909961 92.748672 13.732518 2.496534
6546.401000 6546.400000 0.500000 1.920004 92.758624 13.601736 2.465337
6546.500000 6546.500000 0.500000 1.930881 92.760463 13.452579 2.430098
6546.604000 6546.600000 0.500000 1.942623 92.756433 13.293408 2.393630
6546.704000 6546.700000 0.500000 1.955286 92.750216 13.124680 2.355811
6546.801000 6546.800000 0.500000 1.967967 92.743976 12.962263 2.319406
6546.904000 6546.900000 0.500000 1.981799 92.744598 12.776528 2.277959
6547.003000 6547.000000 0.500000 1.996870 92.745437 12.589777 2.237882
6547.097000 6547.100000 0.500000 2.011921 92.745857 12.406907 2.198745
6547.200000 6547.200000 0.500000 2.027948 92.736587 12.203893 2.155770
6547.302000 6547.300000 0.500000 2.045145 92.729318 11.992792 2.111053
6547.400000 6547.400000 0.500000 2.062675 92.733412 11.787601 2.068329
6547.499000 6547.500000 0.500000 2.080746 92.731145 11.573356 2.023207
6547.604000 6547.600000 0.500000 2.100273 92.738234 11.347424 1.976888
6547.697000 6547.700000 0.500000 2.119603 92.736240 11.137873 1.934397
6547.797000 6547.800000 0.500000 2.139375 92.737930 10.917137 1.888868
6547.899000 6547.900000 0.500000 2.160139 92.732187 10.692137 1.844107
6547.997000 6548.000000 0.500000 2.180045 92.736706 10.484046 1.801581
6548.096000 6548.100000 0.500000 2.199421 92.731563 10.279627 1.760215
6548.197000 6548.200000 0.500000 2.219260 92.731261 10.080236 1.719740
6548.296000 6548.300000 0.500000 2.237488 92.725992 9.899866 1.682662
6548.396000 6548.400000 0.500000 2.254953 92.716931 9.727417 1.647118
6548.500000 6548.500000 0.500000 2.271567 92.712265 9.564332 1.613859
6548.599000 6548.600000 0.500000 2.286357 92.716241 9.424232 1.584412
6548.699000 6548.700000 0.500000 2.299832 92.719373 9.297923 1.557736
6548.800000 6548.800000 0.500000 2.311853 92.711972 9.186389 1.533272
6548.901000 6548.900000 0.500000 2.322885 92.703051 9.085644 1.511225
6549.000000 6549.000000 0.500000 2.332522 92.709537 8.997580 1.491708
6549.099000 6549.100000 0.500000 2.341339 92.793326 8.926614 1.474146
6549.202000 6549.200000 0.500000 2.349540 92.820630 8.856794 1.458120
6549.300000 6549.300000 0.500000 2.356840 92.822593 8.793184 1.442560
6549.401000 6549.400000 0.500000 2.363856 92.807697 8.729425 1.427347
6549.505000 6549.500000 0.500000 2.370440 92.820329 8.672937 1.412752
6549.601000 6549.600000 0.500000 2.376657 92.816956 8.619442 1.400235
6549.702000 6549.700000 0.500000 2.382992 92.818015 8.564717 1.386486
6549.805000 6549.800000 0.500000 2.389391 92.815039 8.509455 1.372725
6549.902000 6549.900000 0.500000 2.395756 92.803713 8.455506 1.359863
6550.002000 6550.000000 0.500000 2.402265 92.809567 8.400463 1.346769
6550.105000 6550.100000 0.500000 2.409210 92.815024 8.342222 1.333523
6550.200000 6550.200000 0.500000 2.416017 92.802559 8.285493 1.320306
6550.303000 6550.300000 0.500000 2.423405 92.920172 8.233765 1.307849
6550.404000 6550.400000 0.500000 2.430703 92.973998 8.177821 1.294900
6550.502000 6550.500000 0.500000 2.438374 92.963645 8.116043 1.281630
6550.599000 6550.600000 0.500000 2.445892 92.969061 8.055727 1.268337
6550.704000 6550.700000 0.500000 2.453929 92.965382 7.989175 1.254697
6550.800000 6550.800000 0.500000 2.462150 92.952012 7.924577 1.241106
6550.897000 6550.900000 0.500000 2.470025 92.944701 7.861583 1.227895
6551.000000 6551.000000 0.500000 2.478844 92.957408 7.793151 1.214022
6551.100000 6551.100000 0.500000 2.487739 92.965530 7.725501 1.200088
6551.197000 6551.200000 0.500000 2.496505 92.954050 7.657366 1.186493
6551.296000 6551.300000 0.500000 2.505557 92.953833 7.588122 1.172425
6551.401000 6551.400000 0.500000 2.515093 92.958955 7.515152 1.158275
6551.495000 6551.500000 0.500000 2.523867 92.947031 7.449688 1.144852
6551.598000 6551.600000 0.500000 2.533128 92.933848 7.379960 1.131292
6551.701000 6551.700000 0.500000 2.542275 92.932308 7.311790 1.117692
6551.797000 6551.800000 0.500000 2.550937 92.940074 7.250398 1.105622
6551.898000 6551.900000 0.500000 2.558875 92.930708 7.191766 1.093366
6552.003000 6552.000000 0.500000 2.566968 92.925606 7.133074 1.082052
6552.095000 6552.100000 0.500000 2.573959 92.929584 7.085239 1.072353
6552.196000 6552.200000 0.500000 2.580755 92.933324 7.037629 1.062326
6552.302000 6552.300000 0.500000 2.587074 92.925458 6.991210 1.052645
