# XDI/1.0 BlueSky/1.10.0 BMM/2023-1.0-py310-tiled
# Beamline.name: BMM (06BM) -- Beamline for Materials Measurement (NIST)
# Beamline.xray_source: NSLS-II three-pole wiggler
# Beamline.collimation: paraboloid mirror, 5 nm Rh on 30 nm Pt
# Beamline.focusing: not in use
# Beamline.harmonic_rejection: flat mirror, Si stripe, pitch = 7.0 mrad relative to beam
# Beamline.software: Bluesky 1.10.0, Ophyd 1.7.0, DataBroker 2.0.0b13, Python 3.10.8, 2023-1.0-py310-tiled
# Detector.I0: 10 cm N2
# Detector.I1: 25 cm N2
# Detector.I2: 25 cm N2
# Element.symbol: Mn
# Element.edge: K
# Element.reference: Mn
# Element.reference_material: Mn metal powder
# Facility.name: NSLS-II
# Facility.energy: 3.0
# Facility.current: 399.9
# Facility.mode: top-off
# Facility.GUP: 123456
# Facility.SAF: 301027
# Facility.cycle: 2023-2
# Mono.name: Si(111)
# Mono.d_spacing: 3.1351860
# Mono.encoder_resolution: 0.0000050 deg/ct
# Mono.angle_offset: 16.0754326 deg
# Mono.scan_mode: pseudo channel cut
# Mono.scan_type: step
# Mono.direction: forward in energy
# Sample.name: Mn foil
# Sample.prep: metal powder
# Sample.x: 123.848 mm
# Sample.y: 114.690 mm
# Sample.SDD_position: 205.000 mm
# Scan.experimenters: Bruce Ravel
# Scan.edge_energy: 6539.0
# Scan.start_time: 2023-05-08T12:28:57
# Scan.end_time: 2023-05-08T12:36:58
# Scan.transient_id: 75376
# Scan.uid: a5a1b95b-9ba7-412f-9f6e-b5fc9600c99a
# Scan.plot_hint: ln(I0/It)  --  ln($5/$6)
# Column.1: energy eV
# Column.2: requested_energy eV
# Column.3: measurement_time seconds
# Column.4: xmu 
# Column.5: I0 nA
# Column.6: It nA
# Column.7: Ir nA
# ///////////
# reference wheel
# -----------
# energy  requested_energy  measurement_time  xmu  I0  It  Ir
  6339.001  6339.000  0.500  0.659827  150.300549  77.696495  4.001704
  6349.013  6349.000  0.500  0.653440  150.518492  78.307719  4.087290
  6359.024  6359.000  0.500  0.646932  150.752788  78.941696  4.174386
  6369.002  6369.000  0.500  0.640364  150.979244  79.581254  4.264913
  6378.993  6379.000  0.500  0.634541  151.170796  80.147579  4.350807
  6389.007  6389.000  0.500  0.628535  151.356719  80.729492  4.439507
  6399.009  6399.000  0.500  0.622232  151.535557  81.335933  4.531651
  6409.013  6409.000  0.500  0.616311  151.717135  81.917038  4.621518
  6419.008  6419.000  0.500  0.610628  151.953321  82.512176  4.714178
  6429.014  6429.000  0.500  0.604553  152.085431  83.087066  4.807630
  6439.011  6439.000  0.500  0.598541  152.210880  83.657087  4.899665
  6449.011  6449.000  0.500  0.592443  149.578818  82.713281  4.903863
  6459.008  6459.000  0.500  0.586316  152.079614  84.612985  5.074225
  6469.012  6469.000  0.500  0.580588  152.672903  85.431021  5.181953
  6479.006  6479.000  0.500  0.575113  152.745024  85.940696  5.269826
  6489.286  6489.000  0.500  0.569416  152.826707  86.477839  5.357125
  6498.984  6499.000  0.500  0.563907  152.974757  87.039843  5.436232
  6508.983  6509.000  0.500  0.558037  153.131930  87.642201  5.504041
  6510.986  6511.000  0.500  0.556528  153.150097  87.784960  5.515052
  6512.981  6513.000  0.500  0.555248  153.194375  87.922842  5.523224
  6514.983  6515.000  0.500  0.553892  153.207490  88.049639  5.529988
  6516.987  6517.000  0.500  0.552692  153.241178  88.174816  5.532500
  6518.988  6519.000  0.500  0.551504  153.283073  88.303732  5.533050
  6520.994  6521.000  0.500  0.550752  153.313254  88.387550  5.525364
  6522.992  6523.000  0.500  0.549490  153.338541  88.513773  5.514352
  6524.997  6525.000  0.500  0.548282  153.344569  88.624274  5.493016
  6526.994  6527.000  0.500  0.547163  153.374146  88.740557  5.460209
  6528.998  6529.000  0.500  0.546177  153.408307  88.847920  5.405608
  6529.283  6529.300  0.500  0.545871  153.401461  88.871173  5.396410
  6529.584  6529.600  0.500  0.545845  153.403684  88.874716  5.383189
  6529.884  6529.900  0.500  0.545649  153.401173  88.890676  5.370748
  6530.183  6530.200  0.500  0.545522  153.377825  88.888443  5.356104
  6530.485  6530.500  0.500  0.545272  153.387299  88.916218  5.343839
  6530.786  6530.800  0.500  0.545017  153.380112  88.934647  5.329151
  6531.086  6531.100  0.500  0.544899  153.381960  88.946248  5.312142
  6531.387  6531.400  0.500  0.544601  153.388816  88.976729  5.294343
  6531.692  6531.700  0.500  0.544781  153.423077  88.980590  5.271993
  6531.990  6532.000  0.500  0.544480  153.443086  89.018973  5.252472
  6532.292  6532.300  0.500  0.544159  153.402678  89.024151  5.227572
  6532.590  6532.600  0.500  0.544194  153.413276  89.027144  5.202608
  6532.893  6532.900  0.500  0.543967  153.408740  89.044768  5.173725
  6533.188  6533.200  0.500  0.544192  153.412037  89.026621  5.139847
  6533.489  6533.500  0.500  0.544155  153.424773  89.037315  5.103484
  6533.791  6533.800  0.500  0.544081  153.414659  89.038012  5.063019
  6534.091  6534.100  0.500  0.543742  153.391052  89.054474  5.018850
  6534.391  6534.400  0.500  0.543674  153.395191  89.062952  4.969221
  6534.692  6534.700  0.500  0.543446  153.388370  89.079270  4.911139
  6534.994  6535.000  0.500  0.542835  153.393779  89.136875  4.846079
  6535.294  6535.300  0.500  0.542597  153.397649  89.160367  4.765718
  6535.594  6535.600  0.500  0.542438  153.403555  89.178009  4.672546
  6535.894  6535.900  0.500  0.541952  153.402721  89.220807  4.562528
  6536.193  6536.200  0.500  0.542056  153.417312  89.220003  4.424518
  6536.491  6536.500  0.500  0.541936  153.405176  89.223725  4.248992
  6536.793  6536.800  0.500  0.541689  153.410007  89.248553  4.014957
  6537.091  6537.100  0.500  0.541534  153.403638  89.258672  3.702483
  6537.395  6537.400  0.500  0.541261  153.418602  89.291720  3.284996
  6537.695  6537.700  0.500  0.541056  153.405312  89.302295  2.768925
  6537.998  6538.000  0.500  0.540792  153.407487  89.327138  2.200252
  6538.300  6538.300  0.500  0.540608  153.406975  89.343269  1.668708
  6538.600  6538.600  0.500  0.540752  153.416569  89.335990  1.269468
  6538.900  6538.900  0.500  0.540791  153.912036  89.621079  1.014719
  6539.201  6539.200  0.500  0.540489  153.987210  89.691930  0.854647
  6539.498  6539.500  0.500  0.540012  154.008245  89.746915  0.745848
  6539.794  6539.800  0.500  0.539788  154.001880  89.763384  0.663847
  6540.095  6540.100  0.500  0.539486  154.010679  89.795565  0.597817
  6540.395  6540.400  0.500  0.539253  154.008125  89.815013  0.542194
  6540.696  6540.700  0.500  0.539460  153.997766  89.790425  0.496093
  6540.995  6541.000  0.500  0.539151  153.999654  89.819296  0.462204
  6541.297  6541.300  0.500  0.539086  153.995229  89.822504  0.439143
  6541.598  6541.600  0.500  0.538860  154.009904  89.851331  0.427217
  6541.902  6541.900  0.500  0.538919  154.017157  89.850295  0.423135
  6542.199  6542.200  0.500  0.538571  153.996911  89.869800  0.422185
  6542.500  6542.500  0.500  0.538178  153.997213  89.905243  0.418696
  6542.799  6542.800  0.500  0.538148  153.990321  89.903949  0.408776
  6543.098  6543.100  0.500  0.538101  153.985424  89.905305  0.393340
  6543.395  6543.400  0.500  0.537788  153.985184  89.933264  0.373816
  6543.694  6543.700  0.500  0.537568  153.982225  89.951329  0.353567
  6543.995  6544.000  0.500  0.537484  153.983175  89.959522  0.334685
  6544.298  6544.300  0.500  0.537340  153.986905  89.974629  0.318404
  6544.600  6544.600  0.500  0.537228  153.988352  89.985551  0.306056
  6544.901  6544.900  0.500  0.537187  153.986410  89.988131  0.296850
  6545.200  6545.200  0.500  0.537171  153.983874  89.988094  0.288857
  6545.500  6545.500  0.500  0.536645  153.990419  90.039220  0.280397
  6545.799  6545.800  0.500  0.536247  153.987451  90.073315  0.270453
  6546.094  6546.100  0.500  0.536280  153.977776  90.064714  0.258187
  6546.394  6546.400  0.500  0.535899  153.975030  90.097444  0.244819
  6546.699  6546.700  0.500  0.536097  153.986767  90.086421  0.230096
  6547.000  6547.000  0.500  0.536054  153.978251  90.085319  0.215162
  6547.304  6547.300  0.500  0.535622  153.992493  90.132634  0.200318
  6547.600  6547.600  0.500  0.535298  153.978680  90.153725  0.185650
  6547.901  6547.900  0.500  0.535244  153.975531  90.156719  0.171510
  6548.201  6548.200  0.500  0.535106  153.964724  90.162827  0.158532
  6548.499  6548.500  0.500  0.534952  153.970774  90.180308  0.146800
  6548.802  6548.800  0.500  0.534838  153.964140  90.186644  0.135409
  6549.098  6549.100  0.500  0.534585  153.953299  90.203183  0.125202
  6549.399  6549.400  0.500  0.534056  153.953546  90.251006  0.115297
  6549.699  6549.700  0.500  0.534488  153.959848  90.215714  0.106074
  6550.002  6550.000  0.500  0.533888  153.947293  90.262506  0.097880
  6550.303  6550.300  0.500  0.533821  153.953992  90.272504  0.090543
  6550.603  6550.600  0.500  0.533665  153.948189  90.283217  0.083953
  6550.905  6550.900  0.500  0.533776  153.957709  90.278712  0.078010
  6551.204  6551.200  0.500  0.533468  153.956230  90.305688  0.072822
  6551.499  6551.500  0.500  0.533050  153.956303  90.343439  0.067830
  6551.797  6551.800  0.500  0.533318  153.952768  90.317215  0.063388
  6552.095  6552.100  0.500  0.533567  153.948317  90.292077  0.059336
  6552.395  6552.400  0.500  0.533323  153.947667  90.313742  0.055579
  6552.698  6552.700  0.500  0.533233  153.936692  90.315469  0.052099
  6553.004  6553.000  0.500  0.533009  153.934151  90.334218  0.048769
  6553.303  6553.300  0.500  0.532744  153.926936  90.353862  0.045819
  6553.603  6553.600  0.500  0.532705  153.932683  90.360806  0.043197
  6553.902  6553.900  0.500  0.532514  153.916512  90.368553  0.041178
  6554.198  6554.200  0.500  0.532213  153.928318  90.402658  0.039480
  6554.496  6554.500  0.500  0.532116  153.926498  90.410351  0.038060
  6554.796  6554.800  0.500  0.532085  153.928408  90.414337  0.037039
  6555.100  6555.100  0.500  0.531957  153.928680  90.426040  0.036379
  6555.402  6555.400  0.500  0.531704  153.924169  90.446258  0.035982
  6555.706  6555.700  0.500  0.531532  153.931828  90.466379  0.035889
  6556.003  6556.000  0.500  0.531381  153.937140  90.483111  0.036087
  6556.303  6556.300  0.500  0.531120  153.937417  90.506908  0.036589
  6556.603  6556.600  0.500  0.531012  153.926543  90.510327  0.037403
  6556.902  6556.900  0.500  0.530809  153.923096  90.526631  0.038491
  6557.200  6557.200  0.500  0.530658  153.917038  90.536775  0.039665
  6557.499  6557.500  0.500  0.530238  153.921823  90.577627  0.041030
  6557.799  6557.800  0.500  0.529726  153.914581  90.619712  0.042660
  6558.101  6558.100  0.500  0.529627  153.915124  90.628999  0.044055
  6558.403  6558.400  0.500  0.529478  153.919491  90.645064  0.045684
  6558.702  6558.700  0.500  0.529030  153.918712  90.685225  0.047090
  6559.003  6559.000  0.500  0.528788  153.918576  90.707083  0.048430
  6559.300  6559.300  0.500  0.528571  153.912975  90.723457  0.049554
  6559.602  6559.600  0.500  0.528508  153.943071  90.746951  0.050624
  6559.901  6559.900  0.500  0.528644  153.916166  90.718763  0.051230
  6560.201  6560.200  0.500  0.528363  153.917824  90.745219  0.051888
  6560.500  6560.500  0.500  0.528152  153.926707  90.769571  0.052314
  6560.799  6560.800  0.500  0.528086  153.930895  90.778040  0.052516
  6561.105  6561.100  0.500  0.527905  153.927472  90.792487  0.052737
  6561.400  6561.400  0.500  0.527862  153.851840  90.751783  0.052486
  6561.705  6561.700  0.500  0.527914  153.739136  90.680583  0.052146
  6562.002  6562.000  0.500  0.528032  153.652726  90.618962  0.052074
  6562.305  6562.300  0.500  0.527758  153.587200  90.605060  0.051635
  6562.604  6562.600  0.500  0.527482  153.730961  90.714985  0.051360
  6562.906  6562.900  0.500  0.527003  153.849344  90.828339  0.051089
  6563.202  6563.200  0.500  0.526764  153.881314  90.868862  0.050769
  6563.503  6563.500  0.500  0.526340  153.892524  90.914026  0.050540
  6563.802  6563.800  0.500  0.526809  153.901374  90.876673  0.049964
  6564.000  6564.000  0.500  0.526201  153.899324  90.930660  0.049834
  6565.002  6564.990  0.500  0.525863  153.920905  90.974183  0.049003
  6566.006  6565.990  0.500  0.525346  153.929218  91.026166  0.048513
  6567.026  6567.010  0.500  0.524843  153.914879  91.063496  0.048250
  6568.086  6568.060  0.500  0.524265  153.931809  91.126128  0.048064
  6569.115  6569.120  0.500  0.523536  153.911855  91.180795  0.048231
  6570.192  6570.200  0.500  0.523389  153.941329  91.211682  0.048494
  6571.294  6571.300  0.500  0.522561  153.957586  91.296862  0.048579
  6572.419  6572.420  0.500  0.521854  153.937771  91.349651  0.048621
  6573.557  6573.560  0.500  0.521149  153.935160  91.412477  0.048544
  6574.712  6574.710  0.500  0.520399  153.971057  91.502398  0.048256
  6575.893  6575.890  0.500  0.519789  153.988397  91.568626  0.047402
  6577.080  6577.080  0.500  0.518987  154.003734  91.651222  0.046740
  6578.302  6578.300  0.500  0.518383  154.019163  91.715729  0.045817
  6579.534  6579.530  0.500  0.517685  154.030902  91.786813  0.044679
  6580.784  6580.780  0.500  0.516884  154.035791  91.863198  0.043611
  6582.059  6582.050  0.500  0.516349  154.048536  91.920009  0.042084
  6583.347  6583.340  0.500  0.515733  154.039896  91.971514  0.041201
  6584.653  6584.650  0.500  0.515023  154.048061  92.041730  0.040222
  6585.984  6585.980  0.500  0.514346  153.800247  91.955901  0.040089
  6587.334  6587.330  0.500  0.513781  154.026027  92.142888  0.041047
  6588.702  6588.700  0.500  0.513182  154.045912  92.209990  0.042785
  6590.084  6590.080  0.500  0.512224  154.039839  92.294731  0.044827
  6591.498  6591.490  0.500  0.511400  154.046673  92.374931  0.046578
  6592.912  6592.910  0.500  0.510468  154.038753  92.456327  0.047930
  6594.358  6594.350  0.500  0.509720  154.070720  92.544710  0.049590
  6595.822  6595.810  0.500  0.508841  154.075867  92.629130  0.051499
  6597.297  6597.290  0.500  0.508227  154.086198  92.692292  0.053613
  6598.796  6598.790  0.500  0.507345  154.093207  92.778335  0.055438
  6600.320  6600.310  0.500  0.506415  154.087857  92.861347  0.056733
  6601.858  6601.850  0.500  0.505708  154.098233  92.933277  0.057021
  6603.420  6603.410  0.500  0.504951  153.793543  92.819800  0.056448
  6604.986  6604.980  0.500  0.504190  154.101120  93.076269  0.055931
  6606.594  6606.580  0.500  0.503105  154.126302  93.192493  0.054888
  6608.197  6608.190  0.500  0.502627  154.148712  93.250617  0.053667
  6609.840  6609.830  0.500  0.501459  154.181182  93.379249  0.052327
  6611.485  6611.480  0.500  0.500553  154.195271  93.472471  0.050942
  6613.163  6613.150  0.500  0.499629  154.177794  93.548280  0.049681
  6614.850  6614.840  0.500  0.498693  154.184597  93.640034  0.048675
  6616.559  6616.550  0.500  0.497845  154.192112  93.724041  0.048255
  6618.291  6618.280  0.500  0.496918  154.186980  93.807847  0.047850
  6620.035  6620.030  0.500  0.496100  154.182296  93.881691  0.048165
  6621.802  6621.790  0.500  0.495147  154.173274  93.965728  0.048557
  6623.588  6623.580  0.500  0.494257  154.186278  94.057354  0.049426
  6625.391  6625.380  0.500  0.493137  154.194363  94.167636  0.050269
  6627.224  6627.210  0.500  0.492207  154.215263  94.268031  0.051369
  6629.058  6629.050  0.500  0.491457  154.142365  94.294156  0.052535
  6630.922  6630.910  0.500  0.490215  154.210940  94.453379  0.053457
  6632.799  6632.790  0.500  0.489449  154.234575  94.540227  0.054106
  6634.703  6634.690  0.500  0.488411  154.235330  94.638933  0.053853
  6636.619  6636.610  0.500  0.487352  154.234076  94.738424  0.053332
  6638.557  6638.550  0.500  0.486204  154.237701  94.849463  0.052414
  6640.522  6640.510  0.500  0.485209  154.225375  94.936292  0.051777
  6642.487  6642.480  0.500  0.484262  154.252253  95.042798  0.051590
  6644.488  6644.480  0.500  0.483287  154.248510  95.133232  0.052171
  6646.505  6646.490  0.500  0.482031  154.254495  95.256471  0.053025
  6648.525  6648.520  0.500  0.481138  154.246508  95.336627  0.054536
  6650.589  6650.580  0.500  0.479910  154.266953  95.466426  0.055949
  6652.663  6652.650  0.500  0.478912  154.265670  95.560941  0.057278
  6654.750  6654.740  0.500  0.477674  154.269029  95.681431  0.058643
  6656.856  6656.850  0.500  0.476485  154.261136  95.790338  0.059650
  6658.997  6658.980  0.500  0.475455  154.275870  95.898216  0.060860
  6661.132  6661.120  0.500  0.474311  154.271364  96.005136  0.061176
  6663.296  6663.290  0.500  0.473181  154.259441  96.106307  0.061380
  6665.488  6665.480  0.500  0.472223  154.251226  96.193273  0.061117
  6667.693  6667.680  0.500  0.470780  154.252391  96.332935  0.060457
  6669.910  6669.900  0.500  0.469798  154.258145  96.431186  0.059450
  6672.156  6672.150  0.500  0.468770  154.235898  96.516433  0.058458
  6674.421  6674.410  0.500  0.467574  154.251901  96.641914  0.057676
  6676.700  6676.690  0.500  0.466287  154.218194  96.745261  0.057102
  6678.992  6678.990  0.500  0.465103  154.218786  96.860295  0.056930
  6681.319  6681.310  0.500  0.463924  154.223018  96.977139  0.056910
  6683.660  6683.650  0.500  0.462659  154.240581  97.110958  0.057082
  6686.012  6686.000  0.500  0.461704  154.232452  97.198682  0.057292
  6688.385  6688.380  0.500  0.460401  154.204535  97.307747  0.057775
  6690.780  6690.770  0.500  0.459477  154.207396  97.399536  0.058676
  6693.204  6693.190  0.500  0.458159  154.198411  97.522334  0.059944
  6695.634  6695.620  0.500  0.456998  154.139179  97.598069  0.061206
  6698.076  6698.070  0.500  0.455808  154.162609  97.729142  0.062348
  6700.560  6700.550  0.500  0.454351  154.149090  97.863100  0.063569
  6703.049  6703.040  0.500  0.452941  154.148495  98.000742  0.064988
  6705.561  6705.550  0.500  0.451596  154.130916  98.121496  0.066486
  6708.072  6708.070  0.500  0.450368  154.112280  98.230173  0.067639
  6710.628  6710.620  0.500  0.449076  154.100371  98.349536  0.068311
  6713.204  6713.190  0.500  0.447770  154.104408  98.480704  0.068389
  6715.777  6715.770  0.500  0.446688  154.112576  98.592523  0.068495
  6718.384  6718.380  0.500  0.445499  154.083762  98.691390  0.068499
  6721.011  6721.000  0.500  0.443952  154.053941  98.825032  0.068622
  6723.662  6723.650  0.500  0.442587  154.634394  99.332843  0.068978
  6726.316  6726.310  0.500  0.441260  154.637390  99.466655  0.069132
  6728.998  6728.990  0.500  0.440103  154.621294  99.571447  0.069147
  6731.702  6731.690  0.500  0.438695  154.586079  99.689087  0.069073
  6734.426  6734.410  0.500  0.436897  154.565796  99.855365  0.069308
  6737.163  6737.150  0.500  0.435867  154.540670  99.942028  0.069104
  6739.907  6739.900  0.500  0.434484  154.527137  100.071577  0.069492
  6742.689  6742.680  0.500  0.433123  154.479047  100.176705  0.069936
  6745.483  6745.470  0.500  0.431785  154.435290  100.282367  0.070414
  6748.299  6748.290  0.500  0.430341  154.426361  100.421494  0.071526
  6751.127  6751.120  0.500  0.428945  154.410908  100.551709  0.072624
  6753.980  6753.970  0.500  0.427354  154.384131  100.694348  0.073701
  6756.862  6756.850  0.500  0.426062  154.353194  100.804293  0.074431
  6759.755  6759.740  0.500  0.424723  154.308945  100.910511  0.075003
  6762.655  6762.650  0.500  0.423396  154.298011  101.037331  0.074856
  6765.582  6765.570  0.500  0.422339  154.278851  101.131569  0.075160
  6768.532  6768.520  0.500  0.420801  154.260152  101.275001  0.075394
  6771.499  6771.490  0.500  0.419419  154.223073  101.390688  0.075977
  6774.499  6774.470  0.500  0.417828  154.194417  101.533243  0.076793
  6777.493  6777.480  0.500  0.416126  154.177707  101.695169  0.077976
  6780.518  6780.500  0.500  0.414552  154.154219  101.839888  0.079526
  6783.568  6783.550  0.500  0.413198  154.100076  101.942048  0.081004
  6786.624  6786.610  0.500  0.411739  154.094258  102.087041  0.082248
  6789.700  6789.690  0.500  0.410355  154.105300  102.235762  0.083666
  6792.807  6792.790  0.500  0.408885  154.038248  102.341559  0.084512
