# XDI/1.0 BlueSky/1.10.0 BMM/2023-1.0-py310-tiled
# Beamline.name: BMM (06BM) -- Beamline for Materials Measurement (NIST)
# Beamline.xray_source: NSLS-II three-pole wiggler
# Beamline.collimation: paraboloid mirror, 5 nm Rh on 30 nm Pt
# Beamline.focusing: not in use
# Beamline.harmonic_rejection: flat mirror, Si stripe, pitch = 7.0 mrad relative to beam
# Beamline.software: Bluesky 1.10.0, Ophyd 1.7.0, DataBroker 2.0.0b13, Python 3.10.8, 2023-1.0-py310-tiled
# Detector.I0: 10 cm N2
# Detector.I1: 25 cm N2
# Detector.I2: 25 cm N2
# Element.symbol: Mn
# Element.edge: K
# Element.reference: Mn
# Element.reference_material: Mn metal powder
# Facility.name: NSLS-II
# Facility.energy: 3.0
# Facility.current: 400.6
# Facility.mode: top-off
# Facility.GUP: 123456
# Facility.SAF: 301027
# Facility.cycle: 2023-2
# Mono.name: Si(111)
# Mono.d_spacing: 3.1351860
# Mono.encoder_resolution: 0.0000050 deg/ct
# Mono.angle_offset: 16.0754326 deg
# Mono.scan_mode: pseudo channel cut
# Mono.scan_type: step
# Mono.direction: forward in energy
# Sample.name: MnO
# Sample.prep: powder on tape
# Sample.x: 123.848 mm
# Sample.y: 114.690 mm
# Sample.SDD_position: 205.000 mm
# Scan.experimenters: Bruce Ravel
# Scan.edge_energy: 6539.0
# Scan.start_time: 2023-05-08T11:11:23
# Scan.end_time: 2023-05-08T11:19:42
# Scan.transient_id: 75367
# Scan.uid: eeff05dd-5cd6-453d-93c2-04dfcb22806d
# Scan.plot_hint: ln(I0/It)  --  ln($5/$6)
# Column.1: energy eV
# Column.2: requested_energy eV
# Column.3: measurement_time seconds
# Column.4: xmu 
# Column.5: I0 nA
# Column.6: It nA
# Column.7: Ir nA
# ///////////
# Welcome to BMM
# -----------
# energy  requested_energy  measurement_time  xmu  I0  It  Ir
  6339.006  6339.000  0.500  2.306912  149.757154  14.911055  0.767878
  6349.013  6349.000  0.500  2.292555  149.953263  15.146483  0.790331
  6359.017  6359.000  0.500  2.278392  150.175142  15.385268  0.813449
  6368.985  6369.000  0.500  2.264728  150.402224  15.620513  0.837026
  6378.997  6379.000  0.500  2.250900  150.599139  15.858748  0.860433
  6389.003  6389.000  0.500  2.237410  150.747493  16.089977  0.884132
  6399.012  6399.000  0.500  2.224166  150.905609  16.321580  0.909047
  6409.011  6409.000  0.500  2.210561  151.067981  16.562967  0.934087
  6419.005  6419.000  0.500  2.197194  151.290847  16.810610  0.960210
  6429.009  6429.000  0.500  2.183874  151.407772  17.049198  0.985836
  6439.012  6439.000  0.500  2.170865  151.547534  17.288368  1.011816
  6449.007  6449.000  0.500  2.157538  148.962961  17.221511  1.020356
  6459.005  6459.000  0.500  2.145083  151.427179  17.725810  1.062647
  6469.003  6469.000  0.500  2.132397  151.966186  18.016018  1.092160
  6479.860  6479.000  0.500  2.119512  152.162148  18.273180  1.120236
  6488.981  6489.000  0.500  2.107318  152.428848  18.529795  1.147001
  6498.980  6499.000  0.500  2.095254  152.559440  18.770764  1.171527
  6508.985  6509.000  0.500  2.083988  152.691686  18.999876  1.192197
  6510.986  6511.000  0.500  2.082307  152.742395  19.038177  1.195271
  6512.985  6513.000  0.500  2.079731  152.758584  19.089300  1.198585
  6514.991  6515.000  0.500  2.077500  152.764580  19.132692  1.201024
  6516.992  6517.000  0.500  2.076198  152.795145  19.161446  1.201441
  6518.991  6519.000  0.500  2.074428  152.841212  19.201169  1.202324
  6520.994  6521.000  0.500  2.072412  152.858073  19.242046  1.202156
  6522.988  6523.000  0.500  2.070312  152.879785  19.285244  1.200487
  6524.997  6525.000  0.500  2.068819  152.891367  19.315517  1.196104
  6526.996  6527.000  0.500  2.068029  152.921298  19.334567  1.188168
  6528.998  6529.000  0.500  2.067196  152.955155  19.354970  1.176326
  6529.287  6529.300  0.500  2.067208  152.961694  19.355562  1.174031
  6529.586  6529.600  0.500  2.067196  152.959141  19.355458  1.171456
  6529.884  6529.900  0.500  2.067093  152.956143  19.357076  1.168019
  6530.183  6530.200  0.500  2.067070  152.967090  19.358909  1.165172
  6530.483  6530.500  0.500  2.067367  152.979361  19.354710  1.161676
  6530.786  6530.800  0.500  2.067246  152.976869  19.356743  1.158235
  6531.088  6531.100  0.500  2.067158  152.957296  19.355960  1.154328
  6531.385  6531.400  0.500  2.067391  152.973780  19.353541  1.150053
  6531.689  6531.700  0.500  2.067458  152.974098  19.352286  1.145410
  6531.988  6532.000  0.500  2.067626  152.966033  19.348009  1.140393
  6532.290  6532.300  0.500  2.067539  152.977255  19.351116  1.134947
  6532.590  6532.600  0.500  2.067831  152.978433  19.345613  1.128721
  6532.889  6532.900  0.500  2.068034  152.977069  19.341518  1.121854
  6533.188  6533.200  0.500  2.068379  153.001993  19.338002  1.114478
  6533.487  6533.500  0.500  2.068714  152.981799  19.328972  1.105718
  6533.787  6533.800  0.500  2.068804  152.991169  19.328406  1.096891
  6534.091  6534.100  0.500  2.069257  152.984432  19.318812  1.086348
  6534.391  6534.400  0.500  2.069712  152.987345  19.310389  1.074412
  6534.691  6534.700  0.500  2.070093  152.978447  19.301912  1.061237
  6534.992  6535.000  0.500  2.070709  152.971364  19.289123  1.045058
  6535.292  6535.300  0.500  2.071165  152.976103  19.280933  1.026787
  6535.594  6535.600  0.500  2.072258  152.976326  19.259903  1.004342
  6535.896  6535.900  0.500  2.072815  152.979579  19.249584  0.978781
  6536.193  6536.200  0.500  2.073878  152.980321  19.229226  0.947060
  6536.493  6536.500  0.500  2.075091  152.982393  19.206167  0.906470
  6536.793  6536.800  0.500  2.076545  152.973564  19.177160  0.852210
  6537.090  6537.100  0.500  2.078139  152.976940  19.147047  0.780067
  6537.393  6537.400  0.500  2.080026  152.978162  19.111097  0.684771
  6537.697  6537.700  0.500  2.082574  152.974074  19.061953  0.570176
  6537.999  6538.000  0.500  2.086743  152.975663  18.982842  0.446266
  6538.298  6538.300  0.500  2.092275  152.958353  18.875993  0.336476
  6538.598  6538.600  0.500  2.099793  152.956202  18.734354  0.255753
  6538.897  6538.900  0.500  2.108820  152.965307  18.567106  0.203912
  6539.199  6539.200  0.500  2.115905  152.965523  18.436046  0.171447
  6539.498  6539.500  0.500  2.120887  152.963627  18.344196  0.149449
  6539.796  6539.800  0.500  2.124275  152.964745  18.282286  0.132741
  6540.093  6540.100  0.500  2.126100  152.982652  18.251076  0.119622
  6540.395  6540.400  0.500  2.125207  152.957115  18.264335  0.108770
  6540.692  6540.700  0.500  2.123893  152.956758  18.288318  0.099950
  6540.993  6541.000  0.500  2.125590  152.974360  18.259402  0.093200
  6541.299  6541.300  0.500  2.131381  152.969705  18.153422  0.088358
  6541.598  6541.600  0.500  2.141632  152.965577  17.967787  0.085362
  6541.900  6541.900  0.500  2.156943  152.957249  17.693822  0.083468
  6542.203  6542.200  0.500  2.179929  152.973698  17.293607  0.081402
  6542.503  6542.500  0.500  2.210764  152.965894  16.767634  0.078140
  6542.802  6542.800  0.500  2.251190  152.963414  16.103059  0.073063
  6543.100  6543.100  0.500  2.301518  152.977370  15.314076  0.066860
  6543.399  6543.400  0.500  2.360090  152.992531  14.444282  0.059994
  6543.696  6543.700  0.500  2.425573  152.973336  13.527041  0.053278
  6543.995  6544.000  0.500  2.492784  152.976106  12.647979  0.047066
  6544.296  6544.300  0.500  2.556502  152.995703  11.868741  0.042002
  6544.595  6544.600  0.500  2.612146  152.994200  11.226242  0.038385
  6544.898  6544.900  0.500  2.658157  152.983457  10.720658  0.035730
  6545.199  6545.200  0.500  2.695510  152.985808  10.327753  0.033370
  6545.500  6545.500  0.500  2.725726  152.983264  10.020195  0.031317
  6545.799  6545.800  0.500  2.751207  152.986554  9.768310  0.029616
  6546.102  6546.100  0.500  2.775735  152.971503  9.530683  0.027413
  6546.401  6546.400  0.500  2.802102  152.970268  9.282603  0.025369
  6546.699  6546.700  0.500  2.831059  152.991966  9.018937  0.023156
  6546.998  6547.000  0.500  2.862959  152.991327  8.735738  0.021210
  6547.297  6547.300  0.500  2.895461  153.003040  8.457018  0.018959
  6547.598  6547.600  0.500  2.929586  152.996023  8.172921  0.017054
  6547.898  6547.900  0.500  2.966306  152.989312  7.877907  0.015260
  6548.201  6548.200  0.500  3.007385  152.990585  7.560911  0.013471
  6548.504  6548.500  0.500  3.055326  152.990436  7.206974  0.012000
  6548.804  6548.800  0.500  3.113423  152.988957  6.800139  0.010505
  6549.101  6549.100  0.500  3.185402  152.988839  6.327865  0.009195
  6549.401  6549.400  0.500  3.270134  152.994899  5.814010  0.007782
  6549.702  6549.700  0.500  3.358350  152.996037  5.323132  0.006543
  6549.998  6550.000  0.500  3.435989  152.985104  4.925133  0.005769
  6550.296  6550.300  0.500  3.491000  152.970708  4.661075  0.005062
  6550.594  6550.600  0.500  3.527954  152.970358  4.491964  0.004463
  6550.894  6550.900  0.500  3.551720  152.970108  4.386461  0.004080
  6551.199  6551.200  0.500  3.569701  152.970636  4.308307  0.003767
  6551.502  6551.500  0.500  3.585394  152.963802  4.241037  0.003532
  6551.800  6551.800  0.500  3.600445  152.985803  4.178281  0.003247
  6552.102  6552.100  0.500  3.616650  153.434683  4.123181  0.002997
  6552.404  6552.400  0.500  3.636649  153.494697  4.043122  0.002900
  6552.698  6552.700  0.500  3.663259  153.517391  3.937536  0.002545
  6552.996  6553.000  0.500  3.696950  153.516259  3.807058  0.002394
  6553.298  6553.300  0.500  3.736077  153.507734  3.660770  0.002208
  6553.600  6553.600  0.500  3.774540  153.537736  3.523328  0.002080
  6553.900  6553.900  0.500  3.802352  153.513823  3.426155  0.001905
  6554.200  6554.200  0.500  3.811536  153.511595  3.394785  0.001889
  6554.502  6554.500  0.500  3.794448  153.528270  3.453669  0.001796
  6554.798  6554.800  0.500  3.750387  153.533524  3.609367  0.001847
  6555.104  6555.100  0.500  3.684026  153.525630  3.856816  0.002051
  6555.399  6555.400  0.500  3.607771  153.524391  4.162385  0.002020
  6555.702  6555.700  0.500  3.529062  153.543066  4.503791  0.002154
  6555.997  6556.000  0.500  3.452544  153.556339  4.862359  0.002332
  6556.296  6556.300  0.500  3.378274  153.547895  5.236948  0.002455
  6556.599  6556.600  0.500  3.309648  153.531842  5.608371  0.002622
  6556.900  6556.900  0.500  3.249205  153.549005  5.958478  0.003018
  6557.200  6557.200  0.500  3.199220  153.540001  6.263512  0.003148
  6557.504  6557.500  0.500  3.158450  153.515232  6.523100  0.003255
  6557.803  6557.800  0.500  3.125951  153.513689  6.738511  0.003714
  6558.105  6558.100  0.500  3.100271  153.505765  6.913437  0.003765
  6558.405  6558.400  0.500  3.079394  153.505562  7.059279  0.003935
  6558.700  6558.700  0.500  3.063941  153.523018  7.170028  0.003981
  6559.004  6559.000  0.500  3.052677  153.521978  7.251201  0.004264
  6559.298  6559.300  0.500  3.044401  153.515099  7.311128  0.004294
  6559.598  6559.600  0.500  3.038029  153.533537  7.358747  0.004597
  6559.897  6559.900  0.500  3.032129  153.532559  7.402245  0.004626
  6560.201  6560.200  0.500  3.025435  153.523786  7.451539  0.004593
  6560.502  6560.500  0.500  3.017923  153.512920  7.507194  0.004752
  6560.806  6560.800  0.500  3.009597  153.507852  7.569707  0.004705
  6561.105  6561.100  0.500  3.000447  153.509747  7.639383  0.004856
  6561.402  6561.400  0.500  2.991372  153.418652  7.704456  0.004757
  6561.701  6561.700  0.500  2.983621  153.281334  7.757451  0.004781
  6562.002  6562.000  0.500  2.977452  153.212335  7.801939  0.004856
  6562.299  6562.300  0.500  2.972946  153.201408  7.836616  0.004723
  6562.598  6562.600  0.500  2.971063  153.344653  7.858727  0.004815
  6562.899  6562.900  0.500  2.971582  153.452177  7.860159  0.004786
  6563.202  6563.200  0.500  2.973541  153.490408  7.846729  0.004777
  6563.499  6563.500  0.500  2.977656  153.511901  7.815601  0.004539
  6563.804  6563.800  0.500  2.983517  153.525148  7.770600  0.004581
  6564.003  6564.000  0.500  2.988757  153.525108  7.729988  0.004591
  6565.002  6564.990  0.500  3.030186  153.541718  7.417090  0.004385
  6566.000  6565.990  0.500  3.098829  153.531936  6.924597  0.004010
  6567.036  6567.010  0.500  3.165203  153.538388  6.480178  0.003784
  6568.048  6568.060  0.500  3.179922  153.508795  6.384261  0.003752
  6569.106  6569.120  0.500  3.139566  153.509041  6.647186  0.003854
  6570.192  6570.200  0.500  3.075885  153.536766  7.085534  0.004039
  6571.294  6571.300  0.500  3.013504  153.542285  7.541886  0.004392
  6572.413  6572.420  0.500  2.976636  153.559104  7.825981  0.004566
  6573.554  6573.560  0.500  2.965502  153.571655  7.914253  0.004610
  6574.709  6574.710  0.500  2.965605  153.588678  7.914316  0.004383
  6575.892  6575.890  0.500  2.967679  153.592111  7.898097  0.004624
  6577.084  6577.080  0.500  2.964597  153.625655  7.924204  0.004453
  6578.304  6578.300  0.500  2.955572  153.606456  7.995046  0.004236
  6579.538  6579.530  0.500  2.949283  153.621584  8.046279  0.004192
  6580.788  6580.780  0.500  2.952709  153.608270  8.018057  0.004042
  6582.055  6582.050  0.500  2.962481  153.592826  7.939288  0.003871
  6583.343  6583.340  0.500  2.978080  153.608533  7.817209  0.003927
  6584.655  6584.650  0.500  2.993714  153.626829  7.696862  0.003841
  6585.982  6585.980  0.500  3.001230  153.373356  7.626622  0.003807
  6587.336  6587.330  0.500  3.010426  153.604822  7.568218  0.003749
  6588.704  6588.700  0.500  3.044549  153.630760  7.315557  0.003761
  6590.088  6590.080  0.500  3.103833  153.634147  6.894615  0.003644
  6591.496  6591.490  0.500  3.168138  153.638351  6.465393  0.003666
  6592.914  6592.910  0.500  3.218927  153.630350  6.144900  0.003619
  6594.353  6594.350  0.500  3.249981  153.636329  5.957242  0.003534
  6595.814  6595.810  0.500  3.253797  153.647556  5.934986  0.003752
  6597.297  6597.290  0.500  3.246280  153.674327  5.980805  0.003854
  6598.796  6598.790  0.500  3.238663  153.676140  6.026608  0.004020
  6600.325  6600.310  0.500  3.213218  153.653070  6.180993  0.004031
  6601.850  6601.850  0.500  3.171544  153.665452  6.444545  0.004241
  6603.418  6603.410  0.500  3.128200  153.383531  6.717673  0.004518
  6604.986  6604.980  0.500  3.091281  153.669913  6.983331  0.004489
  6606.594  6606.580  0.500  3.061828  153.687033  7.192872  0.004611
  6608.201  6608.190  0.500  3.043417  153.717212  7.327964  0.004510
  6609.836  6609.830  0.500  3.028234  153.734389  7.440906  0.004561
  6611.483  6611.480  0.500  3.004381  153.736466  7.620630  0.004499
  6613.163  6613.150  0.500  2.976589  153.712033  7.834150  0.004624
  6614.849  6614.840  0.500  2.954923  153.702969  8.005262  0.004561
  6616.563  6616.550  0.500  2.943953  153.711686  8.094023  0.004612
  6618.293  6618.280  0.500  2.947111  153.711378  8.068488  0.004463
  6620.039  6620.030  0.500  2.963266  153.723768  7.939826  0.004390
  6621.802  6621.790  0.500  2.987242  153.707285  7.750891  0.004320
  6623.585  6623.580  0.500  3.008650  153.730812  7.587885  0.004352
  6625.393  6625.380  0.500  3.017718  153.717457  7.518737  0.004341
  6627.220  6627.210  0.500  3.012406  153.720503  7.558935  0.004499
  6629.061  6629.050  0.500  3.001187  153.677875  7.642093  0.004633
  6630.922  6630.910  0.500  2.994467  153.711858  7.695322  0.004756
  6632.797  6632.790  0.500  2.991823  153.738014  7.717011  0.004748
  6634.705  6634.690  0.500  2.994695  153.741012  7.695030  0.004734
  6636.619  6636.610  0.500  3.008236  153.756529  7.592302  0.004753
  6638.559  6638.550  0.500  3.032692  153.753467  7.408727  0.004400
  6640.522  6640.510  0.500  3.057409  153.730416  7.226764  0.004524
  6642.487  6642.480  0.500  3.068768  153.744975  7.145815  0.004148
  6644.491  6644.480  0.500  3.060600  153.747824  7.204556  0.004325
  6646.503  6646.490  0.500  3.040234  153.758593  7.353303  0.004605
  6648.529  6648.520  0.500  3.014871  153.752103  7.541874  0.004785
  6650.589  6650.580  0.500  2.986952  153.774344  7.756520  0.004933
  6652.664  6652.650  0.500  2.956525  153.767055  7.995777  0.005134
  6654.746  6654.740  0.500  2.927245  153.759098  8.232929  0.005360
  6656.862  6656.850  0.500  2.909769  153.749983  8.377575  0.005752
  6658.997  6658.980  0.500  2.914358  153.749075  8.339172  0.005672
  6661.130  6661.120  0.500  2.938713  153.753010  8.138733  0.005592
  6663.302  6663.290  0.500  2.969893  153.757390  7.889107  0.005533
  6665.490  6665.480  0.500  2.995517  153.748018  7.689057  0.005275
  6667.693  6667.680  0.500  3.005417  153.759219  7.613868  0.005291
  6669.908  6669.900  0.500  2.998533  153.766578  7.666829  0.005151
  6672.161  6672.150  0.500  2.979559  153.757199  7.813206  0.005126
  6674.421  6674.410  0.500  2.960592  153.745030  7.962188  0.005175
  6676.700  6676.690  0.500  2.948055  153.712676  8.060937  0.005312
  6678.997  6678.990  0.500  2.946224  153.717320  8.075955  0.005215
  6681.324  6681.310  0.500  2.950737  153.740729  8.040815  0.005145
  6683.662  6683.650  0.500  2.955774  153.755948  8.001210  0.005071
  6686.004  6686.000  0.500  2.962210  153.762758  7.950231  0.005122
  6688.385  6688.380  0.500  2.970253  153.743170  7.885538  0.005128
  6690.780  6690.770  0.500  2.975266  153.743814  7.846139  0.005112
  6693.200  6693.190  0.500  2.974002  153.715365  7.854611  0.005312
  6695.629  6695.620  0.500  2.965669  153.718096  7.920480  0.005294
  6698.076  6698.070  0.500  2.949891  153.690186  8.044977  0.005559
  6700.559  6700.550  0.500  2.927585  153.675064  8.225637  0.005758
  6703.047  6703.040  0.500  2.901000  153.688583  8.447987  0.006003
  6705.566  6705.550  0.500  2.872563  153.674644  8.690880  0.006355
  6708.076  6708.070  0.500  2.848478  153.683857  8.903280  0.006610
  6710.624  6710.620  0.500  2.831940  153.667388  9.050774  0.006726
  6713.204  6713.190  0.500  2.824965  153.658055  9.113573  0.006665
  6715.777  6715.770  0.500  2.828550  153.697498  9.083289  0.006722
  6718.394  6718.380  0.500  2.840886  153.641660  8.968664  0.006664
  6721.009  6721.000  0.500  2.854754  153.633050  8.844655  0.006558
  6723.662  6723.650  0.500  2.866294  153.619338  8.742387  0.006566
  6726.323  6726.310  0.500  2.875376  153.606738  8.662643  0.006364
  6729.002  6728.990  0.500  2.881309  153.590962  8.610510  0.006352
  6731.700  6731.690  0.500  2.883283  153.554135  8.591476  0.006470
  6734.418  6734.410  0.500  2.881747  153.556809  8.604833  0.006346
  6737.165  6737.150  0.500  2.878150  153.527561  8.634196  0.006407
  6739.908  6739.900  0.500  2.874692  153.506238  8.662899  0.006572
  6742.689  6742.680  0.500  2.869878  153.482880  8.703374  0.006497
  6745.481  6745.470  0.500  2.863474  153.454030  8.757644  0.006574
  6748.297  6748.290  0.500  2.857411  153.416402  8.808746  0.006615
  6751.131  6751.120  0.500  2.851810  153.412016  8.857967  0.006799
  6753.990  6753.970  0.500  2.844085  153.408205  8.926436  0.006922
  6756.862  6756.850  0.500  2.834337  153.413247  9.014173  0.007045
  6759.753  6759.740  0.500  2.825290  153.367866  9.093402  0.007138
  6762.660  6762.650  0.500  2.817839  153.334538  9.159420  0.007232
  6765.582  6765.570  0.500  2.813501  153.310835  9.197823  0.007174
  6768.536  6768.520  0.500  2.811479  153.258376  9.213285  0.007268
  6771.497  6771.490  0.500  2.806826  153.235767  9.254882  0.007248
  6774.485  6774.470  0.500  2.797096  153.228166  9.344914  0.007425
  6777.488  6777.480  0.500  2.784216  153.228143  9.466054  0.007639
  6780.516  6780.500  0.500  2.772593  153.224186  9.576467  0.007905
  6783.559  6783.550  0.500  2.764047  153.191542  9.656603  0.007929
  6786.632  6786.610  0.500  2.758937  153.176412  9.705119  0.008209
  6789.705  6789.690  0.500  2.756416  153.169910  9.729204  0.008421
  6792.804  6792.790  0.500  2.755467  153.104461  9.734279  0.008479
  6795.940  6795.910  0.500  2.755707  150.569354  9.570804  0.008393
  6799.063  6799.050  0.500  2.756852  152.593616  9.688373  0.008453
  6802.214  6802.200  0.500  2.758705  152.698403  9.677073  0.008687
