# XDI/1.0 BlueSky/1.10.0 BMM/2023-1.0-py310-tiled
# Beamline.name: BMM (06BM) -- Beamline for Materials Measurement (NIST)
# Beamline.xray_source: NSLS-II three-pole wiggler
# Beamline.collimation: paraboloid mirror, 5 nm Rh on 30 nm Pt
# Beamline.focusing: not in use
# Beamline.harmonic_rejection: flat mirror, Si stripe, pitch = 7.0 mrad relative to beam
# Beamline.software: Bluesky 1.10.0, Ophyd 1.7.0, DataBroker 2.0.0b13, Python 3.10.8, 2023-1.0-py310-tiled
# Detector.I0: 10 cm N2
# Detector.I1: 25 cm N2
# Detector.I2: 25 cm N2
# Element.symbol: Mn
# Element.edge: K
# Element.reference: Mn
# Element.reference_material: Mn metal powder
# Facility.name: NSLS-II
# Facility.energy: 3.0
# Facility.current: 400.5
# Facility.mode: top-off
# Facility.GUP: 123456
# Facility.SAF: 301027
# Facility.cycle: 2023-2
# Mono.name: Si(111)
# Mono.d_spacing: 3.1351860
# Mono.encoder_resolution: 0.0000050 deg/ct
# Mono.angle_offset: 16.0754326 deg
# Mono.scan_mode: pseudo channel cut
# Mono.scan_type: step
# Mono.direction: forward in energy
# Sample.name: CaMnSiO3(OH)(OH)
# Sample.prep: PEG pellet
# Sample.x: 123.848 mm
# Sample.y: 114.690 mm
# Sample.SDD_position: 205.000 mm
# Scan.experimenters: Bruce Ravel
# Scan.edge_energy: 6539.0
# Scan.start_time: 2023-05-08T11:54:45
# Scan.end_time: 2023-05-08T12:02:39
# Scan.transient_id: 75372
# Scan.uid: 18507fd3-c928-485e-876b-9c4d8e591d94
# Scan.plot_hint: ln(I0/It)  --  ln($5/$6)
# Column.1: energy eV
# Column.2: requested_energy eV
# Column.3: measurement_time seconds
# Column.4: xmu 
# Column.5: I0 nA
# Column.6: It nA
# Column.7: Ir nA
# ///////////
# Olmite, N'Chwanning II Mine, Kuruma, Kalahari Manganese Field, Northoern Cape, SA
# -----------
# energy  requested_energy  measurement_time  xmu  I0  It  Ir
  6338.998  6339.000  0.500  2.607968  150.794465  11.111158  0.571176
  6349.010  6349.000  0.500  2.593113  151.006838  11.293327  0.588383
  6359.016  6359.000  0.500  2.578348  151.244025  11.479317  0.605923
  6369.013  6369.000  0.500  2.564067  151.496717  11.663876  0.624007
  6379.048  6379.000  0.500  2.550005  151.718507  11.846370  0.641566
  6389.013  6389.000  0.500  2.535864  151.915158  12.030653  0.659986
  6399.012  6399.000  0.500  2.521289  152.103402  12.222413  0.679499
  6409.020  6409.000  0.500  2.507526  152.270301  12.405392  0.698554
  6419.017  6419.000  0.500  2.493930  152.498601  12.594059  0.718440
  6429.017  6429.000  0.500  2.480267  152.625684  12.777950  0.737907
  6439.011  6439.000  0.500  2.466290  152.770487  12.970097  0.758127
  6449.009  6449.000  0.500  2.452633  150.124736  12.920733  0.764244
  6459.015  6459.000  0.500  2.439156  152.677259  13.318716  0.797080
  6469.012  6469.000  0.500  2.426133  153.270861  13.545762  0.819943
  6479.011  6479.000  0.500  2.412597  153.352371  13.737659  0.840561
  6488.987  6489.000  0.500  2.399732  153.538106  13.932399  0.860985
  6498.989  6499.000  0.500  2.386782  153.616795  14.121231  0.879886
  6508.987  6509.000  0.500  2.374144  153.784217  14.316412  0.896879
  6510.993  6511.000  0.500  2.371759  153.811767  14.353173  0.899874
  6512.987  6513.000  0.500  2.369253  153.848561  14.392618  0.901919
  6514.992  6515.000  0.500  2.366947  153.853790  14.426345  0.904071
  6516.992  6517.000  0.500  2.364587  153.894860  14.464285  0.905780
  6518.993  6519.000  0.500  2.362152  153.932507  14.503095  0.906575
  6520.997  6521.000  0.500  2.359899  153.957814  14.538195  0.906659
  6522.994  6523.000  0.500  2.357853  153.970934  14.569212  0.905242
  6525.000  6525.000  0.500  2.355873  153.977362  14.598700  0.902772
  6526.996  6527.000  0.500  2.353926  153.988543  14.628208  0.897713
  6528.998  6529.000  0.500  2.352361  154.028956  14.654965  0.889656
  6529.283  6529.300  0.500  2.351965  154.028079  14.660689  0.888275
  6529.583  6529.600  0.500  2.352164  154.033245  14.658270  0.885388
  6529.884  6529.900  0.500  2.351732  154.026192  14.663933  0.884003
  6530.183  6530.200  0.500  2.351264  154.019526  14.670158  0.881692
  6530.485  6530.500  0.500  2.351031  154.023193  14.673930  0.879634
  6530.784  6530.800  0.500  2.351296  154.024727  14.670189  0.876957
  6531.086  6531.100  0.500  2.350780  154.022589  14.677557  0.874330
  6531.387  6531.400  0.500  2.350774  154.027937  14.678157  0.871198
  6531.687  6531.700  0.500  2.350601  154.030638  14.680947  0.867913
  6531.988  6532.000  0.500  2.350763  154.035438  14.679028  0.863794
  6532.290  6532.300  0.500  2.350337  154.019688  14.683779  0.860190
  6532.590  6532.600  0.500  2.350161  154.028038  14.687166  0.855736
  6532.888  6532.900  0.500  2.349974  154.025051  14.689621  0.851085
  6533.184  6533.200  0.500  2.349752  154.023862  14.692774  0.845923
  6533.487  6533.500  0.500  2.349621  154.009816  14.693352  0.840087
  6533.787  6533.800  0.500  2.349731  154.016258  14.692347  0.833024
  6534.089  6534.100  0.500  2.349733  154.011307  14.691855  0.825743
  6534.392  6534.400  0.500  2.349688  154.003044  14.691727  0.817009
  6534.691  6534.700  0.500  2.349912  153.997332  14.687883  0.807556
  6534.996  6535.000  0.500  2.350147  154.006913  14.685348  0.795491
  6535.294  6535.300  0.500  2.350141  153.991712  14.683996  0.782064
  6535.594  6535.600  0.500  2.350461  153.997521  14.679842  0.766201
  6535.896  6535.900  0.500  2.350488  153.998862  14.679584  0.747172
  6536.196  6536.200  0.500  2.350691  153.994175  14.676150  0.723869
  6536.493  6536.500  0.500  2.351329  154.002045  14.667540  0.694162
  6536.791  6536.800  0.500  2.351766  153.988269  14.659825  0.654934
  6537.093  6537.100  0.500  2.352493  153.995658  14.649863  0.601720
  6537.392  6537.400  0.500  2.353228  153.996666  14.639197  0.531790
  6537.695  6537.700  0.500  2.354590  153.994426  14.619070  0.445346
  6537.992  6538.000  0.500  2.356564  153.986209  14.589448  0.352715
  6538.298  6538.300  0.500  2.360130  153.977383  14.536694  0.265991
  6538.596  6538.600  0.500  2.365510  153.974288  14.458399  0.202243
  6538.897  6538.900  0.500  2.373676  153.978222  14.341178  0.160339
  6539.199  6539.200  0.500  2.383059  153.978535  14.207275  0.134004
  6539.498  6539.500  0.500  2.388624  153.979749  14.128550  0.116222
  6539.794  6539.800  0.500  2.389162  153.980718  14.121034  0.103563
  6540.095  6540.100  0.500  2.385112  153.984218  14.178665  0.093440
  6540.392  6540.400  0.500  2.379319  153.969939  14.259719  0.085435
  6540.696  6540.700  0.500  2.374437  153.965604  14.329103  0.078587
  6540.993  6541.000  0.500  2.371302  153.966471  14.374166  0.073515
  6541.297  6541.300  0.500  2.370604  153.968568  14.384407  0.070183
  6541.598  6541.600  0.500  2.371560  153.960050  14.369869  0.068187
  6541.902  6541.900  0.500  2.373434  153.959708  14.342924  0.067542
  6542.199  6542.200  0.500  2.376776  153.959676  14.295063  0.067129
  6542.500  6542.500  0.500  2.382074  153.972988  14.220758  0.066119
  6542.801  6542.800  0.500  2.389569  153.980288  14.115243  0.064146
  6543.101  6543.100  0.500  2.399931  153.978639  13.969588  0.060957
  6543.397  6543.400  0.500  2.413825  153.980465  13.777007  0.057208
  6543.698  6543.700  0.500  2.433719  153.980412  13.505630  0.053026
  6543.995  6544.000  0.500  2.461297  153.987451  13.138852  0.048934
  6544.296  6544.300  0.500  2.498418  153.982002  12.659621  0.044720
  6544.598  6544.600  0.500  2.545922  153.974659  12.071723  0.041182
  6544.898  6544.900  0.500  2.600578  153.972614  11.429489  0.037828
  6545.200  6545.200  0.500  2.658989  153.978633  10.781421  0.034716
  6545.501  6545.500  0.500  2.715733  153.973504  10.186343  0.032008
  6545.801  6545.800  0.500  2.767179  153.964430  9.674970  0.029251
  6546.098  6546.100  0.500  2.812828  153.963747  9.243207  0.026793
  6546.397  6546.400  0.500  2.853408  153.968606  8.875907  0.024269
  6546.700  6546.700  0.500  2.889836  153.971567  8.558557  0.022036
  6546.998  6547.000  0.500  2.922370  153.980966  8.285102  0.020067
  6547.295  6547.300  0.500  2.951501  153.976353  8.046993  0.018029
  6547.597  6547.600  0.500  2.979004  153.973653  7.828548  0.016382
  6547.900  6547.900  0.500  3.006461  153.955135  7.615613  0.014813
  6548.199  6548.200  0.500  3.034528  153.946390  7.404412  0.013194
  6548.502  6548.500  0.500  3.064012  153.961284  7.189985  0.011959
  6548.800  6548.800  0.500  3.096630  153.942489  6.958394  0.010853
  6549.098  6549.100  0.500  3.133805  153.943502  6.704512  0.009582
  6549.401  6549.400  0.500  3.176314  153.945220  6.425552  0.008432
  6549.697  6549.700  0.500  3.221578  153.944834  6.141176  0.007642
  6549.998  6550.000  0.500  3.267352  153.933926  5.865989  0.006715
  6550.296  6550.300  0.500  3.311769  153.934489  5.611162  0.006021
  6550.601  6550.600  0.500  3.352554  153.922789  5.386507  0.005392
  6550.903  6550.900  0.500  3.389582  153.920509  5.190628  0.004918
  6551.204  6551.200  0.500  3.419907  153.918457  5.035516  0.004448
  6551.501  6551.500  0.500  3.442662  153.918855  4.922241  0.004047
  6551.799  6551.800  0.500  3.455556  153.911979  4.858963  0.003797
  6552.097  6552.100  0.500  3.457090  153.910160  4.851455  0.003554
  6552.398  6552.400  0.500  3.445471  153.901824  4.907888  0.003417
  6552.700  6552.700  0.500  3.419565  153.895173  5.036474  0.003183
  6552.996  6553.000  0.500  3.382019  153.897567  5.229253  0.003203
  6553.303  6553.300  0.500  3.339400  153.889574  5.456650  0.003031
  6553.605  6553.600  0.500  3.298098  153.891520  5.686814  0.003101
  6553.903  6553.900  0.500  3.263835  153.879986  5.884597  0.003044
  6554.204  6554.200  0.500  3.236268  153.881721  6.049139  0.002988
  6554.500  6554.500  0.500  3.215705  153.897866  6.175465  0.002972
  6554.798  6554.800  0.500  3.199606  153.885032  6.275167  0.002920
  6555.097  6555.100  0.500  3.185684  153.872445  6.362621  0.002883
  6555.399  6555.400  0.500  3.170531  154.212463  6.474037  0.002946
  6555.697  6555.700  0.500  3.153334  154.439747  6.596043  0.003021
  6555.999  6556.000  0.500  3.134357  154.457943  6.723203  0.003006
  6556.305  6556.300  0.500  3.113594  154.461762  6.864428  0.003116
  6556.603  6556.600  0.500  3.093368  154.453852  7.004321  0.003210
  6556.905  6556.900  0.500  3.075707  154.444858  7.128708  0.003291
  6557.200  6557.200  0.500  3.062064  154.433429  7.226098  0.003540
  6557.500  6557.500  0.500  3.052925  154.430979  7.292326  0.003688
  6557.803  6557.800  0.500  3.047796  154.420832  7.329342  0.003769
  6558.099  6558.100  0.500  3.046031  154.414634  7.341994  0.003910
  6558.402  6558.400  0.500  3.046764  154.425393  7.337126  0.004089
  6558.699  6558.700  0.500  3.049038  154.421216  7.320258  0.004171
  6559.001  6559.000  0.500  3.051720  154.420967  7.300642  0.004286
  6559.301  6559.300  0.500  3.053291  154.419737  7.289127  0.004455
  6559.606  6559.600  0.500  3.052682  154.430086  7.294053  0.004415
  6559.903  6559.900  0.500  3.048889  154.424844  7.321524  0.004524
  6560.205  6560.200  0.500  3.042937  154.423501  7.365171  0.004593
  6560.500  6560.500  0.500  3.035887  154.416723  7.416947  0.004626
  6560.799  6560.800  0.500  3.028661  154.408101  7.470325  0.004674
  6561.098  6561.100  0.500  3.022574  154.398510  7.515468  0.004775
  6561.399  6561.400  0.500  3.017420  154.341576  7.551511  0.004746
  6561.698  6561.700  0.500  3.012405  154.199126  7.582477  0.004654
  6562.000  6562.000  0.500  3.009016  154.110857  7.603864  0.004622
  6562.301  6562.300  0.500  3.006494  154.074287  7.621251  0.004589
  6562.607  6562.600  0.500  3.005003  154.224953  7.640092  0.004654
  6562.906  6562.900  0.500  3.004415  154.333255  7.649952  0.004613
  6563.204  6563.200  0.500  3.005038  154.371249  7.647072  0.004606
  6563.505  6563.500  0.500  3.006473  154.388707  7.636969  0.004660
  6563.802  6563.800  0.500  3.008373  154.391773  7.622622  0.004518
  6564.000  6564.000  0.500  3.009845  154.392021  7.611423  0.004643
  6564.999  6564.990  0.500  3.013355  154.408811  7.585578  0.004426
  6566.004  6565.990  0.500  3.004985  154.421111  7.649941  0.004461
  6567.031  6567.010  0.500  2.986286  154.430638  7.794819  0.004462
  6568.049  6568.060  0.500  2.965244  154.412736  7.959653  0.004593
  6569.112  6569.120  0.500  2.947318  154.433863  8.104731  0.004549
  6570.194  6570.200  0.500  2.933027  154.457389  8.222642  0.004750
  6571.290  6571.300  0.500  2.919790  154.470032  8.332888  0.004827
  6572.415  6572.420  0.500  2.905547  154.477820  8.452851  0.004804
  6573.555  6573.560  0.500  2.892752  154.486601  8.562188  0.004899
  6574.711  6574.710  0.500  2.884847  154.505790  8.631209  0.004929
  6575.892  6575.890  0.500  2.883295  154.525604  8.645719  0.004838
  6577.080  6577.080  0.500  2.887203  154.545413  8.613104  0.004668
  6578.302  6578.300  0.500  2.894729  154.554584  8.549032  0.004649
  6579.534  6579.530  0.500  2.901834  154.561047  8.488862  0.004542
  6580.782  6580.780  0.500  2.905759  154.571088  8.456163  0.004392
  6582.053  6582.050  0.500  2.907945  154.581619  8.438273  0.004288
  6583.345  6583.340  0.500  2.911298  154.590987  8.410534  0.004168
  6584.651  6584.650  0.500  2.915975  154.600077  8.371780  0.003935
  6585.984  6585.980  0.500  2.921394  154.356248  8.313401  0.004061
  6587.330  6587.330  0.500  2.928197  154.589226  8.269504  0.003959
  6588.702  6588.700  0.500  2.935785  154.615723  8.208396  0.004197
  6590.084  6590.080  0.500  2.944320  154.620584  8.138891  0.004445
  6591.493  6591.490  0.500  2.954642  154.628853  8.055744  0.004407
  6592.918  6592.910  0.500  2.966418  154.641742  7.962102  0.004445
  6594.353  6594.350  0.500  2.982621  154.667263  7.835427  0.004621
  6595.818  6595.810  0.500  2.992311  154.686754  7.760847  0.004696
  6597.297  6597.290  0.500  2.987886  154.697181  7.795784  0.004901
  6598.800  6598.790  0.500  2.981493  154.710488  7.846458  0.005017
  6600.316  6600.310  0.500  2.975554  154.714965  7.893430  0.005182
  6601.861  6601.850  0.500  2.971433  154.720391  7.926303  0.005213
  6603.414  6603.410  0.500  2.968369  154.422837  7.935331  0.005258
  6604.988  6604.980  0.500  2.964833  154.745256  7.980075  0.005171
  6606.587  6606.580  0.500  2.958731  154.756050  8.029477  0.005108
  6608.196  6608.190  0.500  2.953772  154.784396  8.070868  0.005021
  6609.834  6609.830  0.500  2.950242  154.821921  8.101373  0.004924
  6611.487  6611.480  0.500  2.947449  154.824683  8.124174  0.004771
  6613.159  6613.150  0.500  2.944757  154.825875  8.146136  0.004577
  6614.843  6614.840  0.500  2.940231  154.829839  8.183304  0.004644
  6616.561  6616.550  0.500  2.933093  154.837104  8.242313  0.004642
  6618.287  6618.280  0.500  2.923785  154.832303  8.319133  0.004592
  6620.040  6620.030  0.500  2.912943  154.825257  8.409430  0.004672
  6621.798  6621.790  0.500  2.901757  154.829921  8.504290  0.004725
  6623.590  6623.580  0.500  2.890770  154.849336  8.599316  0.004821
  6625.389  6625.380  0.500  2.880860  154.877961  8.686563  0.005055
  6627.218  6627.210  0.500  2.873931  154.881851  8.747185  0.005019
  6629.065  6629.050  0.500  2.870244  154.829171  8.776505  0.005166
  6630.920  6630.910  0.500  2.868111  154.890122  8.798704  0.005221
  6632.799  6632.790  0.500  2.866321  154.914439  8.815859  0.005448
  6634.699  6634.690  0.500  2.865067  154.923749  8.827446  0.005480
  6636.614  6636.610  0.500  2.863632  154.935691  8.840802  0.005306
  6638.559  6638.550  0.500  2.861780  154.942111  8.857561  0.005206
  6640.520  6640.510  0.500  2.859897  154.934380  8.873814  0.005235
  6642.487  6642.480  0.500  2.858353  154.933552  8.887474  0.005243
  6644.488  6644.480  0.500  2.857343  154.948135  8.897294  0.005141
  6646.497  6646.490  0.500  2.856694  154.966906  8.904154  0.005202
  6648.527  6648.520  0.500  2.856854  154.964793  8.902606  0.005375
  6650.589  6650.580  0.500  2.857615  154.981410  8.896788  0.005627
  6652.659  6652.650  0.500  2.858883  154.970738  8.884901  0.005749
  6654.750  6654.740  0.500  2.860868  154.972902  8.867403  0.005812
  6656.858  6656.850  0.500  2.863474  154.957866  8.843470  0.005761
  6658.991  6658.980  0.500  2.865643  154.963935  8.824653  0.006046
  6661.126  6661.120  0.500  2.865362  154.970419  8.827506  0.005972
  6663.292  6663.290  0.500  2.863575  154.972918  8.843438  0.005903
  6665.488  6665.480  0.500  2.861181  154.965533  8.864209  0.005833
  6667.687  6667.680  0.500  2.857455  154.967993  8.897438  0.005846
  6669.907  6669.900  0.500  2.853134  154.965011  8.935793  0.005894
  6672.158  6672.150  0.500  2.848240  154.946489  8.978567  0.005885
  6674.418  6674.410  0.500  2.842685  154.948563  9.028695  0.005719
  6676.702  6676.690  0.500  2.836898  154.944641  9.080866  0.005762
  6678.995  6678.990  0.500  2.831439  154.949292  9.130855  0.005680
  6681.320  6681.310  0.500  2.826194  154.964302  9.179753  0.005787
  6683.659  6683.650  0.500  2.821355  154.966757  9.224429  0.005759
  6686.006  6686.000  0.500  2.816565  154.956449  9.268106  0.005855
  6688.383  6688.380  0.500  2.811970  154.956388  9.310788  0.005820
  6690.782  6690.770  0.500  2.807669  154.958560  9.351048  0.005902
  6693.197  6693.190  0.500  2.803450  154.934707  9.389141  0.006059
  6695.629  6695.620  0.500  2.798781  154.915565  9.431914  0.006291
  6698.077  6698.070  0.500  2.794426  154.909116  9.472688  0.006387
  6700.557  6700.550  0.500  2.790453  154.895133  9.509536  0.006543
  6703.051  6703.040  0.500  2.785561  154.902972  9.556655  0.006766
  6705.559  6705.550  0.500  2.781057  154.871423  9.597844  0.006784
  6708.082  6708.070  0.500  2.776803  154.870077  9.638676  0.006933
  6710.630  6710.620  0.500  2.772542  154.848536  9.678485  0.007031
  6713.198  6713.190  0.500  2.768467  154.846706  9.717890  0.007088
  6715.777  6715.770  0.500  2.765090  154.844203  9.750602  0.006983
  6718.388  6718.380  0.500  2.761814  154.822069  9.781204  0.007067
  6721.007  6721.000  0.500  2.758368  154.790743  9.812986  0.007122
  6723.662  6723.650  0.500  2.754634  154.783966  9.849264  0.007238
  6726.325  6726.310  0.500  2.750405  154.800310  9.892045  0.007272
  6728.995  6728.990  0.500  2.746145  154.774670  9.932633  0.007238
  6731.700  6731.690  0.500  2.742103  154.751493  9.971369  0.007268
  6734.424  6734.410  0.500  2.737939  154.743200  10.012432  0.007231
  6737.159  6737.150  0.500  2.733898  154.709674  10.050803  0.007365
  6739.910  6739.900  0.500  2.729848  154.675296  10.089347  0.007300
  6742.687  6742.680  0.500  2.726002  154.642918  10.126106  0.007307
  6745.481  6745.470  0.500  2.722786  154.586000  10.154988  0.007439
  6748.301  6748.290  0.500  2.719781  154.571524  10.184587  0.007641
  6751.129  6751.120  0.500  2.716697  154.561073  10.215362  0.007609
  6753.978  6753.970  0.500  2.714041  154.546730  10.241580  0.007827
  6756.858  6756.850  0.500  2.711105  154.520141  10.269919  0.007904
  6759.755  6759.740  0.500  2.707809  154.484140  10.301426  0.007931
  6762.662  6762.650  0.500  2.704147  154.467710  10.338124  0.007984
  6765.578  6765.570  0.500  2.700083  154.461460  10.379803  0.008045
  6768.532  6768.520  0.500  2.695806  154.404006  10.420410  0.008103
  6771.501  6771.490  0.500  2.691095  154.386404  10.468421  0.008068
  6774.481  6774.470  0.500  2.686195  154.363621  10.518292  0.008292
  6777.493  6777.480  0.500  2.681059  154.340440  10.570869  0.008395
  6780.527  6780.500  0.500  2.676341  154.330785  10.620195  0.008623
  6783.564  6783.550  0.500  2.671952  154.293924  10.664364  0.008829
  6786.624  6786.610  0.500  2.666892  154.296558  10.718640  0.008881
  6789.705  6789.690  0.500  2.661751  154.308019  10.774689  0.009111
  6792.804  6792.790  0.500  2.656353  154.214892  10.826473  0.009344
  6795.918  6795.910  0.500  2.651169  151.561488  10.695493  0.009123
