# XDI/1.0 BlueSky/1.10.0 BMM/2023-1.0-py310-tiled
# Beamline.name: BMM (06BM) -- Beamline for Materials Measurement (NIST)
# Beamline.xray_source: NSLS-II three-pole wiggler
# Beamline.collimation: paraboloid mirror, 5 nm Rh on 30 nm Pt
# Beamline.focusing: not in use
# Beamline.harmonic_rejection: flat mirror, Si stripe, pitch = 7.0 mrad relative to beam
# Beamline.software: Bluesky 1.10.0, Ophyd 1.7.0, DataBroker 2.0.0b13, Python 3.10.8, 2023-1.0-py310-tiled
# Detector.I0: 10 cm N2
# Detector.I1: 25 cm N2
# Detector.I2: 25 cm N2
# Element.symbol: Mn
# Element.edge: K
# Element.reference: Mn
# Element.reference_material: Mn metal powder
# Facility.name: NSLS-II
# Facility.energy: 3.0
# Facility.current: 400.1
# Facility.mode: top-off
# Facility.GUP: 123456
# Facility.SAF: 301027
# Facility.cycle: 2023-2
# Mono.name: Si(111)
# Mono.d_spacing: 3.1351860
# Mono.encoder_resolution: 0.0000050 deg/ct
# Mono.angle_offset: 16.0754326 deg
# Mono.scan_mode: pseudo channel cut
# Mono.scan_type: step
# Mono.direction: forward in energy
# Sample.name: MnO2
# Sample.prep: powder on tape
# Sample.x: 123.848 mm
# Sample.y: 114.690 mm
# Sample.SDD_position: 205.000 mm
# Scan.experimenters: Bruce Ravel
# Scan.edge_energy: 6539.0
# Scan.start_time: 2023-05-08T11:28:53
# Scan.end_time: 2023-05-08T11:36:52
# Scan.transient_id: 75369
# Scan.uid: e33fcfa9-e239-4062-a66d-db816c8f57ff
# Scan.plot_hint: ln(I0/It)  --  ln($5/$6)
# Column.1: energy eV
# Column.2: requested_energy eV
# Column.3: measurement_time seconds
# Column.4: xmu 
# Column.5: I0 nA
# Column.6: It nA
# Column.7: Ir nA
# ///////////
# Welcome to BMM
# -----------
# energy  requested_energy  measurement_time  xmu  I0  It  Ir
  6338.998  6339.000  0.500  2.238266  150.547991  16.054928  0.822197
  6349.008  6349.000  0.500  2.224653  150.783031  16.300395  0.846345
  6359.022  6359.000  0.500  2.210919  151.023935  16.552201  0.870775
  6368.999  6369.000  0.500  2.197721  151.274357  16.799916  0.895193
  6379.060  6379.000  0.500  2.184174  151.508408  17.055406  0.921029
  6389.003  6389.000  0.500  2.170713  151.709657  17.309498  0.946843
  6399.012  6399.000  0.500  2.157654  151.891343  17.558030  0.972954
  6409.018  6409.000  0.500  2.144568  152.085875  17.812085  0.999741
  6419.018  6419.000  0.500  2.131638  152.319835  18.071657  1.027402
  6429.019  6429.000  0.500  2.118498  152.453047  18.326702  1.054866
  6439.018  6439.000  0.500  2.105788  152.608192  18.580005  1.082514
  6449.014  6449.000  0.500  2.092580  149.994637  18.504601  1.091524
  6459.006  6459.000  0.500  2.079690  152.528201  19.061281  1.137306
  6469.014  6469.000  0.500  2.066946  153.118330  19.380461  1.169831
  6479.013  6479.000  0.500  2.054346  153.202044  19.636914  1.198335
  6490.600  6489.000  0.500  2.041645  153.058679  19.869311  1.225275
  6498.986  6499.000  0.500  2.030717  153.511265  20.147035  1.252679
  6508.978  6509.000  0.500  2.018794  153.669138  20.409647  1.275471
  6510.986  6511.000  0.500  2.016222  153.708879  20.467500  1.279535
  6512.981  6513.000  0.500  2.013855  153.737881  20.519881  1.282972
  6514.987  6515.000  0.500  2.011708  153.743101  20.564686  1.285337
  6516.990  6517.000  0.500  2.009644  153.793086  20.613877  1.287200
  6518.990  6519.000  0.500  2.007362  153.845683  20.668032  1.289176
  6520.992  6521.000  0.500  2.004780  153.873645  20.725233  1.289853
  6522.990  6523.000  0.500  2.002723  153.888543  20.769909  1.287290
  6524.997  6525.000  0.500  2.000821  153.907460  20.812019  1.284136
  6526.992  6527.000  0.500  1.998841  153.927228  20.855941  1.277112
  6528.998  6529.000  0.500  1.997098  153.967996  20.897861  1.265664
  6529.283  6529.300  0.500  1.996639  153.974975  20.908404  1.263534
  6529.584  6529.600  0.500  1.996752  153.993120  20.908499  1.260399
  6529.882  6529.900  0.500  1.996409  153.993508  20.915728  1.257187
  6530.183  6530.200  0.500  1.996100  154.001357  20.923261  1.254765
  6530.485  6530.500  0.500  1.996324  154.001348  20.918582  1.250833
  6530.784  6530.800  0.500  1.995981  154.015470  20.927673  1.247831
  6531.088  6531.100  0.500  1.995642  154.011570  20.934228  1.243779
  6531.389  6531.400  0.500  1.995399  154.018213  20.940230  1.239550
  6531.691  6531.700  0.500  1.995010  154.018307  20.948387  1.235163
  6531.990  6532.000  0.500  1.994906  154.021999  20.951073  1.229377
  6532.294  6532.300  0.500  1.994820  154.028063  20.953691  1.224376
  6532.590  6532.600  0.500  1.994688  154.039088  20.957965  1.218233
  6532.889  6532.900  0.500  1.995160  154.029846  20.946816  1.210733
  6533.188  6533.200  0.500  1.995058  154.040388  20.950391  1.202937
  6533.487  6533.500  0.500  1.994642  154.038420  20.958828  1.194837
  6533.785  6533.800  0.500  1.994502  154.044926  20.962659  1.184976
  6534.089  6534.100  0.500  1.994258  154.051930  20.968722  1.174789
  6534.389  6534.400  0.500  1.994119  154.040255  20.970043  1.162923
  6534.692  6534.700  0.500  1.994087  154.038154  20.970427  1.149006
  6534.992  6535.000  0.500  1.994462  154.043137  20.963238  1.132085
  6535.294  6535.300  0.500  1.994538  154.034916  20.960528  1.112294
  6535.594  6535.600  0.500  1.994336  154.030202  20.964128  1.089997
  6535.894  6535.900  0.500  1.994714  154.036298  20.957033  1.062267
  6536.194  6536.200  0.500  1.994643  154.043359  20.959479  1.028731
  6536.493  6536.500  0.500  1.994838  154.052726  20.956668  0.986012
  6536.793  6536.800  0.500  1.994998  154.050587  20.953018  0.928257
  6537.091  6537.100  0.500  1.995628  154.063565  20.941585  0.851486
  6537.399  6537.400  0.500  1.996760  154.062821  20.917807  0.748147
  6537.697  6537.700  0.500  1.998060  154.062674  20.890595  0.624637
  6537.998  6538.000  0.500  2.000152  154.057140  20.846201  0.490543
  6538.296  6538.300  0.500  2.003284  154.053563  20.780529  0.370927
  6538.600  6538.600  0.500  2.008480  154.045719  20.671780  0.281835
  6538.900  6538.900  0.500  2.014694  154.041297  20.543127  0.225121
  6539.199  6539.200  0.500  2.020913  154.047165  20.416555  0.189732
  6539.499  6539.500  0.500  2.025964  154.045079  20.313404  0.164877
  6539.796  6539.800  0.500  2.029502  154.051856  20.242560  0.146797
  6540.095  6540.100  0.500  2.031489  154.057531  20.203120  0.132012
  6540.392  6540.400  0.500  2.032343  154.047855  20.184600  0.119713
  6540.692  6540.700  0.500  2.033019  154.043167  20.170343  0.109797
  6540.995  6541.000  0.500  2.034327  154.042739  20.143924  0.102474
  6541.294  6541.300  0.500  2.037123  154.033102  20.086425  0.097436
  6541.598  6541.600  0.500  2.039970  154.032127  20.029191  0.094863
  6541.898  6541.900  0.500  2.042477  154.487475  20.038110  0.094093
  6542.201  6542.200  0.500  2.043180  154.544012  20.031350  0.093675
  6542.498  6542.500  0.500  2.042519  154.588937  20.050422  0.092907
  6542.799  6542.800  0.500  2.041514  154.608081  20.073067  0.090704
  6543.100  6543.100  0.500  2.041414  154.610152  20.075343  0.086903
  6543.397  6543.400  0.500  2.041300  154.623911  20.079422  0.082483
  6543.698  6543.700  0.500  2.041703  154.624930  20.071460  0.077915
  6543.997  6544.000  0.500  2.042946  154.624227  20.046450  0.073687
  6544.298  6544.300  0.500  2.045036  154.620713  20.004142  0.070184
  6544.598  6544.600  0.500  2.047564  154.617011  19.953149  0.067601
  6544.903  6544.900  0.500  2.050853  154.624776  19.888624  0.065187
  6545.202  6545.200  0.500  2.055500  154.624961  19.796453  0.063369
  6545.501  6545.500  0.500  2.060795  154.608147  19.689762  0.061043
  6545.801  6545.800  0.500  2.067476  154.623611  19.560601  0.058428
  6546.102  6546.100  0.500  2.076992  154.612532  19.373967  0.055145
  6546.401  6546.400  0.500  2.088651  154.607996  19.148833  0.051565
  6546.699  6546.700  0.500  2.103453  154.611601  18.867925  0.047798
  6546.998  6547.000  0.500  2.121664  154.611287  18.527385  0.043996
  6547.294  6547.300  0.500  2.143839  154.619624  18.122036  0.040157
  6547.597  6547.600  0.500  2.171557  154.620146  17.626689  0.036117
  6547.896  6547.900  0.500  2.204185  154.626237  17.061522  0.032425
  6548.199  6548.200  0.500  2.240540  154.621330  16.451872  0.028902
  6548.499  6548.500  0.500  2.277869  154.622721  15.849202  0.025884
  6548.802  6548.800  0.500  2.316545  154.599714  15.245645  0.022892
  6549.098  6549.100  0.500  2.353897  154.610051  14.687688  0.020358
  6549.399  6549.400  0.500  2.388892  154.604008  14.182026  0.018169
  6549.697  6549.700  0.500  2.419329  154.609122  13.757317  0.016260
  6549.997  6550.000  0.500  2.446114  154.606407  13.393481  0.014678
  6550.300  6550.300  0.500  2.469873  154.607527  13.079122  0.013295
  6550.601  6550.600  0.500  2.491765  154.605826  12.795755  0.012140
  6550.903  6550.900  0.500  2.513694  154.607870  12.518378  0.011071
  6551.204  6551.200  0.500  2.535934  154.609118  12.243145  0.009866
  6551.504  6551.500  0.500  2.558345  154.602570  11.971305  0.009169
  6551.799  6551.800  0.500  2.580651  154.600549  11.707078  0.008490
  6552.100  6552.100  0.500  2.602701  154.598959  11.451641  0.007819
  6552.396  6552.400  0.500  2.624324  154.593003  11.206254  0.007204
  6552.698  6552.700  0.500  2.645105  154.589963  10.975557  0.006664
  6552.996  6553.000  0.500  2.665542  154.587495  10.753357  0.006128
  6553.300  6553.300  0.500  2.685002  154.592433  10.546464  0.005761
  6553.605  6553.600  0.500  2.703206  154.594722  10.356359  0.005384
  6553.903  6553.900  0.500  2.721530  154.578586  10.167258  0.004962
  6554.204  6554.200  0.500  2.740328  154.588046  9.978533  0.004787
  6554.500  6554.500  0.500  2.760018  154.585465  9.783811  0.004468
  6554.800  6554.800  0.500  2.781094  154.596295  9.580433  0.004191
  6555.098  6555.100  0.500  2.803324  154.601106  9.370101  0.004039
  6555.395  6555.400  0.500  2.825142  154.597237  9.167652  0.004030
  6555.697  6555.700  0.500  2.846709  154.600095  8.972216  0.004013
  6555.997  6556.000  0.500  2.867579  154.606413  8.787267  0.003942
  6556.303  6556.300  0.500  2.886588  154.612789  8.622158  0.003951
  6556.603  6556.600  0.500  2.903285  154.596147  8.478484  0.003951
  6556.905  6556.900  0.500  2.917085  154.600790  8.362530  0.004040
  6557.202  6557.200  0.500  2.928509  154.584208  8.266659  0.004001
  6557.504  6557.500  0.500  2.937840  154.578091  8.189553  0.004091
  6557.799  6557.800  0.500  2.945997  154.584070  8.123334  0.004186
  6558.098  6558.100  0.500  2.953483  154.587880  8.062950  0.004314
  6558.396  6558.400  0.500  2.960192  154.581942  8.008732  0.004380
  6558.699  6558.700  0.500  2.966337  154.592824  7.960231  0.004548
  6558.999  6559.000  0.500  2.972447  154.584059  7.911290  0.004589
  6559.301  6559.300  0.500  2.977636  154.582330  7.870255  0.004649
  6559.606  6559.600  0.500  2.982439  154.598206  7.833349  0.004723
  6559.904  6559.900  0.500  2.984109  154.583020  7.819513  0.004777
  6560.207  6560.200  0.500  2.983296  154.585594  7.826003  0.004955
  6560.504  6560.500  0.500  2.979765  154.582233  7.853514  0.005043
  6560.801  6560.800  0.500  2.973616  154.590299  7.902369  0.004862
  6561.100  6561.100  0.500  2.964978  154.577062  7.970241  0.004959
  6561.397  6561.400  0.500  2.954806  154.510847  8.048283  0.004902
  6561.698  6561.700  0.500  2.942893  154.377915  8.137722  0.004904
  6562.000  6562.000  0.500  2.930070  154.286895  8.237886  0.005105
  6562.303  6562.300  0.500  2.916872  154.267303  8.346274  0.005128
  6562.604  6562.600  0.500  2.904292  154.427577  8.460709  0.005168
  6562.908  6562.900  0.500  2.891657  154.533588  8.574171  0.005152
  6563.205  6563.200  0.500  2.881169  154.549429  8.665463  0.005242
  6563.503  6563.500  0.500  2.870857  154.571631  8.756539  0.005201
  6563.800  6563.800  0.500  2.861297  154.583788  8.841348  0.005267
  6564.000  6564.000  0.500  2.855087  154.587891  8.896659  0.005100
  6564.999  6564.990  0.500  2.832837  154.607327  9.097972  0.005356
  6566.006  6565.990  0.500  2.816210  154.604146  9.250319  0.005201
  6567.035  6567.010  0.500  2.802800  154.609186  9.375508  0.005231
  6568.051  6568.060  0.500  2.792211  154.580434  9.473550  0.005212
  6569.117  6569.120  0.500  2.788688  154.599363  9.508150  0.005333
  6570.192  6570.200  0.500  2.791629  154.613615  9.481098  0.005433
  6571.297  6571.300  0.500  2.799057  154.626452  9.411716  0.005442
  6572.415  6572.420  0.500  2.806108  154.630993  9.345860  0.005377
  6573.563  6573.560  0.500  2.806757  154.642622  9.340496  0.005229
  6574.709  6574.710  0.500  2.796643  154.655965  9.436267  0.005357
  6575.892  6575.890  0.500  2.776048  154.673864  9.633736  0.005376
  6577.084  6577.080  0.500  2.751016  154.681125  9.878393  0.005343
  6578.299  6578.300  0.500  2.725458  154.696946  10.135158  0.005390
  6579.539  6579.530  0.500  2.701231  154.694950  10.383564  0.005348
  6580.786  6580.780  0.500  2.679331  154.692367  10.613298  0.005436
  6582.052  6582.050  0.500  2.659943  154.700175  10.821614  0.005301
  6583.341  6583.340  0.500  2.641938  154.705146  11.018580  0.005175
  6584.648  6584.650  0.500  2.625658  154.713817  11.200060  0.005288
  6585.984  6585.980  0.500  2.611902  154.462187  11.336725  0.005326
  6587.334  6587.330  0.500  2.601503  154.676972  11.471163  0.005467
  6588.702  6588.700  0.500  2.595129  154.692977  11.545700  0.005634
  6590.084  6590.080  0.500  2.592467  154.696343  11.576729  0.005905
  6591.496  6591.490  0.500  2.593331  154.686417  11.565996  0.006098
  6592.914  6592.910  0.500  2.596767  154.706207  11.527798  0.006363
  6594.353  6594.350  0.500  2.601957  154.709764  11.468379  0.006483
  6595.818  6595.810  0.500  2.609841  154.713921  11.378628  0.006729
  6597.295  6597.290  0.500  2.621517  154.718628  11.246882  0.006864
  6598.800  6598.790  0.500  2.632184  154.722914  11.127861  0.007080
  6600.316  6600.310  0.500  2.641421  154.711715  11.024746  0.007108
  6601.859  6601.850  0.500  2.650857  154.706163  10.920811  0.007083
  6603.412  6603.410  0.500  2.659318  154.395633  10.807068  0.006902
  6604.990  6604.980  0.500  2.666027  154.695947  10.755683  0.006862
  6606.585  6606.580  0.500  2.670399  154.694048  10.708633  0.006783
  6608.196  6608.190  0.500  2.674029  154.708406  10.670823  0.006479
  6609.834  6609.830  0.500  2.677073  154.726827  10.639656  0.006345
  6611.489  6611.480  0.500  2.679380  154.723578  10.614911  0.006087
  6613.157  6613.150  0.500  2.680208  154.716342  10.605632  0.005900
  6614.849  6614.840  0.500  2.679772  154.705867  10.609536  0.005934
  6616.559  6616.550  0.500  2.678494  154.704421  10.623013  0.005752
  6618.291  6618.280  0.500  2.675803  154.674396  10.649572  0.005795
  6620.039  6620.030  0.500  2.672238  154.674853  10.687627  0.005857
  6621.798  6621.790  0.500  2.668064  154.659446  10.731272  0.005890
  6623.587  6623.580  0.500  2.663501  154.672027  10.781217  0.005990
  6625.387  6625.380  0.500  2.659182  154.668303  10.827628  0.006257
  6627.214  6627.210  0.500  2.655257  154.672326  10.870487  0.006216
  6629.061  6629.050  0.500  2.651826  154.617136  10.903962  0.006343
  6630.919  6630.910  0.500  2.649217  154.653443  10.935008  0.006510
  6632.805  6632.790  0.500  2.647059  154.663559  10.959351  0.006623
  6634.699  6634.690  0.500  2.645919  154.672627  10.972498  0.006588
  6636.621  6636.610  0.500  2.644550  154.680811  10.988110  0.006641
  6638.561  6638.550  0.500  2.642252  154.667082  11.012408  0.006469
  6640.517  6640.510  0.500  2.638159  154.652652  11.056551  0.006322
  6642.487  6642.480  0.500  2.632012  154.661966  11.125391  0.006561
  6644.493  6644.480  0.500  2.625042  154.657790  11.202901  0.006524
  6646.493  6646.490  0.500  2.617700  154.646937  11.284665  0.006734
  6648.529  6648.520  0.500  2.610013  154.639788  11.371219  0.006895
  6650.591  6650.580  0.500  2.602820  154.643532  11.453584  0.007103
  6652.657  6652.650  0.500  2.596694  154.637438  11.523510  0.007375
  6654.750  6654.740  0.500  2.590983  154.634057  11.589253  0.007439
  6656.860  6656.850  0.500  2.587129  154.618715  11.632854  0.007609
  6658.989  6658.980  0.500  2.583890  154.621827  11.670832  0.007782
  6661.126  6661.120  0.500  2.581184  154.620821  11.702379  0.007832
  6663.302  6663.290  0.500  2.578587  154.611195  11.732076  0.007891
  6665.490  6665.480  0.500  2.575815  154.583278  11.762514  0.007923
  6667.691  6667.680  0.500  2.571972  154.577290  11.807349  0.007783
  6669.907  6669.900  0.500  2.567429  154.576493  11.861054  0.007718
  6672.156  6672.150  0.500  2.562091  154.563786  11.923550  0.007537
  6674.418  6674.410  0.500  2.556217  154.550942  11.992800  0.007580
  6676.696  6676.690  0.500  2.550156  154.535808  12.064529  0.007410
  6678.993  6678.990  0.500  2.544800  154.553605  12.130714  0.007576
  6681.322  6681.310  0.500  2.540916  154.548209  12.177498  0.007502
  6683.660  6683.650  0.500  2.538049  154.551785  12.212742  0.007579
  6686.002  6686.000  0.500  2.536387  154.531518  12.231460  0.007520
  6688.387  6688.380  0.500  2.535337  154.533221  12.244443  0.007664
  6690.782  6690.770  0.500  2.534705  154.517032  12.250894  0.007704
  6693.200  6693.190  0.500  2.534630  154.484419  12.249227  0.007895
  6695.629  6695.620  0.500  2.533977  154.488915  12.257592  0.008100
  6698.081  6698.070  0.500  2.532990  154.472808  12.268410  0.008103
  6700.559  6700.550  0.500  2.531667  154.456668  12.283369  0.008355
  6703.049  6703.040  0.500  2.530767  154.450639  12.293949  0.008439
  6705.551  6705.550  0.500  2.529150  154.428374  12.312076  0.008720
  6708.082  6708.070  0.500  2.527396  154.426792  12.333565  0.008904
  6710.628  6710.620  0.500  2.525217  154.411596  12.359251  0.008860
  6713.200  6713.190  0.500  2.522680  154.412373  12.390704  0.008851
  6715.779  6715.770  0.500  2.519743  154.395749  12.425809  0.009072
  6718.384  6718.380  0.500  2.516592  154.369306  12.462895  0.008992
  6721.014  6721.000  0.500  2.513555  154.367117  12.500620  0.008987
  6723.660  6723.650  0.500  2.510125  154.350665  12.542237  0.009155
  6726.318  6726.310  0.500  2.506518  154.361000  12.588399  0.009074
  6729.000  6728.990  0.500  2.501787  154.336163  12.646066  0.009068
  6731.698  6731.690  0.500  2.495887  154.313646  12.719047  0.009178
  6734.422  6734.410  0.500  2.489638  154.290031  12.796808  0.009197
  6737.163  6737.150  0.500  2.483047  154.251338  12.878205  0.009300
  6739.907  6739.900  0.500  2.476451  154.238695  12.962362  0.009383
  6742.685  6742.680  0.500  2.470307  154.192865  13.038380  0.009506
  6745.481  6745.470  0.500  2.464469  154.176426  13.113325  0.009605
  6748.301  6748.290  0.500  2.459150  154.626558  13.221743  0.009712
  6751.131  6751.120  0.500  2.454112  154.656286  13.291077  0.009962
  6753.978  6753.970  0.500  2.449640  154.665568  13.351458  0.010181
  6756.858  6756.850  0.500  2.444575  154.674469  13.420024  0.010221
  6759.753  6759.740  0.500  2.440226  154.659499  13.477213  0.010290
  6762.666  6762.650  0.500  2.435940  154.630871  13.532583  0.010414
  6765.580  6765.570  0.500  2.431425  154.605584  13.591600  0.010376
  6768.532  6768.520  0.500  2.427231  154.585462  13.646949  0.010489
  6771.497  6771.490  0.500  2.422464  154.569027  13.710700  0.010533
  6774.485  6774.470  0.500  2.418554  154.550006  13.762721  0.010712
  6777.495  6777.480  0.500  2.414581  154.532736  13.815968  0.010780
  6780.527  6780.500  0.500  2.410787  154.527814  13.868040  0.011128
  6783.563  6783.550  0.500  2.406908  154.510669  13.920402  0.011397
  6786.626  6786.610  0.500  2.403256  154.521375  13.972289  0.011569
  6789.703  6789.690  0.500  2.399589  154.517004  14.023231  0.011760
  6792.800  6792.790  0.500  2.395701  154.429261  14.069869  0.011978
  6795.926  6795.910  0.500  2.391840  151.947736  13.897329  0.011937
