# XDI/1.0 BlueSky/1.10.0 BMM/2023-1.0-py310-tiled
# Beamline.name: BMM (06BM) -- Beamline for Materials Measurement (NIST)
# Beamline.xray_source: NSLS-II three-pole wiggler
# Beamline.collimation: paraboloid mirror, 5 nm Rh on 30 nm Pt
# Beamline.focusing: not in use
# Beamline.harmonic_rejection: flat mirror, Si stripe, pitch = 7.0 mrad relative to beam
# Beamline.software: Bluesky 1.10.0, Ophyd 1.7.0, DataBroker 2.0.0b13, Python 3.10.8, 2023-1.0-py310-tiled
# Detector.I0: 10 cm N2
# Detector.I1: 25 cm N2
# Detector.I2: 25 cm N2
# Element.symbol: Mn
# Element.edge: K
# Element.reference: Mn
# Element.reference_material: Mn metal powder
# Facility.name: NSLS-II
# Facility.energy: 3.0
# Facility.current: 399.5
# Facility.mode: top-off
# Facility.GUP: 123456
# Facility.SAF: 301027
# Facility.cycle: 2023-2
# Mono.name: Si(111)
# Mono.d_spacing: 3.1351860
# Mono.encoder_resolution: 0.0000050 deg/ct
# Mono.angle_offset: 16.0754326 deg
# Mono.scan_mode: pseudo channel cut
# Mono.scan_type: step
# Mono.direction: forward in energy
# Sample.name: CaMn3Mn(Si5O15)
# Sample.prep: PEG pellet
# Sample.x: 123.848 mm
# Sample.y: 114.690 mm
# Sample.SDD_position: 205.000 mm
# Scan.experimenters: Bruce Ravel
# Scan.edge_energy: 6539.0
# Scan.start_time: 2023-05-08T12:03:15
# Scan.end_time: 2023-05-08T12:11:09
# Scan.transient_id: 75373
# Scan.uid: 52c8d306-c228-45b3-b8f8-dce8c9ddf200
# Scan.plot_hint: ln(I0/It)  --  ln($5/$6)
# Column.1: energy eV
# Column.2: requested_energy eV
# Column.3: measurement_time seconds
# Column.4: xmu 
# Column.5: I0 nA
# Column.6: It nA
# Column.7: Ir nA
# ///////////
# Rhodonite, CM5975; Franklin Mine, Sussex County, New Jersey, USA
# -----------
# energy  requested_energy  measurement_time  xmu  I0  It  Ir
  6338.999  6339.000  0.500  3.184904  150.484972  6.227402  0.320416
  6349.008  6349.000  0.500  3.167613  150.703626  6.345222  0.330847
  6359.026  6359.000  0.500  3.150688  150.939176  6.463617  0.341370
  6369.004  6369.000  0.500  3.133760  151.182164  6.584544  0.352467
  6379.015  6379.000  0.500  3.117170  151.402826  6.704466  0.363564
  6389.046  6389.000  0.500  3.100641  151.584752  6.824399  0.374695
  6399.012  6399.000  0.500  3.083525  151.778178  6.951068  0.386507
  6409.020  6409.000  0.500  3.066835  151.948850  7.076000  0.398714
  6419.015  6419.000  0.500  3.050344  152.181622  7.204679  0.411044
  6429.014  6429.000  0.500  3.033780  152.309013  7.331144  0.423537
  6439.016  6439.000  0.500  3.017451  152.450187  7.458740  0.436237
  6449.012  6449.000  0.500  3.001387  149.809451  7.448235  0.440897
  6459.010  6459.000  0.500  2.985675  152.341481  7.694066  0.460798
  6469.010  6469.000  0.500  2.969481  152.928629  7.849821  0.475358
  6479.011  6479.000  0.500  2.953935  153.021532  7.977651  0.488548
  6488.983  6489.000  0.500  2.939002  153.192356  8.106714  0.501283
  6498.986  6499.000  0.500  2.923820  153.301017  8.236566  0.513673
  6508.987  6509.000  0.500  2.909511  153.472178  8.364599  0.524591
  6510.993  6511.000  0.500  2.906759  153.488909  8.388562  0.526025
  6512.987  6513.000  0.500  2.904191  153.512364  8.411418  0.527814
  6514.989  6515.000  0.500  2.901495  153.525774  8.434861  0.528991
  6516.987  6517.000  0.500  2.899333  153.560277  8.455016  0.529976
  6518.991  6519.000  0.500  2.896810  154.046651  8.503229  0.532019
  6520.996  6521.000  0.500  2.894650  154.138577  8.526694  0.532242
  6522.988  6523.000  0.500  2.892647  154.186555  8.546449  0.531477
  6524.997  6525.000  0.500  2.891031  154.207977  8.561463  0.529695
  6526.994  6527.000  0.500  2.889831  154.238404  8.573431  0.526957
  6529.000  6529.000  0.500  2.889108  154.258668  8.580760  0.521180
  6529.285  6529.300  0.500  2.889183  154.252465  8.579771  0.520150
  6529.584  6529.600  0.500  2.889199  154.259630  8.580032  0.519125
  6529.886  6529.900  0.500  2.889628  154.248638  8.575744  0.517430
  6530.183  6530.200  0.500  2.889736  154.256950  8.575282  0.516090
  6530.485  6530.500  0.500  2.889692  154.246957  8.575103  0.514655
  6530.786  6530.800  0.500  2.889202  154.255534  8.579786  0.513183
  6531.086  6531.100  0.500  2.889404  154.253250  8.577923  0.511607
  6531.384  6531.400  0.500  2.889586  154.257604  8.576607  0.509758
  6531.685  6531.700  0.500  2.889914  154.265398  8.574226  0.507291
  6531.985  6532.000  0.500  2.890499  154.262491  8.569050  0.504536
  6532.288  6532.300  0.500  2.890732  154.269446  8.567437  0.502239
  6532.586  6532.600  0.500  2.890775  154.270550  8.567129  0.499791
  6532.888  6532.900  0.500  2.890747  154.268098  8.567232  0.497074
  6533.186  6533.200  0.500  2.890785  154.258316  8.566363  0.494026
  6533.489  6533.500  0.500  2.891163  154.250917  8.562721  0.489896
  6533.787  6533.800  0.500  2.891486  154.253964  8.560119  0.485766
  6534.091  6534.100  0.500  2.892059  154.240855  8.554493  0.481070
  6534.392  6534.400  0.500  2.892649  154.248157  8.549847  0.476148
  6534.694  6534.700  0.500  2.893123  154.242103  8.545467  0.470207
  6534.994  6535.000  0.500  2.893819  154.235759  8.539162  0.463287
  6535.296  6535.300  0.500  2.894750  154.250507  8.532034  0.455098
  6535.598  6535.600  0.500  2.895651  154.247705  8.524201  0.445095
  6535.898  6535.900  0.500  2.896594  154.252871  8.516446  0.434532
  6536.196  6536.200  0.500  2.897925  154.248831  8.504899  0.420685
  6536.493  6536.500  0.500  2.899175  154.255572  8.494644  0.403248
  6536.791  6536.800  0.500  2.900745  154.253095  8.481182  0.380344
  6537.091  6537.100  0.500  2.903054  154.259491  8.461974  0.349332
  6537.392  6537.400  0.500  2.905597  154.263429  8.440697  0.309116
  6537.692  6537.700  0.500  2.908865  154.264360  8.413210  0.259837
  6537.990  6538.000  0.500  2.913603  154.247655  8.372535  0.205160
  6538.296  6538.300  0.500  2.920842  154.240579  8.311763  0.154511
  6538.598  6538.600  0.500  2.931821  154.238816  8.220912  0.116268
  6538.899  6538.900  0.500  2.946746  154.228531  8.098583  0.091498
  6539.199  6539.200  0.500  2.963073  154.234661  7.967749  0.075832
  6539.498  6539.500  0.500  2.975357  154.234060  7.870446  0.065283
  6539.796  6539.800  0.500  2.981986  154.236046  7.818544  0.057781
  6540.097  6540.100  0.500  2.981146  154.227489  7.824678  0.052214
  6540.394  6540.400  0.500  2.974192  154.227810  7.879296  0.047598
  6540.698  6540.700  0.500  2.964102  154.235380  7.959596  0.044037
  6540.997  6541.000  0.500  2.956695  154.225162  8.018241  0.041317
  6541.301  6541.300  0.500  2.954259  154.224905  8.037784  0.039514
  6541.598  6541.600  0.500  2.956289  154.218833  8.021162  0.038352
  6541.902  6541.900  0.500  2.962189  154.233330  7.974727  0.037821
  6542.201  6542.200  0.500  2.970723  154.222139  7.906389  0.037467
  6542.503  6542.500  0.500  2.983442  154.226366  7.806676  0.036488
  6542.799  6542.800  0.500  2.999828  154.224365  7.679698  0.035021
  6543.100  6543.100  0.500  3.022838  154.237983  7.505673  0.033150
  6543.397  6543.400  0.500  3.054090  154.234720  7.274574  0.030672
  6543.698  6543.700  0.500  3.097033  154.216992  6.967996  0.027643
  6543.998  6544.000  0.500  3.153809  154.220869  6.583566  0.024762
  6544.296  6544.300  0.500  3.226872  154.220723  6.119697  0.022129
  6544.598  6544.600  0.500  3.318474  154.214116  5.583791  0.019568
  6544.901  6544.900  0.500  3.425091  154.218166  5.019235  0.016998
  6545.200  6545.200  0.500  3.545421  154.223044  4.450334  0.014704
  6545.501  6545.500  0.500  3.669073  154.227920  3.932827  0.012537
  6545.797  6545.800  0.500  3.790674  154.231532  3.482607  0.010901
  6546.100  6546.100  0.500  3.905370  154.225283  3.105094  0.009464
  6546.399  6546.400  0.500  4.015389  154.228924  2.781663  0.007913
  6546.699  6546.700  0.500  4.127934  154.250370  2.485920  0.006897
  6546.998  6547.000  0.500  4.246381  154.228470  2.207928  0.005751
  6547.292  6547.300  0.500  4.366028  154.228978  1.958954  0.004792
  6547.597  6547.600  0.500  4.479310  154.220024  1.749046  0.003954
  6547.898  6547.900  0.500  4.571879  154.221706  1.594423  0.003406
  6548.201  6548.200  0.500  4.645825  154.219893  1.480759  0.002938
  6548.502  6548.500  0.500  4.704894  154.221886  1.395843  0.002740
  6548.798  6548.800  0.500  4.761381  154.209676  1.319077  0.002444
  6549.100  6549.100  0.500  4.823617  154.204258  1.239442  0.002046
  6549.397  6549.400  0.500  4.896597  154.210327  1.152255  0.001921
  6549.695  6549.700  0.500  4.980154  154.203087  1.059838  0.001630
  6549.998  6550.000  0.500  5.074086  154.195846  0.964773  0.001293
  6550.298  6550.300  0.500  5.171277  154.195944  0.875419  0.001341
  6550.603  6550.600  0.500  5.264454  154.196804  0.797539  0.001177
  6550.905  6550.900  0.500  5.341323  154.200190  0.738547  0.001022
  6551.203  6551.200  0.500  5.388654  154.201616  0.704411  0.001029
  6551.501  6551.500  0.500  5.403869  154.194895  0.693745  0.000855
  6551.799  6551.800  0.500  5.389560  154.197134  0.703753  0.000922
  6552.100  6552.100  0.500  5.355450  154.204835  0.728209  0.000879
  6552.398  6552.400  0.500  5.307787  154.192706  0.763697  0.000852
  6552.696  6552.700  0.500  5.252727  154.191209  0.806918  0.000778
  6553.002  6553.000  0.500  5.197567  154.192785  0.852686  0.000829
  6553.302  6553.300  0.500  5.145922  154.189721  0.897863  0.000859
  6553.602  6553.600  0.500  5.102443  154.191978  0.937776  0.000797
  6553.902  6553.900  0.500  5.068785  154.192264  0.969879  0.000837
  6554.200  6554.200  0.500  5.043727  154.190807  0.994479  0.000827
  6554.504  6554.500  0.500  5.025476  154.188579  1.012782  0.000856
  6554.798  6554.800  0.500  5.012325  154.195557  1.026234  0.000766
  6555.100  6555.100  0.500  4.998221  154.191037  1.040781  0.000772
  6555.400  6555.400  0.500  4.978790  154.188409  1.061185  0.000865
  6555.701  6555.700  0.500  4.952039  154.204587  1.090069  0.000747
  6555.999  6556.000  0.500  4.916620  154.204566  1.129370  0.000719
  6556.303  6556.300  0.500  4.874038  154.194303  1.178421  0.000742
  6556.603  6556.600  0.500  4.826106  154.194742  1.236284  0.000804
  6556.902  6556.900  0.500  4.774055  154.202226  1.302401  0.000955
  6557.202  6557.200  0.500  4.723666  154.186184  1.369567  0.001040
  6557.500  6557.500  0.500  4.674379  154.189109  1.438788  0.001083
  6557.799  6557.800  0.500  4.628896  154.184628  1.505695  0.001155
  6558.098  6558.100  0.500  4.587904  154.182236  1.568674  0.001114
  6558.400  6558.400  0.500  4.551861  154.181723  1.626240  0.001210
  6558.700  6558.700  0.500  4.519977  154.183668  1.678949  0.001277
  6559.001  6559.000  0.500  4.492432  154.193877  1.725951  0.001373
  6559.303  6559.300  0.500  4.468408  154.196534  1.767949  0.001421
  6559.604  6559.600  0.500  4.447469  154.199369  1.805391  0.001494
  6559.904  6559.900  0.500  4.428234  154.184536  1.840277  0.001403
  6560.205  6560.200  0.500  4.411885  154.195256  1.870740  0.001488
  6560.498  6560.500  0.500  4.397394  154.187797  1.897955  0.001378
  6560.797  6560.800  0.500  4.384890  154.196072  1.921940  0.001549
  6561.096  6561.100  0.500  4.374934  154.178082  1.940944  0.001503
  6561.399  6561.400  0.500  4.367127  154.110538  1.955299  0.001560
  6561.699  6561.700  0.500  4.362253  153.977902  1.963161  0.001494
  6562.000  6562.000  0.500  4.360051  153.878917  1.966225  0.001578
  6562.301  6562.300  0.500  4.360419  153.844340  1.965059  0.001486
  6562.607  6562.600  0.500  4.363073  154.003107  1.961873  0.001572
  6562.908  6562.900  0.500  4.366736  154.122952  1.956221  0.001507
  6563.205  6563.200  0.500  4.372042  154.156567  1.946293  0.001319
  6563.510  6563.500  0.500  4.378944  154.167315  1.933041  0.001451
  6563.806  6563.800  0.500  4.385388  154.172911  1.920695  0.001464
  6564.003  6564.000  0.500  4.390365  154.174946  1.911184  0.001397
  6564.997  6564.990  0.500  4.409271  154.189315  1.875566  0.001309
  6566.006  6565.990  0.500  4.413687  154.200064  1.867432  0.001311
  6567.027  6567.010  0.500  4.408123  154.199517  1.877844  0.001504
  6568.082  6568.060  0.500  4.398817  154.196455  1.895362  0.001407
  6569.117  6569.120  0.500  4.383601  154.190084  1.924343  0.001431
  6570.198  6570.200  0.500  4.355641  154.204479  1.979093  0.001525
  6571.294  6571.300  0.500  4.314845  154.212998  2.061614  0.001512
  6572.423  6572.420  0.500  4.271087  154.219072  2.153914  0.001565
  6573.563  6573.560  0.500  4.234079  154.233075  2.235325  0.001650
  6574.712  6574.710  0.500  4.208439  154.245998  2.293570  0.001674
  6575.893  6575.890  0.500  4.194102  154.268476  2.327029  0.001645
  6577.086  6577.080  0.500  4.189688  154.283275  2.337548  0.001619
  6578.302  6578.300  0.500  4.196629  154.288533  2.321459  0.001543
  6579.543  6579.530  0.500  4.214094  154.279332  2.281129  0.001472
  6580.784  6580.780  0.500  4.241959  154.293449  2.218647  0.001430
  6582.059  6582.050  0.500  4.274770  154.300325  2.147127  0.001423
  6583.347  6583.340  0.500  4.306717  154.302426  2.079645  0.001296
  6584.653  6584.650  0.500  4.337935  154.317692  2.015925  0.001154
  6585.986  6585.980  0.500  4.367599  154.038061  1.953456  0.001273
  6587.330  6587.330  0.500  4.397492  154.279364  1.898897  0.001291
  6588.706  6588.700  0.500  4.425928  154.302336  1.845935  0.001159
  6590.088  6590.080  0.500  4.452715  154.308767  1.797218  0.001206
  6591.496  6591.490  0.500  4.474803  154.307079  1.757938  0.001314
  6592.914  6592.910  0.500  4.490786  154.316348  1.730168  0.001250
  6594.360  6594.350  0.500  4.509910  154.331134  1.697558  0.001305
  6595.818  6595.810  0.500  4.517724  154.363339  1.684697  0.001379
  6597.298  6597.290  0.500  4.496635  154.358275  1.720545  0.001278
  6598.798  6598.790  0.500  4.473567  154.364652  1.760769  0.001415
  6600.318  6600.310  0.500  4.448122  154.341729  1.805879  0.001348
  6601.859  6601.850  0.500  4.427085  154.348123  1.844348  0.001526
  6603.422  6603.410  0.500  4.414765  154.050179  1.863607  0.001555
  6604.988  6604.980  0.500  4.406377  154.349398  1.882955  0.001323
  6606.589  6606.580  0.500  4.396543  154.364833  1.901752  0.001499
  6608.199  6608.190  0.500  4.385357  154.388446  1.923440  0.001435
  6609.836  6609.830  0.500  4.374720  154.420947  1.944417  0.001364
  6611.485  6611.480  0.500  4.364953  154.433519  1.963661  0.001470
  6613.159  6613.150  0.500  4.357391  154.429226  1.978512  0.001470
  6614.849  6614.840  0.500  4.349354  154.415768  1.994303  0.001388
  6616.559  6616.550  0.500  4.339527  154.412971  2.013961  0.001446
  6618.284  6618.280  0.500  4.329190  154.408166  2.034825  0.001508
  6620.040  6620.030  0.500  4.319274  154.400137  2.054996  0.001548
  6621.802  6621.790  0.500  4.311415  154.404563  2.071268  0.001482
  6623.587  6623.580  0.500  4.304346  154.906444  2.092742  0.001445
  6625.394  6625.380  0.500  4.298378  154.981081  2.106284  0.001443
  6627.214  6627.210  0.500  4.292562  155.028698  2.119221  0.001536
  6629.063  6629.050  0.500  4.287912  154.977800  2.128400  0.001554
  6630.919  6630.910  0.500  4.284863  155.037609  2.135723  0.001548
  6632.797  6632.790  0.500  4.282024  155.049508  2.141957  0.001666
  6634.699  6634.690  0.500  4.278721  155.064412  2.149250  0.001765
  6636.614  6636.610  0.500  4.275349  155.072573  2.156625  0.001601
  6638.563  6638.550  0.500  4.271819  155.071145  2.164230  0.001538
  6640.520  6640.510  0.500  4.267778  155.065301  2.172913  0.001607
  6642.487  6642.480  0.500  4.263492  155.066639  2.182263  0.001578
  6644.489  6644.480  0.500  4.260610  155.081739  2.188777  0.001617
  6646.503  6646.490  0.500  4.259998  155.088396  2.190211  0.001571
  6648.523  6648.520  0.500  4.261689  155.081482  2.186412  0.001599
  6650.587  6650.580  0.500  4.265182  155.103202  2.179093  0.001662
  6652.661  6652.650  0.500  4.268662  155.079346  2.171188  0.001637
  6654.748  6654.740  0.500  4.271359  155.071049  2.165225  0.001797
  6656.856  6656.850  0.500  4.274225  155.066144  2.158960  0.001702
  6658.997  6658.980  0.500  4.277856  155.069341  2.151179  0.001699
  6661.132  6661.120  0.500  4.280842  155.060808  2.144649  0.001727
  6663.298  6663.290  0.500  4.282042  155.046475  2.141878  0.001662
  6665.492  6665.480  0.500  4.282121  155.045001  2.141689  0.001763
  6667.691  6667.680  0.500  4.280044  155.044940  2.146141  0.001809
  6669.910  6669.900  0.500  4.276286  155.036662  2.154106  0.001748
  6672.154  6672.150  0.500  4.268921  155.024813  2.169864  0.001728
  6674.419  6674.410  0.500  4.259073  155.018360  2.191247  0.001779
  6676.702  6676.690  0.500  4.248058  155.012249  2.215429  0.001851
  6679.001  6678.990  0.500  4.235759  155.012275  2.242845  0.001740
  6681.322  6681.310  0.500  4.223542  155.031672  2.270698  0.001699
  6683.660  6683.650  0.500  4.212692  155.006851  2.295102  0.001712
  6686.010  6686.000  0.500  4.205096  155.010967  2.312664  0.001853
  6688.387  6688.380  0.500  4.200456  155.004673  2.323325  0.001709
  6690.782  6690.770  0.500  4.197041  154.983217  2.330950  0.001814
  6693.200  6693.190  0.500  4.192291  154.968002  2.341819  0.001805
  6695.627  6695.620  0.500  4.185930  154.953874  2.356548  0.002025
  6698.076  6698.070  0.500  4.179463  154.925125  2.371396  0.001933
  6700.559  6700.550  0.500  4.172978  154.914337  2.386658  0.001854
  6703.055  6703.040  0.500  4.167002  154.923672  2.401109  0.002029
  6705.559  6705.550  0.500  4.160878  154.899724  2.415484  0.002047
  6708.076  6708.070  0.500  4.155558  154.874234  2.427970  0.002057
  6710.630  6710.620  0.500  4.150998  154.871127  2.439017  0.002157
  6713.198  6713.190  0.500  4.146334  154.863339  2.450297  0.002060
  6715.775  6715.770  0.500  4.141698  154.857895  2.461597  0.002191
  6718.388  6718.380  0.500  4.136201  154.820841  2.474573  0.002036
  6721.011  6721.000  0.500  4.130640  154.786179  2.487815  0.002034
  6723.662  6723.650  0.500  4.124704  154.773171  2.502417  0.002111
  6726.320  6726.310  0.500  4.118776  154.772203  2.517279  0.002156
  6728.993  6728.990  0.500  4.113065  154.750109  2.531334  0.002180
  6731.704  6731.690  0.500  4.107178  154.738938  2.546096  0.002141
  6734.422  6734.410  0.500  4.100882  154.717195  2.561818  0.002086
  6737.163  6737.150  0.500  4.095552  154.698134  2.575192  0.002263
  6739.905  6739.900  0.500  4.091062  154.633072  2.585693  0.002260
  6742.687  6742.680  0.500  4.087465  154.603965  2.594520  0.002135
  6745.481  6745.470  0.500  4.084272  154.565195  2.602164  0.002179
  6748.299  6748.290  0.500  4.080455  154.524708  2.611434  0.002213
  6751.131  6751.120  0.500  4.076434  154.520334  2.621880  0.002333
  6753.977  6753.970  0.500  4.071607  154.479115  2.633864  0.002344
  6756.858  6756.850  0.500  4.066493  154.461850  2.647071  0.002252
  6759.765  6759.740  0.500  4.061789  154.441369  2.659201  0.002321
  6762.664  6762.650  0.500  4.055879  154.397103  2.674196  0.002405
  6765.580  6765.570  0.500  4.049415  154.393609  2.691478  0.002354
  6768.528  6768.520  0.500  4.042806  154.339519  2.708376  0.002420
  6771.495  6771.490  0.500  4.035716  154.310006  2.727125  0.002518
  6774.483  6774.470  0.500  4.028314  154.282667  2.746900  0.002525
  6777.491  6777.480  0.500  4.022082  154.244833  2.763394  0.002456
  6780.524  6780.500  0.500  4.016279  154.242247  2.779430  0.002637
  6783.561  6783.550  0.500  4.010106  154.210562  2.796064  0.002633
  6786.620  6786.610  0.500  4.003055  154.199209  2.815642  0.002575
  6789.703  6789.690  0.500  3.995260  154.201246  2.837712  0.002721
  6792.804  6792.790  0.500  3.987121  154.121358  2.859422  0.002753
  6795.924  6795.910  0.500  3.980052  151.436275  2.829535  0.002740
  6799.062  6799.050  0.500  3.972589  153.653071  2.892461  0.002921
  6802.219  6802.200  0.500  3.966061  153.786912  2.913944  0.002884
