# XDI/1.0 BlueSky/1.10.0 BMM/2023-1.0-py310-tiled
# Beamline.name: BMM (06BM) -- Beamline for Materials Measurement (NIST)
# Beamline.xray_source: NSLS-II three-pole wiggler
# Beamline.collimation: paraboloid mirror, 5 nm Rh on 30 nm Pt
# Beamline.focusing: not in use
# Beamline.harmonic_rejection: flat mirror, Pt stripe, pitch = 7.0 mrad relative to beam
# Beamline.software: Bluesky 1.10.0, Ophyd 1.7.0, DataBroker 2.0.0b13, Python 3.10.8, 2023-1.0-py310-tiled
# Detector.I0: 10 cm N2
# Detector.I1: 25 cm N2
# Detector.I2: 25 cm N2
# Element.symbol: Re
# Element.edge: L1
# Element.reference: Re
# Element.reference_material: ReO2
# Facility.name: NSLS-II
# Facility.energy: 3.0
# Facility.current: 400.0
# Facility.mode: top-off
# Facility.GUP: 301027
# Facility.SAF: 310583
# Facility.cycle: 2023-2
# Mono.name: Si(111)
# Mono.d_spacing: 3.1351860
# Mono.encoder_resolution: 0.0000050 deg/ct
# Mono.angle_offset: 16.0754326 deg
# Mono.scan_mode: pseudo channel cut
# Mono.scan_type: step
# Mono.direction: forward in energy
# Sample.name: Re metal powder
# Sample.prep: powder on tape
# Sample.x: 145.711 mm
# Sample.y: 114.376 mm
# Sample.SDD_position: 205.000 mm
# Scan.experimenters: Bruce Ravel
# Scan.edge_energy: 12526.7
# Scan.start_time: 2023-06-27T18:51:22
# Scan.end_time: 2023-06-27T18:59:29
# Scan.transient_id: 85239
# Scan.uid: b701cb24-48b9-43e4-8448-aa0e4152638d
# Scan.plot_hint: ln(I0/It)  --  ln($5/$6)
# Column.1: energy eV
# Column.2: requested_energy eV
# Column.3: measurement_time seconds
# Column.4: xmu 
# Column.5: I0 nA
# Column.6: It nA
# Column.7: Ir nA
# ///////////
# Welcome to BMM
# -----------
# energy  requested_energy  measurement_time  xmu  I0  It  Ir
  12326.711  12326.700  0.500  5.670397  55.974417  0.192916  0.006219
  12336.754  12336.700  0.500  5.659349  55.917255  0.194860  0.006452
  12346.774  12346.700  0.500  5.652537  55.814834  0.195832  0.006502
  12356.777  12356.700  0.500  5.642683  55.636149  0.197138  0.006555
  12366.790  12366.700  0.500  5.639536  55.559657  0.197488  0.006642
  12376.766  12376.700  0.500  5.636306  55.457072  0.197761  0.006625
  12386.738  12386.700  0.500  5.636883  55.326045  0.197180  0.006804
  12396.720  12396.700  0.500  5.635664  55.212238  0.197014  0.006645
  12406.738  12406.700  0.500  5.618929  55.083655  0.199872  0.006876
  12416.739  12416.700  0.500  5.594312  54.941509  0.204325  0.006960
  12426.783  12426.700  0.500  5.575739  54.833958  0.207748  0.007462
  12436.689  12436.700  0.500  5.565121  54.378018  0.208220  0.007294
  12446.705  12446.700  0.500  5.564004  54.601345  0.209309  0.007397
  12456.751  12456.700  0.500  5.564058  54.485393  0.208853  0.007345
  12466.719  12466.700  0.500  5.565912  54.358562  0.207981  0.007355
  12476.730  12476.700  0.500  5.564555  54.231089  0.207775  0.007495
  12486.737  12486.700  0.500  5.559058  53.787101  0.207210  0.007451
  12496.740  12496.700  0.500  5.551810  54.008349  0.209576  0.007603
  12498.680  12498.700  0.500  5.550495  53.986710  0.209767  0.007513
  12500.661  12500.700  0.500  5.549059  53.955221  0.209946  0.007596
  12502.670  12502.700  0.500  5.547785  53.932270  0.210124  0.007720
  12504.660  12504.700  0.500  5.545489  53.893058  0.210454  0.007620
  12506.670  12506.700  0.500  5.546484  53.875936  0.210178  0.007671
  12508.675  12508.700  0.500  5.545434  53.844450  0.210276  0.007469
  12510.666  12510.700  0.500  5.545522  53.820296  0.210163  0.007731
  12512.665  12512.700  0.500  5.545625  53.802156  0.210071  0.007612
  12514.678  12514.700  0.500  5.546215  53.772128  0.209830  0.007558
  12516.678  12516.700  0.500  5.548401  53.745888  0.209269  0.007583
  12516.951  12517.000  0.500  5.550176  53.746389  0.208900  0.007568
  12517.245  12517.300  0.500  5.549476  53.743430  0.209035  0.007682
  12517.566  12517.600  0.500  5.549741  53.726611  0.208914  0.007476
  12517.846  12517.900  0.500  5.550073  53.726600  0.208845  0.007694
  12518.153  12518.200  0.500  5.550590  53.723202  0.208723  0.007587
  12518.454  12518.500  0.500  5.550866  53.718495  0.208648  0.007550
  12518.747  12518.800  0.500  5.552154  53.717721  0.208376  0.007469
  12519.048  12519.100  0.500  5.551481  53.708387  0.208480  0.007562
  12519.355  12519.400  0.500  5.552226  53.703998  0.208308  0.007495
  12519.656  12519.700  0.500  5.554222  53.701544  0.207883  0.007580
  12519.943  12520.000  0.500  5.553726  53.697607  0.207971  0.007517
  12520.250  12520.300  0.500  5.554677  53.693314  0.207756  0.007497
  12520.551  12520.600  0.500  5.556268  53.701114  0.207456  0.007382
  12520.844  12520.900  0.500  5.558697  53.688635  0.206905  0.007529
  12521.166  12521.200  0.500  5.556984  53.675912  0.207211  0.007516
  12521.466  12521.500  0.500  5.559467  53.671384  0.206679  0.007338
  12521.753  12521.800  0.500  5.559480  53.668180  0.206664  0.007471
  12522.067  12522.100  0.500  5.560867  53.660559  0.206349  0.007319
  12522.361  12522.400  0.500  5.562210  53.659490  0.206067  0.007422
  12522.662  12522.700  0.500  5.563699  53.659647  0.205761  0.007341
  12522.976  12523.000  0.500  5.565911  53.656318  0.205294  0.007419
  12523.284  12523.300  0.500  5.565486  53.653292  0.205370  0.007481
  12523.571  12523.600  0.500  5.569722  53.651460  0.204495  0.007126
  12523.879  12523.900  0.500  5.571999  53.643231  0.203998  0.007313
  12524.186  12524.200  0.500  5.573602  53.643872  0.203674  0.007272
  12524.473  12524.500  0.500  5.576481  53.628818  0.203031  0.007345
  12524.788  12524.800  0.500  5.578429  53.628777  0.202636  0.007246
  12525.095  12525.100  0.500  5.580140  53.623528  0.202270  0.007132
  12525.389  12525.400  0.500  5.583983  53.619919  0.201481  0.007152
  12525.697  12525.700  0.500  5.588309  53.614905  0.200592  0.007238
  12525.991  12526.000  0.500  5.592342  53.612268  0.199775  0.007041
  12526.278  12526.300  0.500  5.595851  53.609097  0.199063  0.007053
  12526.600  12526.600  0.500  5.600773  53.601324  0.198057  0.006856
  12526.887  12526.900  0.500  5.606071  53.601351  0.197011  0.007018
  12527.195  12527.200  0.500  5.613155  53.588617  0.195574  0.007003
  12527.502  12527.500  0.500  5.617827  53.585858  0.194652  0.006760
  12527.797  12527.800  0.500  5.623191  53.573330  0.193566  0.006922
  12528.104  12528.100  0.500  5.631043  53.570243  0.192040  0.006792
  12528.392  12528.400  0.500  5.637314  53.568830  0.190835  0.006733
  12528.693  12528.700  0.500  5.645043  53.571711  0.189376  0.006561
  12528.973  12529.000  0.500  5.650706  53.554588  0.188246  0.006429
  12529.288  12529.300  0.500  5.656781  53.558408  0.187119  0.006443
  12529.582  12529.600  0.500  5.665838  53.552971  0.185413  0.006522
  12529.869  12529.900  0.500  5.670552  53.546777  0.184520  0.006298
  12530.184  12530.200  0.500  5.679205  53.548840  0.182937  0.006337
  12530.478  12530.500  0.500  5.686070  53.537747  0.181648  0.006236
  12530.793  12530.800  0.500  5.693215  53.537400  0.180354  0.006177
  12531.087  12531.100  0.500  5.700327  53.541151  0.179088  0.006057
  12531.382  12531.400  0.500  5.706087  53.567390  0.178147  0.006060
  12531.676  12531.700  0.500  5.713234  53.679775  0.177249  0.006004
  12532.005  12532.000  0.500  5.720177  53.668597  0.175986  0.005960
  12532.306  12532.300  0.500  5.725602  53.665507  0.175024  0.005904
  12532.607  12532.600  0.500  5.731996  53.663957  0.173904  0.005740
  12532.901  12532.900  0.500  5.738901  53.656700  0.172684  0.005719
  12533.209  12533.200  0.500  5.745794  53.651129  0.171480  0.005552
  12533.510  12533.500  0.500  5.751463  53.645389  0.170492  0.005565
  12533.798  12533.800  0.500  5.758590  53.641956  0.169270  0.005448
  12534.106  12534.100  0.500  5.765888  53.645197  0.168050  0.005344
  12534.401  12534.400  0.500  5.772146  53.635711  0.166972  0.005310
  12534.702  12534.700  0.500  5.778204  53.627769  0.165939  0.005307
  12535.003  12535.000  0.500  5.785293  53.624954  0.164758  0.005270
  12535.304  12535.300  0.500  5.791551  53.614139  0.163697  0.005275
  12535.592  12535.600  0.500  5.796354  53.606109  0.162888  0.005044
  12535.893  12535.900  0.500  5.805784  53.610151  0.161372  0.005147
  12536.188  12536.200  0.500  5.812046  53.600105  0.160334  0.004991
  12536.489  12536.500  0.500  5.818397  53.603779  0.159330  0.004996
  12536.770  12536.800  0.500  5.824864  53.597136  0.158283  0.004850
  12537.092  12537.100  0.500  5.831372  53.584864  0.157221  0.004912
  12537.380  12537.400  0.500  5.839907  53.579218  0.155868  0.004786
  12537.688  12537.700  0.500  5.847681  53.575328  0.154650  0.004852
  12537.996  12538.000  0.500  5.855224  53.567947  0.153466  0.004614
  12538.305  12538.300  0.500  5.863726  53.559512  0.152143  0.004523
  12538.592  12538.600  0.500  5.871190  53.549754  0.150984  0.004512
  12538.901  12538.900  0.500  5.881704  53.538637  0.149374  0.004661
  12539.195  12539.200  0.500  5.890160  53.518647  0.148061  0.004434
  12539.511  12539.500  0.500  5.899735  53.494879  0.146585  0.004617
  12539.792  12539.800  0.500  5.908898  53.442358  0.145105  0.004316
  12540.114  12540.100  0.500  5.921605  53.349130  0.143023  0.004276
  12540.402  12540.400  0.500  5.928620  53.242698  0.141740  0.004074
  12540.717  12540.700  0.500  5.941377  53.140319  0.139674  0.004044
  12540.998  12541.000  0.500  5.951057  53.086464  0.138189  0.003958
  12541.299  12541.300  0.500  5.962033  53.086897  0.136681  0.003902
  12541.601  12541.600  0.500  5.972238  53.128511  0.135400  0.003750
  12541.903  12541.900  0.500  5.980679  53.220910  0.134495  0.003852
  12542.204  12542.200  0.500  5.990735  53.307964  0.133367  0.003673
  12542.499  12542.500  0.500  6.002370  53.376683  0.131994  0.003766
  12542.787  12542.800  0.500  6.010259  53.426789  0.131080  0.003594
  12543.109  12543.100  0.500  6.019336  53.472729  0.130007  0.003424
  12543.391  12543.400  0.500  6.025785  53.495870  0.129228  0.003366
  12543.692  12543.700  0.500  6.035659  53.506613  0.127984  0.003535
  12543.980  12544.000  0.500  6.041130  53.503528  0.127278  0.003499
  12544.296  12544.300  0.500  6.051428  53.501363  0.125969  0.003396
  12544.591  12544.600  0.500  6.056649  53.511687  0.125337  0.003349
  12544.899  12544.900  0.500  6.062777  53.491600  0.124525  0.003291
  12545.187  12545.200  0.500  6.067045  53.490544  0.123992  0.003151
  12545.489  12545.500  0.500  6.073683  53.482543  0.123153  0.003135
  12545.812  12545.800  0.500  6.078361  53.479754  0.122572  0.003117
  12546.107  12546.100  0.500  6.081711  53.473347  0.122147  0.003047
  12546.408  12546.400  0.500  6.086602  53.467418  0.121538  0.003041
  12546.703  12546.700  0.500  6.089907  53.461299  0.121123  0.003069
  12547.012  12547.000  0.500  6.090791  53.458125  0.121009  0.002905
  12547.300  12547.300  0.500  6.093405  53.459238  0.120695  0.002962
  12547.616  12547.600  0.500  6.094606  53.445048  0.120518  0.002948
  12547.897  12547.900  0.500  6.095265  53.441594  0.120431  0.003002
  12548.220  12548.200  0.500  6.094469  53.435508  0.120513  0.002860
  12548.487  12548.500  0.500  6.092609  53.432490  0.120731  0.002948
  12548.803  12548.800  0.500  6.091065  53.430452  0.120913  0.002886
  12549.098  12549.100  0.500  6.088756  53.425829  0.121182  0.002838
  12549.407  12549.400  0.500  6.085752  53.420653  0.121535  0.002857
  12549.695  12549.700  0.500  6.084001  53.421682  0.121750  0.002803
  12549.991  12550.000  0.500  6.081233  53.415378  0.122073  0.002801
  12550.286  12550.300  0.500  6.077837  53.405736  0.122466  0.002988
  12550.581  12550.600  0.500  6.072902  53.399197  0.123057  0.002752
  12550.890  12550.900  0.500  6.071884  53.403035  0.123191  0.002812
  12551.178  12551.200  0.500  6.066652  53.398320  0.123827  0.002786
  12551.501  12551.500  0.500  6.062491  53.389887  0.124323  0.002947
  12551.679  12551.700  0.500  6.059891  53.391609  0.124651  0.002821
  12552.716  12552.690  0.500  6.048709  53.372214  0.126007  0.002794
  12553.692  12553.690  0.500  6.039738  53.367025  0.127130  0.002924
  12554.722  12554.710  0.500  6.032583  53.347296  0.127996  0.002946
  12555.759  12555.760  0.500  6.028303  53.326857  0.128495  0.002952
  12556.838  12556.820  0.500  6.023007  53.314262  0.129147  0.002961
  12557.903  12557.900  0.500  6.019965  53.304668  0.129517  0.002938
  12559.024  12559.000  0.500  6.017502  53.292252  0.129806  0.003027
  12560.117  12560.120  0.500  6.014857  53.280641  0.130122  0.003056
  12561.279  12561.260  0.500  6.015429  53.258476  0.129993  0.003052
  12562.414  12562.410  0.500  6.014703  53.244536  0.130054  0.003008
  12563.590  12563.590  0.500  6.020362  53.235132  0.129297  0.003178
  12564.767  12564.780  0.500  6.026243  53.218213  0.128498  0.002875
  12565.992  12566.000  0.500  6.034289  53.200921  0.127427  0.003131
  12567.230  12567.230  0.500  6.043814  53.186741  0.126185  0.002916
  12568.497  12568.480  0.500  6.051464  53.169297  0.125182  0.003046
  12569.737  12569.750  0.500  6.059544  53.155301  0.124142  0.002984
  12571.038  12571.040  0.500  6.065277  53.136053  0.123388  0.003038
  12572.313  12572.350  0.500  6.071911  53.120017  0.122535  0.003092
  12573.656  12573.680  0.500  6.074463  53.109951  0.122200  0.003051
  12575.034  12575.030  0.500  6.075473  53.087232  0.122024  0.003044
  12576.392  12576.400  0.500  6.073748  53.063891  0.122181  0.003080
  12577.750  12577.780  0.500  6.066692  53.038698  0.122988  0.003179
  12579.157  12579.190  0.500  6.058534  53.032652  0.123981  0.003187
  12580.606  12580.610  0.500  6.052511  53.022482  0.124706  0.003260
  12582.048  12582.050  0.500  6.044929  53.001569  0.125606  0.003138
  12583.504  12583.510  0.500  6.039046  52.982317  0.126301  0.003356
  12585.381  12584.990  0.500  6.034903  52.957220  0.126765  0.003263
  12586.431  12586.490  0.500  6.029668  52.943585  0.127398  0.003287
  12588.081  12588.010  0.500  6.029229  52.913168  0.127380  0.003349
  12589.635  12589.550  0.500  6.024931  52.886116  0.127864  0.003337
  12591.086  12591.110  0.500  6.023356  52.863140  0.128010  0.003258
  12592.641  12592.680  0.500  6.020673  52.850549  0.128323  0.003360
  12594.266  12594.280  0.500  6.016134  52.824422  0.128843  0.003356
  12595.884  12595.890  0.500  6.012565  52.804790  0.129256  0.003480
  12597.516  12597.530  0.500  6.008816  52.778236  0.129676  0.003466
  12599.183  12599.180  0.500  6.006109  52.762616  0.129989  0.003425
  12600.844  12600.850  0.500  6.003949  52.733024  0.130197  0.003294
  12602.540  12602.540  0.500  6.001914  52.716314  0.130421  0.003465
  12604.250  12604.250  0.500  6.001063  52.700730  0.130493  0.003495
  12605.961  12605.980  0.500  5.998665  52.677522  0.130749  0.003425
  12607.720  12607.730  0.500  5.998558  52.663833  0.130729  0.003398
  12609.473  12609.490  0.500  5.999087  52.641254  0.130604  0.003377
  12611.282  12611.280  0.500  5.998484  52.618243  0.130625  0.003388
  12613.085  12613.080  0.500  5.998857  52.590547  0.130508  0.003463
  12614.930  12614.910  0.500  6.000909  52.575357  0.130203  0.003425
  12616.755  12616.750  0.500  6.003533  52.553224  0.129807  0.003329
  12618.600  12618.610  0.500  6.007888  52.518079  0.129156  0.003267
  12620.482  12620.490  0.500  6.010207  52.489692  0.128788  0.003346
  12622.377  12622.390  0.500  6.010911  52.402909  0.128484  0.003181
  12624.294  12624.310  0.500  6.010505  52.436754  0.128619  0.003400
  12626.268  12626.250  0.500  6.004928  52.428371  0.129318  0.003382
  12628.221  12628.210  0.500  6.003097  52.342970  0.129344  0.003424
  12630.181  12630.180  0.500  6.000462  52.374433  0.129763  0.003376
  12632.177  12632.180  0.500  5.998194  52.361320  0.130025  0.003449
  12634.167  12634.190  0.500  5.993000  52.296922  0.130542  0.003357
  12636.199  12636.220  0.500  5.990216  52.286718  0.130880  0.003377
  12638.287  12638.280  0.500  5.989099  52.283624  0.131019  0.003459
  12640.349  12640.350  0.500  5.985927  52.256438  0.131366  0.003452
  12642.452  12642.440  0.500  5.982669  52.161729  0.131556  0.003521
  12644.571  12644.550  0.500  5.978485  52.208719  0.132227  0.003566
  12646.669  12646.680  0.500  5.975718  52.189861  0.132545  0.003398
  12648.810  12648.820  0.500  5.969557  52.148854  0.133260  0.003407
  12650.965  12650.990  0.500  5.964317  52.126689  0.133903  0.003587
  12653.198  12653.180  0.500  5.956177  52.107226  0.134947  0.003545
  12655.397  12655.380  0.500  5.947865  52.086230  0.136018  0.003618
  12657.610  12657.600  0.500  5.939970  52.048950  0.136998  0.003504
  12659.839  12659.850  0.500  5.932766  52.027703  0.137933  0.003839
  12662.103  12662.110  0.500  5.926407  51.998567  0.138735  0.003803
  12664.389  12664.390  0.500  5.920929  51.966221  0.139410  0.003794
  12666.703  12666.690  0.500  5.916213  51.942975  0.140007  0.003816
  12669.033  12669.010  0.500  5.916748  51.910966  0.139845  0.003914
  12671.370  12671.350  0.500  5.919020  51.884721  0.139457  0.003932
  12673.702  12673.700  0.500  5.923950  51.861342  0.138709  0.003828
  12676.083  12676.080  0.500  5.930418  51.826948  0.137723  0.003829
  12678.486  12678.470  0.500  5.936802  51.799881  0.136775  0.003755
  12680.890  12680.890  0.500  5.939766  51.772835  0.136300  0.003574
  12683.309  12683.320  0.500  5.940870  51.744239  0.136074  0.003820
  12685.757  12685.770  0.500  5.940486  51.710372  0.136037  0.003705
  12688.241  12688.250  0.500  5.938782  51.681775  0.136194  0.003652
  12690.733  12690.740  0.500  5.939177  51.661230  0.136086  0.003724
  12693.261  12693.250  0.500  5.939722  51.620826  0.135905  0.003792
  12695.748  12695.770  0.500  5.937253  51.590774  0.136162  0.003716
  12698.313  12698.320  0.500  5.938104  51.563563  0.135974  0.003754
  12700.894  12700.890  0.500  5.935792  51.534258  0.136212  0.003699
  12703.482  12703.470  0.500  5.934331  51.500651  0.136322  0.003621
  12706.072  12706.080  0.500  5.932178  51.637133  0.136978  0.003819
  12708.677  12708.700  0.500  5.931944  51.596642  0.136902  0.003713
  12711.346  12711.350  0.500  5.927996  51.571770  0.137378  0.003753
  12714.030  12714.010  0.500  5.926914  51.538286  0.137437  0.003808
  12716.681  12716.690  0.500  5.923402  51.500543  0.137820  0.003656
  12719.375  12719.390  0.500  5.917287  51.469852  0.138582  0.003845
  12722.119  12722.110  0.500  5.910903  51.433995  0.139373  0.003862
  12724.864  12724.850  0.500  5.901752  51.401235  0.140564  0.003887
  12727.597  12727.600  0.500  5.892119  51.370863  0.141841  0.003919
  12730.366  12730.380  0.500  5.885275  51.334280  0.142714  0.004067
  12733.165  12733.170  0.500  5.878861  51.288924  0.143505  0.003944
  12736.021  12735.990  0.500  5.875549  51.211163  0.143763  0.004143
  12738.822  12738.820  0.500  5.874778  50.549844  0.142016  0.004098
  12741.674  12741.670  0.500  5.876821  51.210400  0.143578  0.004035
  12744.556  12744.550  0.500  5.880415  51.179677  0.142977  0.003947
  12747.446  12747.440  0.500  5.879641  51.148711  0.143001  0.004058
  12750.351  12750.350  0.500  5.877979  51.111565  0.143135  0.004004
  12753.272  12753.270  0.500  5.875755  51.071356  0.143341  0.004031
  12756.244  12756.220  0.500  5.872161  51.042085  0.143774  0.004088
  12759.211  12759.190  0.500  5.870632  51.003506  0.143885  0.004142
  12762.185  12762.170  0.500  5.872724  50.965911  0.143479  0.004068
  12765.176  12765.180  0.500  5.873563  50.930471  0.143259  0.004116
  12768.218  12768.200  0.500  5.874911  50.894952  0.142966  0.004108
  12771.261  12771.250  0.500  5.872070  50.855929  0.143263  0.004260
  12774.319  12774.310  0.500  5.867654  50.822936  0.143804  0.004165
  12777.408  12777.390  0.500  5.860085  50.782640  0.144781  0.004237
  12780.520  12780.490  0.500  5.852226  50.748800  0.145826  0.004210
