# XDI/1.0 BlueSky/1.10.0 BMM/2023-1.0-py310-tiled
# Beamline.name: BMM (06BM) -- Beamline for Materials Measurement (NIST)
# Beamline.xray_source: NSLS-II three-pole wiggler
# Beamline.collimation: paraboloid mirror, 5 nm Rh on 30 nm Pt
# Beamline.focusing: not in use
# Beamline.harmonic_rejection: flat mirror, Pt stripe, pitch = 7.0 mrad relative to beam
# Beamline.software: Bluesky 1.10.0, Ophyd 1.7.0, DataBroker 2.0.0b13, Python 3.10.8, 2023-1.0-py310-tiled
# Detector.I0: 10 cm N2
# Detector.I1: 25 cm N2
# Detector.I2: 25 cm N2
# Element.symbol: Dy
# Element.edge: L1
# Element.reference: Dy
# Element.reference_material: Dy2O3
# Facility.name: NSLS-II
# Facility.energy: 3.0
# Facility.current: 400.8
# Facility.mode: top-off
# Facility.GUP: 301027
# Facility.SAF: 310583
# Facility.cycle: 2023-2
# Mono.name: Si(111)
# Mono.d_spacing: 3.1351860
# Mono.encoder_resolution: 0.0000050 deg/ct
# Mono.angle_offset: 16.0754326 deg
# Mono.scan_mode: pseudo channel cut
# Mono.scan_type: step
# Mono.direction: forward in energy
# Sample.name: Dy2O3
# Sample.prep: PEG pellet
# Sample.x: 109.138 mm
# Sample.y: 153.150 mm
# Sample.SDD_position: 205.000 mm
# Scan.experimenters: Bruce Ravel
# Scan.edge_energy: 9045.8
# Scan.start_time: 2023-05-28T16:11:12
# Scan.end_time: 2023-05-28T16:19:16
# Scan.transient_id: 78826
# Scan.uid: f60d82a3-a0e1-4be0-8544-d5ebbde5450b
# Scan.plot_hint: ln(It/Ir)  --  ln($6/$7)
# Column.1: energy eV
# Column.2: requested_energy eV
# Column.3: measurement_time seconds
# Column.4: xmu 
# Column.5: I0 nA
# Column.6: It nA
# Column.7: Ir nA
# ///////////
# sample courtesy Martin Stennett, University of Sheffield
# -----------
# energy  requested_energy  measurement_time  xmu  I0  It  Ir
  8845.808  8845.800  0.500  2.426077  121.559631  166.997260  14.759702
  8855.868  8855.800  0.500  2.419906  121.393426  166.992684  14.850658
  8865.856  8865.800  0.500  2.412769  121.207545  166.929839  14.951391
  8875.799  8875.800  0.500  2.405802  121.042501  166.876824  15.051147
  8885.830  8885.800  0.500  2.401168  120.838531  166.780437  15.112325
  8895.864  8895.800  0.500  2.396890  120.649883  166.723942  15.171959
  8905.849  8905.800  0.500  2.390770  120.441685  166.641907  15.257594
  8915.892  8915.800  0.500  2.384593  120.192982  166.500435  15.339098
  8925.807  8925.800  0.500  2.379470  120.259910  166.810253  15.446567
  8935.824  8935.800  0.500  2.374829  119.886319  166.452313  15.485123
  8945.871  8945.800  0.500  2.369565  119.808775  166.526755  15.573817
  8955.827  8955.800  0.500  2.365424  119.602410  166.465804  15.632710
  8965.826  8965.800  0.500  2.361196  119.120152  165.981877  15.653307
  8975.821  8975.800  0.500  2.356200  119.220706  166.312721  15.763072
  8985.818  8985.800  0.500  2.350791  118.970622  166.153953  15.833437
  8995.820  8995.800  0.500  2.345073  118.392847  165.517133  15.863195
  9005.827  9005.800  0.500  2.339881  118.638363  166.036275  15.995784
  9015.819  9015.800  0.500  2.334426  118.478988  165.994565  16.079239
  9017.790  9017.800  0.500  2.333475  118.408712  165.956077  16.090802
  9019.790  9019.800  0.500  2.332525  118.240146  165.741711  16.085290
  9021.781  9021.800  0.500  2.331821  116.813675  163.767223  15.904859
  9023.775  9023.800  0.500  2.331022  118.348211  165.954653  16.130188
  9025.771  9025.800  0.500  2.330413  118.308667  165.927715  16.137390
  9027.778  9027.800  0.500  2.329876  118.282724  165.921924  16.145505
  9029.779  9029.800  0.500  2.329556  118.219191  165.865842  16.145201
  9031.788  9031.800  0.500  2.329143  118.182173  165.873128  16.152591
  9033.783  9033.800  0.500  2.329035  118.146586  165.872933  16.154319
  9035.784  9035.800  0.500  2.328892  118.098276  165.841573  16.153576
  9036.072  9036.100  0.500  2.329065  118.087292  165.811130  16.147810
  9036.364  9036.400  0.500  2.328985  118.088799  165.819294  16.149902
  9036.670  9036.700  0.500  2.328963  118.078526  165.818897  16.150207
  9036.969  9037.000  0.500  2.328983  118.062805  165.807961  16.148819
  9037.278  9037.300  0.500  2.329064  118.063492  165.829064  16.149573
  9037.570  9037.600  0.500  2.329074  118.039096  165.792123  16.145815
  9037.880  9037.900  0.500  2.329173  118.033098  165.792073  16.144209
  9038.168  9038.200  0.500  2.329239  118.027825  165.792347  16.143166
  9038.478  9038.500  0.500  2.329337  118.016393  165.781871  16.140566
  9038.777  9038.800  0.500  2.329304  118.006153  165.770175  16.139971
  9039.076  9039.100  0.500  2.329399  118.006325  165.772447  16.138658
  9039.371  9039.400  0.500  2.329551  118.000869  165.776671  16.136603
  9039.681  9039.700  0.500  2.329632  117.995990  165.781611  16.135789
  9039.970  9040.000  0.500  2.329732  117.986381  165.757751  16.131844
  9040.272  9040.300  0.500  2.329819  117.967818  165.725490  16.127309
  9040.575  9040.600  0.500  2.330018  117.945967  165.689354  16.120580
  9040.874  9040.900  0.500  2.330212  117.886288  165.632173  16.111888
  9041.177  9041.200  0.500  2.330329  117.650870  165.294114  16.077130
  9041.480  9041.500  0.500  2.330475  117.257339  164.725307  16.019455
  9041.779  9041.800  0.500  2.330646  116.897774  164.238241  15.969359
  9042.089  9042.100  0.500  2.330874  116.672029  163.932725  15.936031
  9042.388  9042.400  0.500  2.331097  116.605165  163.842735  15.923720
  9042.687  9042.700  0.500  2.331304  116.731970  164.045810  15.940152
  9042.987  9043.000  0.500  2.331559  117.078588  164.550311  15.985104
  9043.300  9043.300  0.500  2.331794  117.471472  165.087046  16.033480
  9043.586  9043.600  0.500  2.332017  117.642625  165.314121  16.051957
  9043.899  9043.900  0.500  2.332255  117.723520  165.446530  16.060988
  9044.195  9044.200  0.500  2.332521  117.741693  165.523150  16.064156
  9044.491  9044.500  0.500  2.332914  117.754547  165.500165  16.055610
  9044.797  9044.800  0.500  2.333387  117.771907  165.547699  16.052619
  9045.086  9045.100  0.500  2.333781  117.760229  165.546576  16.046194
  9045.400  9045.400  0.500  2.334111  117.757666  165.535067  16.039776
  9045.685  9045.700  0.500  2.334800  117.758856  165.525007  16.027762
  9045.978  9046.000  0.500  2.335418  117.753514  165.514044  16.016795
  9046.291  9046.300  0.500  2.336084  117.755292  165.555580  16.010156
  9046.584  9046.600  0.500  2.336864  117.757061  165.557544  15.997852
  9046.887  9046.900  0.500  2.337748  117.737746  165.529079  15.980968
  9047.197  9047.200  0.500  2.338700  117.729047  165.496636  15.962634
  9047.493  9047.500  0.500  2.339786  117.719045  165.493704  15.945027
  9047.797  9047.800  0.500  2.341125  117.708611  165.487969  15.923138
  9048.093  9048.100  0.500  2.342547  117.728873  165.541104  15.905620
  9048.396  9048.400  0.500  2.344359  117.700951  165.503301  15.873204
  9048.706  9048.700  0.500  2.346071  117.707914  165.491457  15.844911
  9049.003  9049.000  0.500  2.347982  117.691304  165.485837  15.814130
  9049.306  9049.300  0.500  2.350146  117.683371  165.479171  15.779311
  9049.595  9049.600  0.500  2.352168  117.685320  165.513015  15.750652
  9049.888  9049.900  0.500  2.354327  117.675160  165.510180  15.716416
  9050.202  9050.200  0.500  2.356618  117.680997  165.526480  15.681997
  9050.491  9050.500  0.500  2.358710  117.666606  165.521455  15.648747
  9050.791  9050.800  0.500  2.360905  117.661528  165.496965  15.612131
  9051.094  9051.100  0.500  2.363133  117.652838  165.475429  15.575349
  9051.394  9051.400  0.500  2.365330  117.635411  165.464452  15.540135
  9051.705  9051.700  0.500  2.367578  117.634853  165.491895  15.507822
  9052.005  9052.000  0.500  2.369634  117.623395  165.493889  15.476153
  9052.308  9052.300  0.500  2.371621  117.623672  165.446832  15.441043
  9052.605  9052.600  0.500  2.373701  117.622989  165.462477  15.410420
  9052.901  9052.900  0.500  2.375689  117.605814  165.457333  15.379328
  9053.201  9053.200  0.500  2.377776  117.589020  165.451505  15.346728
  9053.501  9053.500  0.500  2.379693  117.590060  165.442247  15.316483
  9053.805  9053.800  0.500  2.381709  117.598566  165.439536  15.285380
  9054.094  9054.100  0.500  2.383588  117.577836  165.431292  15.255928
  9054.394  9054.400  0.500  2.385567  117.562224  165.437316  15.226318
  9054.684  9054.700  0.500  2.387615  117.554964  165.414750  15.193090
  9054.988  9055.000  0.500  2.389607  117.552824  165.426137  15.163909
  9055.295  9055.300  0.500  2.391842  117.547210  165.424667  15.129921
  9055.602  9055.600  0.500  2.394103  117.542792  165.413911  15.094763
  9055.899  9055.900  0.500  2.396526  117.530057  165.404688  15.057395
  9056.196  9056.200  0.500  2.398781  117.530759  165.406960  15.023686
  9056.492  9056.500  0.500  2.401271  117.516588  165.402459  14.985912
  9056.810  9056.800  0.500  2.403824  117.503998  165.385206  14.946142
  9057.103  9057.100  0.500  2.406296  117.487977  165.386741  14.909384
  9057.407  9057.400  0.500  2.409033  117.492668  165.389513  14.868875
  9057.693  9057.700  0.500  2.411669  117.489290  165.383704  14.829210
  9057.987  9058.000  0.500  2.414272  117.489221  165.395233  14.791696
  9058.294  9058.300  0.500  2.417476  117.462723  165.382182  14.743223
  9058.591  9058.600  0.500  2.420446  117.467126  165.379720  14.699270
  9058.895  9058.900  0.500  2.423859  117.444853  165.363328  14.647742
  9059.192  9059.200  0.500  2.427301  117.436729  165.320310  14.593605
  9059.496  9059.500  0.500  2.430788  117.431381  165.312008  14.542075
  9059.800  9059.800  0.500  2.434655  117.426418  165.302853  14.485155
  9060.104  9060.100  0.500  2.438290  117.434208  165.315329  14.433689
  9060.412  9060.400  0.500  2.442276  117.408912  165.292811  14.374312
  9060.705  9060.700  0.500  2.445956  117.405679  165.297173  14.321884
  9060.999  9061.000  0.500  2.449494  117.381078  165.266867  14.268683
  9061.303  9061.300  0.500  2.453123  117.366297  165.259287  14.216343
  9061.600  9061.600  0.500  2.456401  117.376923  165.268328  14.170595
  9061.904  9061.900  0.500  2.459728  117.353914  165.237362  14.120884
  9062.190  9062.200  0.500  2.462710  117.317634  165.191871  14.074966
  9062.491  9062.500  0.500  2.465442  117.283253  165.147672  14.032816
  9062.785  9062.800  0.500  2.467925  117.167639  164.995739  13.985136
  9063.092  9063.100  0.500  2.469971  116.884458  164.600130  13.923083
  9063.404  9063.400  0.500  2.471623  116.496222  164.065448  13.854950
  9063.694  9063.700  0.500  2.472894  116.207420  163.674521  13.804383
  9064.002  9064.000  0.500  2.473513  116.064437  163.492035  13.780455
  9064.295  9064.300  0.500  2.473995  116.112243  163.547590  13.778492
  9064.600  9064.600  0.500  2.473961  116.357268  163.892543  13.808028
  9064.911  9064.900  0.500  2.473748  116.734734  164.431826  13.856411
  9065.198  9065.200  0.500  2.473472  117.036526  164.861663  13.896471
  9065.499  9065.500  0.500  2.472949  117.161172  165.045724  13.919256
  9065.796  9065.800  0.500  2.472348  117.204311  165.116983  13.933643
  9066.094  9066.100  0.500  2.471616  117.223225  165.173710  13.948630
  9066.398  9066.400  0.500  2.470848  117.216646  165.152524  13.957567
  9066.688  9066.700  0.500  2.470287  117.242883  165.177790  13.967531
  9066.982  9067.000  0.500  2.469634  117.224848  165.162956  13.975403
  9067.287  9067.300  0.500  2.469111  117.286903  165.283293  13.992894
  9067.595  9067.600  0.500  2.468708  117.549265  165.629850  14.027895
  9067.910  9067.900  0.500  2.468370  117.558826  165.661793  14.035340
  9068.197  9068.200  0.500  2.468442  117.576418  165.695846  14.037208
  9068.494  9068.500  0.500  2.468229  117.572212  165.694971  14.040129
  9068.796  9068.800  0.500  2.468336  117.568141  165.685887  14.037857
  9069.104  9069.100  0.500  2.468295  117.567123  165.702280  14.039818
  9069.401  9069.400  0.500  2.468633  117.571289  165.708951  14.035641
  9069.692  9069.700  0.500  2.468933  117.559778  165.694968  14.030254
  9070.000  9070.000  0.500  2.469197  117.541984  165.683611  14.025584
  9070.305  9070.300  0.500  2.469475  117.546539  165.689482  14.022183
  9070.599  9070.600  0.500  2.469775  117.535640  165.686583  14.017726
  9070.790  9070.800  0.500  2.469837  117.539888  165.693297  14.017428
  9071.779  9071.790  0.500  2.470636  117.496907  165.656085  14.003095
  9072.783  9072.790  0.500  2.470700  117.486220  165.650107  14.001687
  9073.843  9073.810  0.500  2.470000  117.448471  165.620576  14.008996
  9074.829  9074.860  0.500  2.468433  117.422053  165.602053  14.029393
  9076.095  9075.920  0.500  2.465195  117.391137  165.547654  14.070268
  9077.082  9077.000  0.500  2.461478  117.374874  165.592727  14.126507
  9078.125  9078.100  0.500  2.456770  117.322891  165.504941  14.185655
  9079.208  9079.220  0.500  2.451529  117.290032  165.474484  14.257568
  9080.345  9080.360  0.500  2.445921  117.220855  165.396789  14.331019
  9081.492  9081.510  0.500  2.440440  116.323983  164.146407  14.300849
  9082.675  9082.690  0.500  2.435051  116.354129  164.212992  14.383952
  9083.869  9083.880  0.500  2.430223  117.123083  165.328788  14.551782
  9085.096  9085.100  0.500  2.426183  117.143112  165.396079  14.616634
  9086.326  9086.330  0.500  2.422870  117.145385  165.423305  14.667555
  9087.571  9087.580  0.500  2.420498  117.111636  165.401485  14.700441
  9088.841  9088.850  0.500  2.418597  117.091293  165.384745  14.726934
  9090.140  9090.140  0.500  2.417526  117.064878  165.368834  14.741290
  9091.440  9091.450  0.500  2.416625  117.031199  165.342392  14.752215
  9092.779  9092.780  0.500  2.416015  117.004937  165.333876  14.760464
  9094.118  9094.130  0.500  2.415864  116.976011  165.319554  14.761410
  9095.483  9095.500  0.500  2.415970  116.943320  165.296353  14.757780
  9096.859  9096.880  0.500  2.416085  116.927879  165.292950  14.755765
  9098.288  9098.290  0.500  2.416460  116.907757  165.297990  14.750693
  9099.704  9099.710  0.500  2.416718  116.878391  165.283234  14.745568
  9101.139  9101.150  0.500  2.417006  116.848492  165.274562  14.740554
  9102.591  9102.610  0.500  2.417805  116.801630  165.231909  14.724975
  9104.080  9104.090  0.500  2.418675  115.844041  163.895499  14.593180
  9105.576  9105.590  0.500  2.419716  116.290538  164.548812  14.636104
  9107.105  9107.110  0.500  2.421031  116.644950  165.079252  14.663984
  9108.642  9108.650  0.500  2.422272  116.653370  165.103393  14.647941
  9110.201  9110.210  0.500  2.423835  116.625530  165.075472  14.622586
  9111.778  9111.780  0.500  2.425604  116.597420  165.072243  14.596466
  9113.373  9113.380  0.500  2.427436  116.572978  165.076972  14.570161
  9114.991  9114.990  0.500  2.429404  116.538227  165.058139  14.539862
  9116.616  9116.630  0.500  2.430689  116.508377  165.051923  14.520644
  9118.275  9118.280  0.500  2.431375  116.459665  165.014435  14.507381
  9119.955  9119.950  0.500  2.431486  116.429581  165.006808  14.505102
  9121.639  9121.640  0.500  2.430856  116.404476  164.986003  14.512418
  9123.335  9123.350  0.500  2.429622  116.363149  164.951602  14.527309
  9125.071  9125.080  0.500  2.427522  116.317543  164.923315  14.555343
  9126.837  9126.830  0.500  2.424647  116.285958  164.923952  14.597320
  9128.589  9128.590  0.500  2.421225  116.251083  164.884262  14.643825
  9130.370  9130.380  0.500  2.417628  116.214288  164.865643  14.694939
  9132.181  9132.180  0.500  2.414602  116.171391  164.839641  14.737147
  9134.021  9134.010  0.500  2.411912  116.137101  164.838264  14.776711
  9135.851  9135.850  0.500  2.409988  116.061976  164.762085  14.798337
  9137.714  9137.710  0.500  2.408571  116.025546  164.738276  14.817175
  9139.600  9139.590  0.500  2.407505  115.979132  164.722559  14.831558
  9141.501  9141.490  0.500  2.406679  115.869211  164.595338  14.832362
  9143.406  9143.410  0.500  2.406033  115.596039  164.231262  14.809115
  9145.355  9145.350  0.500  2.405601  112.693967  160.140866  14.446512
  9147.305  9147.310  0.500  2.404965  115.926505  164.763348  14.872966
  9149.285  9149.280  0.500  2.403827  115.862911  164.702008  14.884358
  9151.270  9151.280  0.500  2.402246  115.790826  164.623654  14.900815
  9153.298  9153.290  0.500  2.400383  115.693208  164.513794  14.918642
  9155.320  9155.320  0.500  2.398368  115.542673  164.327060  14.931771
  9157.394  9157.380  0.500  2.396503  113.786481  161.868363  14.735807
  9159.455  9159.450  0.500  2.394258  115.493789  164.356453  14.995944
  9161.541  9161.540  0.500  2.392348  115.690343  164.650102  15.051456
  9163.658  9163.650  0.500  2.390269  115.603088  164.576884  15.076079
  9165.797  9165.780  0.500  2.388455  115.439545  164.393307  15.086592
  9167.926  9167.920  0.500  2.386909  114.663987  163.324479  15.011707
  9170.104  9170.090  0.500  2.385792  114.637609  163.322397  15.028287
  9172.293  9172.280  0.500  2.385231  115.545545  164.651790  15.159111
  9174.491  9174.480  0.500  2.384824  115.463862  164.569316  15.157687
  9176.711  9176.700  0.500  2.384553  115.375589  164.476383  15.153230
  9178.962  9178.950  0.500  2.384354  115.283224  164.383290  15.147676
  9181.214  9181.210  0.500  2.384793  114.975263  164.001320  15.105839
  9183.507  9183.490  0.500  2.385309  113.272100  161.619242  14.878751
  9185.794  9185.790  0.500  2.385700  115.295852  164.547668  15.142417
  9188.115  9188.110  0.500  2.385315  115.217899  164.453428  15.139575
  9190.466  9190.450  0.500  2.384243  115.136459  164.368591  15.148002
  9192.807  9192.800  0.500  2.383124  115.076409  164.332257  15.161605
  9195.197  9195.180  0.500  2.382049  115.007197  164.282957  15.173358
  9197.578  9197.570  0.500  2.381008  114.925510  164.217048  15.183064
  9199.992  9199.990  0.500  2.379985  114.870819  164.171636  15.194408
  9202.444  9202.420  0.500  2.378594  114.798647  164.121015  15.210871
  9204.876  9204.870  0.500  2.376930  114.739327  164.067698  15.231250
  9207.367  9207.350  0.500  2.374714  114.685532  163.999733  15.258710
  9209.853  9209.840  0.500  2.372174  114.649587  163.990298  15.296639
  9212.351  9212.350  0.500  2.369667  114.590058  163.971287  15.333262
  9214.887  9214.870  0.500  2.367023  114.544011  163.941881  15.371091
  9217.424  9217.420  0.500  2.364753  114.483842  163.896877  15.401803
  9220.003  9219.990  0.500  2.363034  114.440801  163.859304  15.424769
  9222.587  9222.570  0.500  2.361965  114.374736  163.804476  15.436086
  9225.180  9225.180  0.500  2.361311  114.311083  163.776172  15.443528
  9227.815  9227.800  0.500  2.360627  114.255538  163.763135  15.452853
  9230.459  9230.450  0.500  2.359893  114.215052  163.751930  15.463143
  9233.134  9233.110  0.500  2.359245  114.150915  163.660563  15.464538
  9235.788  9235.790  0.500  2.358059  114.105134  163.627462  15.479762
  9238.514  9238.490  0.500  2.356616  114.036069  163.581255  15.497735
  9241.226  9241.210  0.500  2.355175  113.988558  163.558724  15.517939
  9243.970  9243.950  0.500  2.353484  113.935284  163.565509  15.544855
  9246.719  9246.700  0.500  2.351853  113.883425  163.537247  15.567535
  9249.485  9249.480  0.500  2.350145  113.825709  163.492451  15.589879
  9252.282  9252.270  0.500  2.348322  113.753192  163.464250  15.615637
  9255.099  9255.090  0.500  2.346327  113.694772  163.406417  15.641277
  9257.939  9257.920  0.500  2.344376  113.638080  163.370766  15.668405
  9260.786  9260.770  0.500  2.342473  113.576255  163.322474  15.693617
  9263.667  9263.650  0.500  2.340744  113.520339  163.293918  15.718021
  9266.558  9266.540  0.500  2.339692  113.455720  163.225990  15.728020
  9269.462  9269.450  0.500  2.338418  113.397467  163.189435  15.744545
  9272.382  9272.370  0.500  2.337211  113.333995  163.168961  15.761578
  9275.334  9275.320  0.500  2.336231  113.206464  162.993326  15.760051
  9278.306  9278.290  0.500  2.335507  113.251046  163.097623  15.781561
