# XDI/1.0 BlueSky/1.10.0 BMM/2023-1.0-py310-tiled
# Beamline.name: BMM (06BM) -- Beamline for Materials Measurement (NIST)
# Beamline.xray_source: NSLS-II three-pole wiggler
# Beamline.collimation: paraboloid mirror, 5 nm Rh on 30 nm Pt
# Beamline.focusing: not in use
# Beamline.harmonic_rejection: flat mirror, Si stripe, pitch = 7.0 mrad relative to beam
# Beamline.software: Bluesky 1.10.0, Ophyd 1.7.0, DataBroker 2.0.0b13, Python 3.10.8, 2023-1.0-py310-tiled
# Detector.I0: 10 cm N2
# Detector.I1: 25 cm N2
# Detector.I2: 25 cm N2
# Element.symbol: Dy
# Element.edge: L3
# Element.reference: Dy
# Element.reference_material: Dy2O3
# Facility.name: NSLS-II
# Facility.energy: 3.0
# Facility.current: 399.0
# Facility.mode: top-off
# Facility.GUP: 123456
# Facility.SAF: 301027
# Facility.cycle: 2023-2
# Mono.name: Si(111)
# Mono.d_spacing: 3.1351860
# Mono.encoder_resolution: 0.0000050 deg/ct
# Mono.angle_offset: 16.0754326 deg
# Mono.scan_mode: pseudo channel cut
# Mono.scan_type: step
# Mono.direction: forward in energy
# Sample.name: DyScO3
# Sample.prep: powder on tape
# Sample.x: 149.848 mm
# Sample.y: 114.690 mm
# Sample.SDD_position: 205.000 mm
# Scan.experimenters: Bruce Ravel
# Scan.edge_energy: 7790.1
# Scan.start_time: 2023-05-08T18:47:37
# Scan.end_time: 2023-05-08T18:53:24
# Scan.transient_id: 75507
# Scan.uid: 434180f4-cc27-4516-bbb2-9855999995f3
# Scan.plot_hint: ln(I0/It)  --  ln($5/$6)
# Column.1: energy eV
# Column.2: requested_energy eV
# Column.3: measurement_time seconds
# Column.4: xmu 
# Column.5: I0 nA
# Column.6: It nA
# Column.7: Ir nA
# ///////////
# sample courtesy Igor Levin, NIST
# -----------
# energy  requested_energy  measurement_time  xmu  I0  It  Ir
  7590.112  7590.100  0.500  0.908162  142.576870  57.496236  8.535959
  7600.109  7600.100  0.500  0.902148  142.242180  57.707283  8.625887
  7610.114  7610.100  0.500  0.896080  141.589157  57.791974  8.697324
  7620.166  7620.100  0.500  0.891789  141.761831  58.111253  8.804035
  7630.131  7630.100  0.500  0.884998  141.952582  58.585971  8.935218
  7640.138  7640.100  0.500  0.879194  141.860866  58.888898  9.041302
  7650.120  7650.100  0.500  0.873282  142.215793  59.386276  9.177778
  7660.122  7660.100  0.500  0.867570  142.089420  59.673441  9.283373
  7670.116  7670.100  0.500  0.861785  141.916453  59.946559  9.386626
  7680.114  7680.100  0.500  0.856238  141.727868  60.199903  9.486480
  7690.121  7690.100  0.500  0.850367  141.660189  60.525445  9.599176
  7700.115  7700.100  0.500  0.845169  141.365196  60.714207  9.690735
  7710.121  7710.100  0.500  0.839876  141.288523  61.003318  9.795134
  7720.110  7720.100  0.500  0.834536  140.352830  60.923773  9.841252
  7730.116  7730.100  0.500  0.829286  140.902684  61.484406  9.985468
  7740.118  7740.100  0.500  0.824694  137.227802  60.156426  9.819183
  7750.081  7750.100  0.500  0.821205  140.615571  61.856965  10.129745
  7760.088  7760.100  0.500  0.819370  140.489717  61.915098  10.147277
  7762.088  7762.100  0.500  0.819445  140.432254  61.885135  10.135516
  7764.081  7764.100  0.500  0.819915  140.383881  61.834763  10.119205
  7766.088  7766.100  0.500  0.820549  140.327888  61.770926  10.095444
  7768.081  7768.100  0.500  0.821625  140.293318  61.689317  10.063664
  7770.088  7770.100  0.500  0.823113  140.238234  61.573402  10.016996
  7772.088  7772.100  0.500  0.825410  140.194615  61.412990  9.953304
  7774.092  7774.100  0.500  0.828702  140.135201  61.185236  9.864005
  7776.094  7776.100  0.500  0.833692  140.095380  60.863386  9.740612
  7778.090  7778.100  0.500  0.840765  140.056536  60.417663  9.565326
  7780.094  7780.100  0.500  0.851627  140.013365  59.746490  9.308120
  7780.578  7780.600  0.500  0.855218  139.993422  59.523885  9.224342
  7781.076  7781.100  0.500  0.859536  139.977324  59.260573  9.127641
  7781.578  7781.600  0.500  0.864099  139.957792  58.982570  9.021417
  7782.079  7782.100  0.500  0.869668  139.952252  58.652693  8.900824
  7782.578  7782.600  0.500  0.875875  139.926138  58.278891  8.762734
  7783.075  7783.100  0.500  0.883742  139.874664  57.800901  8.595839
  7783.579  7783.600  0.500  0.892961  139.899921  57.280837  8.406361
  7784.083  7784.100  0.500  0.903726  139.881534  56.660050  8.189731
  7784.585  7784.600  0.500  0.915600  139.861525  55.983244  7.959671
  7785.089  7785.100  0.500  0.928449  139.858944  55.267526  7.719519
  7785.586  7785.600  0.500  0.941299  139.849653  54.558249  7.481957
  7786.086  7786.100  0.500  0.954540  139.812939  53.826492  7.246716
  7786.585  7786.600  0.500  0.968845  139.808235  53.060196  7.001091
  7787.077  7787.100  0.500  0.984767  139.791312  52.215734  6.736585
  7787.582  7787.600  0.500  1.004613  139.790581  51.189387  6.429924
  7788.081  7788.100  0.500  1.028114  139.746313  49.984573  6.075385
  7788.581  7788.600  0.500  1.057562  139.746509  48.534151  5.665597
  7789.089  7789.100  0.500  1.094996  139.722392  46.742877  5.187439
  7789.591  7789.600  0.500  1.141739  139.752862  44.617963  4.655839
  7790.091  7790.100  0.500  1.201248  139.721841  42.030903  4.067745
  7790.596  7790.600  0.500  1.280524  139.708763  38.823914  3.418877
  7791.094  7791.100  0.500  1.384101  139.687201  34.998487  2.751833
  7791.589  7791.600  0.500  1.515944  139.692057  30.676479  2.120611
  7792.089  7792.100  0.500  1.676319  139.678746  26.128487  1.574276
  7792.587  7792.600  0.500  1.861834  139.648740  21.699657  1.140377
  7793.087  7793.100  0.500  2.066935  139.652934  17.676312  0.814823
  7793.587  7793.600  0.500  2.271352  139.627290  14.405713  0.592175
  7794.093  7794.100  0.500  2.451176  139.631368  12.035128  0.451885
  7794.599  7794.600  0.500  2.578643  139.615921  10.593624  0.372791
  7795.099  7795.100  0.500  2.641522  139.611175  9.947683  0.335260
  7795.603  7795.600  0.500  2.642748  139.596322  9.934435  0.325650
  7796.098  7796.100  0.500  2.588166  139.584190  10.490837  0.340623
  7796.596  7796.600  0.500  2.493518  139.564457  11.530651  0.379174
  7797.095  7797.100  0.500  2.379554  139.559741  12.922093  0.440433
  7797.593  7797.600  0.500  2.257220  139.540855  14.601698  0.526597
  7798.092  7798.100  0.500  2.133024  139.542250  16.532752  0.641635
  7798.595  7798.600  0.500  2.009472  139.514507  18.703244  0.791140
  7799.094  7799.100  0.500  1.892287  139.486729  21.024384  0.975428
  7799.600  7799.600  0.500  1.787375  139.493115  23.351013  1.184617
  7800.101  7800.100  0.500  1.697362  139.483584  25.548658  1.406844
  7800.600  7800.600  0.500  1.621565  139.465608  27.556903  1.632751
  7801.104  7801.100  0.500  1.559209  139.427168  29.321849  1.853051
  7801.603  7801.600  0.500  1.511266  139.446964  30.766248  2.054072
  7802.099  7802.100  0.500  1.477926  139.417792  31.802631  2.218399
  7802.591  7802.600  0.500  1.456371  139.411551  32.494127  2.346995
  7803.095  7803.100  0.500  1.443311  139.418541  32.922924  2.446619
  7803.591  7803.600  0.500  1.437391  139.412368  33.116944  2.520991
  7804.096  7804.100  0.500  1.436163  139.381904  33.150405  2.576139
  7804.598  7804.600  0.500  1.437851  139.365944  33.090695  2.616201
  7805.100  7805.100  0.500  1.440260  139.350785  33.007486  2.646860
  7805.604  7805.600  0.500  1.442189  139.308089  32.933794  2.674554
  7806.109  7806.100  0.500  1.441595  139.301886  32.951886  2.703866
  7806.606  7806.600  0.500  1.438864  139.310911  33.044138  2.734289
  7807.100  7807.100  0.500  1.433950  139.322840  33.209773  2.767254
  7807.603  7807.600  0.500  1.427694  139.291841  33.410734  2.797614
  7808.095  7808.100  0.500  1.420277  139.268831  33.653909  2.826663
  7808.600  7808.600  0.500  1.411935  139.257130  33.932967  2.854593
  7809.099  7809.100  0.500  1.403257  139.239337  34.224334  2.879685
  7809.602  7809.600  0.500  1.393973  139.216729  34.537956  2.901750
  7810.099  7810.100  0.500  1.384628  139.204574  34.859186  2.921683
  7810.605  7810.600  0.500  1.375603  139.199819  35.174016  2.938585
  7811.102  7811.100  0.500  1.367209  139.182484  35.466091  2.952760
  7811.600  7811.600  0.500  1.359869  139.101375  35.706561  2.963043
  7812.095  7812.100  0.500  1.354077  139.150865  35.926736  2.973599
  7812.598  7812.600  0.500  1.350140  139.126371  36.062124  2.979913
  7813.101  7813.100  0.500  1.348378  139.128481  36.126259  2.983253
  7813.596  7813.600  0.500  1.347869  139.115139  36.141191  2.986465
  7814.097  7814.100  0.500  1.348337  139.109592  36.122833  2.989882
  7814.597  7814.600  0.500  1.349592  139.094530  36.073605  2.993381
  7815.101  7815.100  0.500  1.351147  139.076004  36.012759  2.999665
  7816.094  7816.090  0.500  1.353879  139.071795  35.913438  3.015407
  7817.091  7817.090  0.500  1.355438  139.044689  35.850478  3.034969
  7818.122  7818.110  0.500  1.358276  139.017230  35.741845  3.042690
  7819.174  7819.160  0.500  1.365267  138.995251  35.487229  3.022965
  7820.236  7820.220  0.500  1.378801  138.973415  35.004687  2.963520
  7821.310  7821.300  0.500  1.397039  138.948019  34.365759  2.878366
  7822.404  7822.400  0.500  1.418941  138.920207  33.614548  2.774276
  7823.533  7823.520  0.500  1.439472  138.863808  32.918067  2.672603
  7824.668  7824.660  0.500  1.454871  138.890746  32.421347  2.584484
  7825.826  7825.810  0.500  1.463887  138.837967  32.118129  2.509812
  7827.003  7826.990  0.500  1.466827  138.831971  32.022442  2.449942
  7828.196  7828.180  0.500  1.466462  138.810282  32.029130  2.396501
  7829.411  7829.400  0.500  1.464834  138.768467  32.071648  2.352776
  7830.636  7830.630  0.500  1.462774  138.628136  32.105292  2.321824
  7831.890  7831.880  0.500  1.461208  137.598626  31.916811  2.293432
  7833.161  7833.150  0.500  1.459237  138.589778  32.210138  2.318480
  7834.443  7834.440  0.500  1.456323  138.618698  32.310880  2.346117
  7835.756  7835.750  0.500  1.451463  138.593434  32.462384  2.388702
  7837.099  7837.080  0.500  1.444792  138.571800  32.674550  2.442665
  7838.429  7838.430  0.500  1.436097  138.483472  32.938884  2.502795
  7839.812  7839.800  0.500  1.426386  137.439095  33.009482  2.547218
  7841.193  7841.180  0.500  1.417198  138.374721  33.540966  2.620339
  7842.590  7842.590  0.500  1.410179  138.408863  33.785537  2.666407
  7844.014  7844.010  0.500  1.405955  138.370292  33.919095  2.700852
  7845.457  7845.450  0.500  1.404154  137.667380  33.807627  2.713513
  7846.911  7846.910  0.500  1.403866  138.037817  33.908368  2.740806
  7848.395  7848.390  0.500  1.404652  138.208833  33.923713  2.760496
  7849.897  7849.890  0.500  1.404092  138.210562  33.943130  2.776854
  7851.405  7851.410  0.500  1.401422  138.169618  34.023775  2.796679
  7852.957  7852.950  0.500  1.396216  138.138150  34.193594  2.821830
  7854.527  7854.510  0.500  1.389172  137.088477  34.173649  2.831009
  7856.079  7856.080  0.500  1.381867  138.009834  34.655549  2.880681
  7857.690  7857.680  0.500  1.375330  137.990509  34.877964  2.906355
  7859.302  7859.290  0.500  1.370162  137.969079  35.053221  2.924792
  7860.935  7860.930  0.500  1.366959  137.932858  35.156431  2.934433
  7862.591  7862.580  0.500  1.366167  137.872456  35.168886  2.932630
  7864.260  7864.250  0.500  1.367786  137.835518  35.102586  2.918660
  7865.941  7865.940  0.500  1.371707  137.802356  34.956818  2.894541
  7867.659  7867.650  0.500  1.377139  137.768265  34.758840  2.862476
  7869.383  7869.380  0.500  1.383643  137.737519  34.525795  2.826111
  7871.138  7871.130  0.500  1.391048  137.680338  34.256868  2.787014
  7872.904  7872.890  0.500  1.398133  137.642860  34.005735  2.750389
  7874.683  7874.680  0.500  1.403744  137.612232  33.807950  2.721176
  7876.490  7876.480  0.500  1.407566  137.569271  33.668458  2.701065
  7878.320  7878.310  0.500  1.409861  137.503597  33.575243  2.687842
  7880.158  7880.150  0.500  1.410621  137.463893  33.540062  2.683304
  7882.018  7882.010  0.500  1.409189  137.419417  33.577235  2.687735
  7883.897  7883.890  0.500  1.405781  137.366125  33.678805  2.699809
  7885.799  7885.790  0.500  1.400988  137.317147  33.828567  2.716931
  7887.718  7887.710  0.500  1.395479  137.298389  34.010775  2.735631
  7889.662  7889.650  0.500  1.390017  137.239966  34.182496  2.753298
  7891.617  7891.610  0.500  1.384906  137.175922  34.341615  2.769590
  7893.586  7893.580  0.500  1.380661  137.106096  34.470160  2.784674
  7895.592  7895.580  0.500  1.377825  137.036997  34.550642  2.796602
  7897.601  7897.590  0.500  1.376771  137.017265  34.582085  2.804487
  7899.637  7899.620  0.500  1.377145  135.780142  34.257022  2.781893
  7901.691  7901.680  0.500  1.378374  136.854093  34.485573  2.803742
  7903.767  7903.750  0.500  1.379421  136.814559  34.439534  2.801837
  7905.847  7905.840  0.500  1.379715  136.791629  34.423638  2.802768
  7907.968  7907.950  0.500  1.379599  136.726406  34.411238  2.805398
  7910.088  7910.080  0.500  1.379234  136.688175  34.414152  2.813155
  7912.230  7912.220  0.500  1.378746  136.630826  34.416501  2.825993
  7914.401  7914.390  0.500  1.378048  136.565988  34.424189  2.844268
  7916.594  7916.580  0.500  1.377433  136.482822  34.424417  2.864522
  7918.793  7918.780  0.500  1.376419  136.473068  34.456869  2.887750
  7921.007  7921.000  0.500  1.374008  136.420378  34.526716  2.916491
  7923.271  7923.250  0.500  1.369265  136.370589  34.678207  2.948719
  7925.517  7925.510  0.500  1.362830  136.299094  34.883787  2.978221
  7927.813  7927.790  0.500  1.355697  135.426356  34.908539  2.985559
  7930.100  7930.090  0.500  1.349480  136.049627  35.287869  3.013805
  7932.426  7932.410  0.500  1.345968  136.051264  35.412463  3.017701
  7934.769  7934.750  0.500  1.344987  135.952514  35.421475  3.010538
  7937.116  7937.100  0.500  1.345649  136.199348  35.462332  3.009837
  7939.489  7939.480  0.500  1.346761  131.113319  34.100119  2.888800
  7941.882  7941.870  0.500  1.347933  136.390731  35.431117  2.997997
  7944.312  7944.290  0.500  1.348465  136.321924  35.394410  2.986977
  7946.733  7946.720  0.500  1.348405  136.242796  35.375985  2.974983
  7949.193  7949.170  0.500  1.348059  136.138813  35.361248  2.960844
  7951.657  7951.650  0.500  1.348013  135.680626  35.243838  2.939802
  7954.153  7954.140  0.500  1.348266  136.003772  35.318834  2.940015
  7956.664  7956.650  0.500  1.348758  135.919031  35.279459  2.937614
  7959.184  7959.170  0.500  1.349740  135.845527  35.225790  2.941115
  7961.739  7961.720  0.500  1.350957  135.747801  35.157634  2.950122
  7964.309  7964.290  0.500  1.352271  135.660036  35.088782  2.962859
  7966.888  7966.870  0.500  1.353211  135.582605  35.035801  2.978357
  7969.481  7969.480  0.500  1.352382  135.485225  35.039670  2.993837
  7972.118  7972.100  0.500  1.349549  135.352542  35.104662  3.011831
  7974.760  7974.750  0.500  1.345898  135.190608  35.190909  3.028417
  7977.429  7977.410  0.500  1.341848  135.023754  35.290121  3.042249
  7980.102  7980.090  0.500  1.338374  134.028441  35.151879  3.033260
  7982.801  7982.790  0.500  1.335472  134.795177  35.455700  3.060408
  7985.532  7985.510  0.500  1.332850  134.720423  35.529081  3.066668
  7988.266  7988.250  0.500  1.330366  134.680405  35.606886  3.072867
  7991.012  7991.000  0.500  1.327900  134.604118  35.674569  3.079352
  7993.790  7993.780  0.500  1.325470  134.535719  35.743198  3.084468
  7996.583  7996.570  0.500  1.323173  134.449193  35.802339  3.090033
  7999.406  7999.390  0.500  1.320755  134.371481  35.868283  3.098749
  8002.248  8002.220  0.500  1.318609  134.303853  35.927231  3.111426
  8005.083  8005.070  0.500  1.316942  134.246079  35.971685  3.127968
  8007.970  8007.950  0.500  1.315463  134.289838  36.036697  3.148245
  8010.859  8010.840  0.500  1.313870  134.290977  36.094444  3.167892
  8013.764  8013.750  0.500  1.312502  134.273378  36.139108  3.185197
  8016.685  8016.670  0.500  1.311306  134.217716  36.167352  3.198325
  8019.635  8019.620  0.500  1.310624  134.160719  36.176681  3.207313
  8022.602  8022.590  0.500  1.310439  134.091431  36.164674  3.211993
  8025.596  8025.570  0.500  1.310008  134.010381  36.158406  3.214664
  8028.594  8028.580  0.500  1.308826  133.913264  36.174926  3.217380
  8031.609  8031.600  0.500  1.306764  133.841901  36.230299  3.221385
  8034.673  8034.650  0.500  1.304061  133.744882  36.301996  3.227900
  8037.720  8037.710  0.500  1.301130  133.663096  36.386286  3.235575
  8040.808  8040.790  0.500  1.298634  133.564585  36.450337  3.241837
  8043.907  8043.890  0.500  1.296787  133.449685  36.486311  3.246119
  8047.031  8047.010  0.500  1.295353  133.358131  36.513606  3.249464
  8050.163  8050.150  0.500  1.294203  133.256192  36.527671  3.251773
  8053.313  8053.300  0.500  1.293115  133.130485  36.532946  3.258708
  8056.500  8056.480  0.500  1.291623  132.711125  36.472266  3.260723
  8059.687  8059.670  0.500  1.290249  132.887111  36.570825  3.276811
  8062.904  8062.890  0.500  1.288692  133.003743  36.659970  3.293016
  8066.143  8066.120  0.500  1.287160  132.782383  36.655064  3.301811
  8069.384  8069.370  0.500  1.285684  130.294448  36.021395  3.255622
  8072.662  8072.650  0.500  1.284162  132.732906  36.751436  3.331457
  8075.965  8075.940  0.500  1.282803  132.525921  36.744005  3.342395
  8079.268  8079.250  0.500  1.280500  126.847742  35.250789  3.218545
  8082.591  8082.570  0.500  1.277591  132.466372  36.919416  3.382550
  8085.930  8085.920  0.500  1.274996  132.311794  36.972163  3.394825
  8089.309  8089.290  0.500  1.272117  131.918346  36.968492  3.400267
  8092.690  8092.670  0.500  1.269210  132.044462  37.111585  3.418100
  8096.097  8096.080  0.500  1.266850  132.137478  37.225464  3.432070
  8099.513  8099.500  0.500  1.264634  131.993636  37.267421  3.438702
  8102.971  8102.950  0.500  1.262664  131.829579  37.294516  3.445883
  8106.429  8106.410  0.500  1.260354  131.729419  37.352371  3.456683
  8109.901  8109.890  0.500  1.258196  131.639380  37.407480  3.470253
  8113.402  8113.390  0.500  1.256116  131.517153  37.450545  3.485412
  8116.925  8116.910  0.500  1.254241  131.407227  37.489462  3.499275
  8120.463  8120.450  0.500  1.252258  131.302816  37.534051  3.514305
  8124.019  8124.000  0.500  1.250173  131.185497  37.578757  3.528790
  8127.597  8127.580  0.500  1.248360  131.039558  37.605074  3.539065
  8131.193  8131.180  0.500  1.246759  130.918074  37.630405  3.548661
  8134.809  8134.790  0.500  1.245060  130.798302  37.659937  3.559069
  8138.440  8138.420  0.500  1.242943  130.680190  37.705649  3.568042
  8142.096  8142.080  0.500  1.240789  130.555677  37.750944  3.579581
  8145.762  8145.750  0.500  1.238076  130.429651  37.816957  3.593408
  8149.446  8149.440  0.500  1.235615  130.292045  37.870161  3.607709
  8153.158  8153.150  0.500  1.233014  130.157502  37.929568  3.622576
  8156.894  8156.880  0.500  1.230522  130.009805  37.981081  3.634331
  8160.628  8160.620  0.500  1.228196  129.889060  38.034145  3.646528
  8164.397  8164.390  0.500  1.225714  129.799462  38.102375  3.658358
  8168.186  8168.180  0.500  1.223644  129.656917  38.139401  3.667824
  8171.988  8171.980  0.500  1.221919  129.517005  38.164014  3.674893
  8175.822  8175.810  0.500  1.219993  129.388436  38.199653  3.684783
  8179.657  8179.650  0.500  1.218446  129.226041  38.210750  3.694152
  8183.521  8183.510  0.500  1.216487  129.096291  38.247233  3.707263
  8187.406  8187.390  0.500  1.214644  128.938359  38.270927  3.719225
  8191.301  8191.290  0.500  1.212553  128.825424  38.317451  3.734078
  8195.220  8195.210  0.500  1.210526  128.701199  38.358147  3.748543
  8199.157  8199.150  0.500  1.208414  128.534992  38.389636  3.763622
  8203.115  8203.110  0.500  1.206186  128.400031  38.434842  3.780003
  8207.092  8207.080  0.500  1.203603  128.277419  38.497477  3.797787
  8211.093  8211.080  0.500  1.200559  128.135643  38.572156  3.815153
