# XDI/1.0 BlueSky/1.10.0 BMM/2023-1.0-py310-tiled
# Beamline.name: BMM (06BM) -- Beamline for Materials Measurement (NIST)
# Beamline.xray_source: NSLS-II three-pole wiggler
# Beamline.collimation: paraboloid mirror, 5 nm Rh on 30 nm Pt
# Beamline.focusing: not in use
# Beamline.harmonic_rejection: flat mirror, Pt stripe, pitch = 7.0 mrad relative to beam
# Beamline.software: Bluesky 1.10.0, Ophyd 1.7.0, DataBroker 2.0.0b13, Python 3.10.8, 2023-1.0-py310-tiled
# Detector.I0: 10 cm N2
# Detector.I1: 25 cm N2
# Detector.I2: 25 cm N2
# Element.symbol: Ni
# Element.edge: K
# Element.reference: Ni
# Element.reference_material: Ni foil
# Facility.name: NSLS-II
# Facility.energy: 3.0
# Facility.current: 399.6
# Facility.mode: top-off
# Facility.GUP: 301027
# Facility.SAF: 310583
# Facility.cycle: 2023-2
# Mono.name: Si(111)
# Mono.d_spacing: 3.1351860
# Mono.encoder_resolution: 0.0000050 deg/ct
# Mono.angle_offset: 16.0754326 deg
# Mono.scan_mode: pseudo channel cut
# Mono.scan_type: step
# Mono.direction: forward in energy
# Sample.name: Ni(OH)2
# Sample.prep: powder on tape
# Sample.x: 117.785 mm
# Sample.y: 114.695 mm
# Sample.SDD_position: 205.000 mm
# Scan.experimenters: Bruce Ravel
# Scan.edge_energy: 8332.8
# Scan.start_time: 2023-06-23T15:33:06
# Scan.end_time: 2023-06-23T15:41:24
# Scan.transient_id: 84850
# Scan.uid: 1ef347fd-dc43-4930-97ee-f357c3e4ee12
# Scan.plot_hint: ln(I0/It)  --  ln($5/$6)
# Column.1: energy eV
# Column.2: requested_energy eV
# Column.3: measurement_time seconds
# Column.4: xmu 
# Column.5: I0 nA
# Column.6: It nA
# Column.7: Ir nA
# ///////////
# BMM standards collection
# -----------
# energy  requested_energy  measurement_time  xmu  I0  It  Ir
  8132.807  8132.800  0.500  0.831370  134.028790  58.363119  22.431309
  8142.815  8142.800  0.500  0.824386  133.813356  58.677684  22.629188
  8152.823  8152.800  0.500  0.817375  133.539259  58.969520  22.821703
  8162.867  8162.800  0.500  0.812077  133.381514  59.212758  22.996159
  8172.860  8172.800  0.500  0.806371  133.145215  59.446055  23.164678
  8182.847  8182.800  0.500  0.800623  132.945411  59.699007  23.344591
  8192.914  8192.800  0.500  0.794925  132.765846  59.959033  23.525513
  8202.902  8202.800  0.500  0.789712  132.507559  60.155181  23.683119
  8212.826  8212.800  0.500  0.781149  132.699020  60.760165  24.001619
  8222.801  8222.800  0.500  0.775848  132.420946  60.955090  24.157008
  8232.806  8232.800  0.500  0.770460  132.256545  61.208349  24.339017
  8242.811  8242.800  0.500  0.765134  132.042060  61.435405  24.508534
  8252.817  8252.800  0.500  0.759970  131.794468  61.637721  24.665139
  8262.813  8262.800  0.500  0.755402  131.589648  61.823659  24.821177
  8272.817  8272.800  0.500  0.750537  131.395008  62.033291  24.977689
  8282.819  8282.800  0.500  0.745290  131.140779  62.239005  25.128778
  8292.820  8292.800  0.500  0.739958  130.895987  62.454930  25.286575
  8302.813  8302.800  0.500  0.735459  130.661295  62.624064  25.410277
  8304.793  8304.800  0.500  0.734093  130.594912  62.677807  25.438295
  8306.792  8306.800  0.500  0.732763  130.556599  62.742804  25.473903
  8308.789  8308.800  0.500  0.731872  130.504423  62.773603  25.492267
  8310.790  8310.800  0.500  0.730704  130.501449  62.845542  25.525047
  8312.786  8312.800  0.500  0.729593  130.484609  62.907279  25.551868
  8314.792  8314.800  0.500  0.728559  130.372844  62.918456  25.555058
  8316.796  8316.800  0.500  0.727663  130.320484  62.949549  25.559477
  8318.789  8318.800  0.500  0.726650  130.248299  62.978480  25.561829
  8320.795  8320.800  0.500  0.725724  130.267579  63.046118  25.567042
  8322.790  8322.800  0.500  0.724827  130.197900  63.068966  25.544235
  8323.075  8323.100  0.500  0.724320  130.161047  63.083058  25.545859
  8323.369  8323.400  0.500  0.723524  130.219010  63.161412  25.571031
  8323.672  8323.700  0.500  0.723227  130.166388  63.154664  25.557498
  8323.972  8324.000  0.500  0.722635  130.203935  63.210307  25.575471
  8324.278  8324.300  0.500  0.722167  130.157146  63.217116  25.567615
  8324.572  8324.600  0.500  0.721627  130.160272  63.252800  25.573639
  8324.878  8324.900  0.500  0.721097  130.132732  63.272933  25.570402
  8325.184  8325.200  0.500  0.720788  130.105714  63.279395  25.561351
  8325.487  8325.500  0.500  0.720417  130.131596  63.315428  25.564848
  8325.787  8325.800  0.500  0.720136  130.134256  63.334534  25.559411
  8326.079  8326.100  0.500  0.720079  130.126763  63.334461  25.542703
  8326.391  8326.400  0.500  0.719878  130.106900  63.337563  25.526808
  8326.679  8326.700  0.500  0.719761  130.065630  63.324877  25.507181
  8326.988  8327.000  0.500  0.719346  130.065977  63.351325  25.496574
  8327.288  8327.300  0.500  0.719180  130.058774  63.358359  25.475285
  8327.583  8327.600  0.500  0.718929  130.046806  63.368427  25.454070
  8327.883  8327.900  0.500  0.718390  129.978045  63.369072  25.427359
  8328.180  8328.200  0.500  0.718400  129.971472  63.365198  25.394770
  8328.490  8328.500  0.500  0.718199  130.029687  63.406339  25.376980
  8328.781  8328.800  0.500  0.717926  130.011202  63.414633  25.337701
  8329.081  8329.100  0.500  0.717678  130.004665  63.427190  25.294576
  8329.388  8329.400  0.500  0.717414  129.990384  63.436920  25.238946
  8329.685  8329.700  0.500  0.717292  129.975899  63.437609  25.165234
  8329.986  8330.000  0.500  0.717207  129.962806  63.436617  25.075228
  8330.295  8330.300  0.500  0.716864  129.973008  63.463374  24.969682
  8330.593  8330.600  0.500  0.716635  129.946324  63.464860  24.820117
  8330.890  8330.900  0.500  0.717326  129.865744  63.381694  24.591595
  8331.197  8331.200  0.500  0.717627  129.890376  63.374639  24.306776
  8331.497  8331.500  0.500  0.717640  129.836141  63.347375  23.933847
  8331.801  8331.800  0.500  0.718247  129.909890  63.344874  23.452494
  8332.095  8332.100  0.500  0.718932  129.889989  63.291811  22.869727
  8332.393  8332.400  0.500  0.720612  129.857729  63.169896  22.203988
  8332.688  8332.700  0.500  0.721550  129.837912  63.101021  21.542092
  8332.991  8333.000  0.500  0.721366  129.814386  63.101201  20.906351
  8333.286  8333.300  0.500  0.720297  129.778911  63.151439  20.344059
  8333.587  8333.600  0.500  0.720076  129.736109  63.144552  19.818044
  8333.894  8333.900  0.500  0.719002  129.708060  63.198704  19.355301
  8334.191  8334.200  0.500  0.718018  129.656713  63.235906  18.957252
  8334.495  8334.500  0.500  0.716922  129.634031  63.294199  18.607566
  8334.799  8334.800  0.500  0.716619  129.565831  63.280027  18.299680
  8335.097  8335.100  0.500  0.716690  129.596275  63.290445  18.041593
  8335.395  8335.400  0.500  0.716996  129.568399  63.257470  17.821037
  8335.702  8335.700  0.500  0.716524  129.582395  63.294140  17.656361
  8336.002  8336.000  0.500  0.716894  129.517111  63.238884  17.499790
  8336.294  8336.300  0.500  0.717705  129.491790  63.175265  17.364155
  8336.589  8336.600  0.500  0.718071  129.560971  63.185886  17.259726
  8336.896  8336.900  0.500  0.719610  129.533323  63.075204  17.125225
  8337.197  8337.200  0.500  0.720360  129.536113  63.029297  17.006111
  8337.501  8337.500  0.500  0.722327  129.492663  62.884329  16.840497
  8337.802  8337.800  0.500  0.724922  129.482074  62.716221  16.649012
  8338.106  8338.100  0.500  0.727941  129.490544  62.531307  16.425347
  8338.401  8338.400  0.500  0.731400  129.476504  62.308605  16.176152
  8338.703  8338.700  0.500  0.734815  129.458913  62.087740  15.916808
  8338.998  8339.000  0.500  0.739411  129.423549  61.786149  15.644417
  8339.296  8339.300  0.500  0.743186  129.443431  61.562841  15.404287
  8339.594  8339.600  0.500  0.747995  129.422228  61.257446  15.162995
  8339.895  8339.900  0.500  0.753641  129.392270  60.898461  14.922122
  8340.193  8340.200  0.500  0.759811  129.366053  60.511608  14.688168
  8340.501  8340.500  0.500  0.767235  129.354133  60.058465  14.440012
  8340.799  8340.800  0.500  0.776154  129.399129  59.545906  14.177708
  8341.103  8341.100  0.500  0.786030  129.319104  58.924251  13.886862
  8341.402  8341.400  0.500  0.796926  129.311497  58.282299  13.582980
  8341.703  8341.700  0.500  0.809046  129.315683  57.582038  13.250307
  8342.001  8342.000  0.500  0.821445  129.307373  56.868843  12.906653
  8342.300  8342.300  0.500  0.833284  129.260903  56.179331  12.556631
  8342.601  8342.600  0.500  0.844511  129.281616  55.561025  12.218173
  8342.896  8342.900  0.500  0.854719  129.194007  54.959472  11.872471
  8343.195  8343.200  0.500  0.864585  129.250550  54.443717  11.541948
  8343.496  8343.500  0.500  0.874960  129.215793  53.867319  11.184898
  8343.798  8343.800  0.500  0.885869  129.205941  53.278810  10.826328
  8344.099  8344.100  0.500  0.898242  129.194556  52.619027  10.451908
  8344.398  8344.400  0.500  0.912012  129.186914  51.896357  10.070680
  8344.699  8344.700  0.500  0.928033  129.146924  51.055730  9.673059
  8344.998  8345.000  0.500  0.946900  129.122352  50.091941  9.256900
  8345.300  8345.300  0.500  0.967396  129.112299  49.071924  8.854010
  8345.595  8345.600  0.500  0.990183  129.111069  47.965897  8.449740
  8345.891  8345.900  0.500  1.015972  129.101911  46.741403  8.043926
  8346.193  8346.200  0.500  1.043798  129.088793  45.454074  7.642544
  8346.494  8346.500  0.500  1.074399  129.080360  44.081316  7.243313
  8346.796  8346.800  0.500  1.106127  129.082363  42.705330  6.862896
  8347.104  8347.100  0.500  1.137305  129.056817  41.386196  6.511026
  8347.402  8347.400  0.500  1.165329  129.041532  40.237729  6.208650
  8347.698  8347.700  0.500  1.186995  129.014256  39.366989  5.973726
  8348.000  8348.000  0.500  1.202565  128.985211  38.750092  5.798165
  8348.308  8348.300  0.500  1.212184  128.955776  38.370383  5.678079
  8348.607  8348.600  0.500  1.216769  128.942790  38.191006  5.604156
  8348.899  8348.900  0.500  1.218497  128.936713  38.123245  5.561630
  8349.195  8349.200  0.500  1.218928  128.900618  38.096174  5.535625
  8349.485  8349.500  0.500  1.219188  128.880064  38.080198  5.521257
  8349.790  8349.800  0.500  1.220027  128.870318  38.045374  5.512371
  8350.086  8350.100  0.500  1.221251  128.849186  37.992614  5.507477
  8350.388  8350.400  0.500  1.220000  128.806014  38.027427  5.522809
  8350.684  8350.700  0.500  1.219343  128.754140  38.037094  5.537882
  8350.992  8351.000  0.500  1.215711  128.739286  38.171097  5.578532
  8351.291  8351.300  0.500  1.208370  128.741591  38.453002  5.642363
  8351.596  8351.600  0.500  1.199242  128.619712  38.768884  5.710649
  8351.898  8351.900  0.500  1.188451  128.657175  39.200910  5.799687
  8352.200  8352.200  0.500  1.176515  128.661381  39.672925  5.891560
  8352.491  8352.500  0.500  1.162810  128.635714  40.212348  5.993488
  8352.793  8352.800  0.500  1.148051  128.574530  40.790832  6.098711
  8353.086  8353.100  0.500  1.133195  128.508905  41.380243  6.201119
  8353.388  8353.400  0.500  1.117433  128.509934  42.037953  6.307325
  8353.684  8353.700  0.500  1.102207  128.510259  42.683036  6.403535
  8353.987  8354.000  0.500  1.087808  128.497532  43.297798  6.484936
  8354.295  8354.300  0.500  1.075440  128.466232  43.825950  6.542982
  8354.714  8354.600  0.500  1.062080  128.453943  44.411150  6.592007
  8354.870  8354.900  0.500  1.051275  128.375853  44.866316  6.634815
  8355.172  8355.200  0.500  1.042396  128.412805  45.279508  6.647256
  8355.489  8355.500  0.500  1.034364  128.377665  45.632133  6.641645
  8355.833  8355.800  0.500  1.024595  128.388632  46.084042  6.639668
  8356.076  8356.100  0.500  1.014795  128.319582  46.512860  6.654473
  8356.414  8356.400  0.500  1.006803  128.342262  46.894359  6.642310
  8356.708  8356.700  0.500  1.000319  128.338995  47.198233  6.633189
  8357.013  8357.000  0.500  0.993755  128.311245  47.498795  6.628147
  8357.307  8357.300  0.500  0.987586  128.317059  47.794851  6.637046
  8357.609  8357.600  0.500  0.982081  128.301943  48.053034  6.647822
  8357.801  8357.800  0.500  0.979074  128.280633  48.189743  6.657912
  8358.802  8358.790  0.500  0.964366  128.309421  48.914718  6.774946
  8359.799  8359.790  0.500  0.955875  128.270101  49.316702  6.921236
  8360.821  8360.810  0.500  0.954701  128.248210  49.366236  7.026146
  8361.874  8361.860  0.500  0.958989  128.244527  49.153603  7.078377
  8362.932  8362.920  0.500  0.966795  128.238816  48.769194  7.107938
  8364.015  8364.000  0.500  0.972165  128.266994  48.518691  7.182944
  8365.107  8365.100  0.500  0.970364  128.428622  48.667374  7.327450
  8366.239  8366.220  0.500  0.962891  128.495179  49.057842  7.477570
  8367.373  8367.360  0.500  0.953944  128.460902  49.485551  7.590323
  8368.536  8368.510  0.500  0.944110  128.422801  49.959762  7.694369
  8369.707  8369.690  0.500  0.934444  128.420192  50.443996  7.786638
  8370.891  8370.880  0.500  0.926335  128.423470  50.855978  7.834429
  8372.111  8372.100  0.500  0.917175  128.372865  51.303740  7.842631
  8373.347  8373.330  0.500  0.908811  128.343415  51.722802  7.802272
  8374.589  8374.580  0.500  0.905215  128.325178  51.901736  7.691521
  8375.870  8375.850  0.500  0.904643  128.243921  51.898553  7.531492
  8377.158  8377.140  0.500  0.906037  128.207647  51.811622  7.349319
  8378.462  8378.450  0.500  0.912215  128.274779  51.519440  7.130064
  8379.795  8379.780  0.500  0.918995  128.181046  51.133975  6.918514
  8381.145  8381.130  0.500  0.927292  128.224731  50.728713  6.751957
  8382.507  8382.500  0.500  0.935756  128.180674  50.283877  6.655257
  8383.887  8383.880  0.500  0.944371  128.117144  49.827826  6.634558
  8385.295  8385.290  0.500  0.953065  128.033077  49.364089  6.678939
  8386.725  8386.710  0.500  0.962861  128.019325  48.877659  6.778986
  8388.158  8388.150  0.500  0.971124  127.907977  48.433260  6.904252
  8389.619  8389.610  0.500  0.977686  127.904287  48.115110  7.038634
  8391.102  8391.090  0.500  0.985361  127.820814  47.716079  7.134507
  8392.600  8392.590  0.500  0.990255  127.843115  47.491426  7.232131
  8394.117  8394.110  0.500  0.993221  127.726926  47.307739  7.300328
  8395.655  8395.650  0.500  0.995636  127.767315  47.208528  7.333046
  8397.219  8397.210  0.500  0.995193  127.701773  47.205247  7.338738
  8398.792  8398.780  0.500  0.991466  127.673991  47.371205  7.359466
  8400.387  8400.380  0.500  0.986142  127.619316  47.603674  7.409091
  8401.994  8401.990  0.500  0.980352  127.571987  47.862334  7.479793
  8403.639  8403.630  0.500  0.974488  127.522006  48.124981  7.543731
  8405.293  8405.280  0.500  0.968777  127.491482  48.388986  7.579172
  8406.951  8406.950  0.500  0.963565  127.464579  48.631623  7.574809
  8408.655  8408.640  0.500  0.960116  127.408960  48.778302  7.534445
  8410.363  8410.350  0.500  0.957472  127.371725  48.893181  7.504300
  8412.087  8412.080  0.500  0.954239  127.323132  49.032800  7.488301
  8413.842  8413.830  0.500  0.951324  127.267268  49.154349  7.454711
  8415.607  8415.590  0.500  0.948619  127.241786  49.277623  7.393838
  8417.382  8417.380  0.500  0.945933  127.207415  49.396839  7.317320
  8419.203  8419.180  0.500  0.943491  127.110976  49.480045  7.244330
  8421.025  8421.010  0.500  0.939921  127.128576  49.663876  7.188823
  8422.866  8422.850  0.500  0.935993  127.066009  49.834811  7.121519
  8424.732  8424.710  0.500  0.932256  127.031040  50.007621  7.037436
  8426.599  8426.590  0.500  0.929247  126.976681  50.136849  6.935208
  8428.506  8428.490  0.500  0.926746  126.934119  50.245583  6.841056
  8430.424  8430.410  0.500  0.925109  126.891595  50.311001  6.771785
  8432.360  8432.350  0.500  0.924772  126.789433  50.287473  6.750016
  8434.325  8434.310  0.500  0.924487  126.791164  50.302497  6.798682
  8436.288  8436.280  0.500  0.924958  126.732901  50.255712  6.897129
  8438.292  8438.280  0.500  0.924644  126.655715  50.240846  7.030581
  8440.312  8440.290  0.500  0.923660  126.635081  50.282108  7.187827
  8442.324  8442.320  0.500  0.922273  126.585647  50.332273  7.356951
  8444.395  8444.380  0.500  0.920401  126.524063  50.402055  7.521960
  8446.460  8446.450  0.500  0.917821  126.459400  50.506435  7.650383
  8448.545  8448.540  0.500  0.914729  126.417658  50.646083  7.766020
  8450.668  8450.650  0.500  0.912826  126.326101  50.705830  7.903345
  8452.780  8452.780  0.500  0.909962  126.316760  50.847465  8.090575
  8454.945  8454.920  0.500  0.909357  126.250694  50.851662  8.268840
  8457.099  8457.090  0.500  0.909886  126.174528  50.794091  8.395969
  8459.294  8459.280  0.500  0.912182  126.089752  50.643545  8.437619
  8461.497  8461.480  0.500  0.915633  126.031404  50.445727  8.397154
  8463.715  8463.700  0.500  0.919104  126.017876  50.265538  8.294951
  8465.972  8465.950  0.500  0.921168  125.938603  50.130353  8.160566
  8468.212  8468.210  0.500  0.921617  125.892579  50.089521  8.025258
  8470.505  8470.490  0.500  0.920974  125.784514  50.078741  7.893997
  8472.806  8472.790  0.500  0.920297  125.746753  50.097611  7.799288
  8475.133  8475.110  0.500  0.919733  125.677660  50.098314  7.757020
  8477.461  8477.450  0.500  0.919826  125.621207  50.071151  7.768975
  8479.818  8479.800  0.500  0.919603  125.569944  50.061886  7.815088
  8482.204  8482.180  0.500  0.919261  125.528458  50.062463  7.837264
  8484.586  8484.570  0.500  0.917394  125.468477  50.132029  7.789264
  8487.009  8486.990  0.500  0.914207  125.376976  50.255401  7.637037
  8489.427  8489.420  0.500  0.911848  125.299775  50.343068  7.411448
  8491.890  8491.870  0.500  0.907482  125.269173  50.551015  7.226869
  8494.357  8494.350  0.500  0.904630  125.219774  50.675381  7.107706
  8496.861  8496.840  0.500  0.898913  125.110169  50.921322  7.079707
  8499.356  8499.350  0.500  0.893776  125.061519  51.163686  7.095313
  8501.896  8501.870  0.500  0.889249  125.009831  51.374592  7.140260
  8504.441  8504.420  0.500  0.884863  124.892090  51.551803  7.234466
  8507.012  8506.990  0.500  0.881804  124.802904  51.672831  7.394024
  8509.585  8509.570  0.500  0.880499  124.760928  51.722896  7.607136
  8512.207  8512.180  0.500  0.879458  124.670335  51.739180  7.877520
  8514.814  8514.800  0.500  0.880125  124.626406  51.686456  8.188939
  8517.473  8517.450  0.500  0.881032  124.562339  51.613035  8.518903
  8520.124  8520.110  0.500  0.881048  124.396078  51.543341  8.816362
  8522.811  8522.790  0.500  0.880521  124.228054  51.500848  9.015144
  8525.509  8525.490  0.500  0.879085  124.013818  51.485906  9.068119
  8528.231  8528.210  0.500  0.877606  123.232002  51.237062  8.938824
  8530.970  8530.950  0.500  0.872802  108.658789  45.395373  7.765905
  8533.721  8533.700  0.500  0.875331  124.007895  51.677063  8.630698
  8536.498  8536.480  0.500  0.873899  124.375408  51.904504  8.488745
  8539.290  8539.270  0.500  0.873340  124.298367  51.901358  8.347408
  8542.105  8542.090  0.500  0.872546  124.185389  51.895348  8.263365
  8544.939  8544.920  0.500  0.871034  124.124521  51.948422  8.253200
  8547.780  8547.770  0.500  0.869623  124.015734  51.976180  8.281046
  8550.664  8550.650  0.500  0.867584  123.918500  52.041451  8.333374
  8553.559  8553.540  0.500  0.864878  123.822581  52.142032  8.396613
  8556.476  8556.450  0.500  0.860658  123.787855  52.347849  8.488359
  8559.391  8559.370  0.500  0.856816  123.737150  52.527856  8.598683
  8562.337  8562.320  0.500  0.854755  123.610389  52.582307  8.676043
  8565.310  8565.290  0.500  0.854900  123.578974  52.561327  8.671243
  8568.294  8568.270  0.500  0.854138  123.502345  52.568762  8.568808
  8571.303  8571.280  0.500  0.854286  123.379242  52.508570  8.396555
  8574.314  8574.300  0.500  0.853707  123.339373  52.522041  8.254281
  8577.362  8577.350  0.500  0.851595  123.243500  52.592174  8.168087
  8580.421  8580.410  0.500  0.850146  123.131208  52.620431  8.116785
  8583.496  8583.490  0.500  0.849143  123.101525  52.660533  8.109291
