# XDI/1.0 BlueSky/1.10.0 BMM/2023-1.0-py310-tiled
# Beamline.name: BMM (06BM) -- Beamline for Materials Measurement (NIST)
# Beamline.xray_source: NSLS-II three-pole wiggler
# Beamline.collimation: paraboloid mirror, 5 nm Rh on 30 nm Pt
# Beamline.focusing: not in use
# Beamline.harmonic_rejection: flat mirror, Pt stripe, pitch = 7.0 mrad relative to beam
# Beamline.software: Bluesky 1.10.0, Ophyd 1.7.0, DataBroker 2.0.0b13, Python 3.10.8, 2023-1.0-py310-tiled
# Detector.I0: 10 cm N2
# Detector.I1: 25 cm N2
# Detector.I2: 25 cm N2
# Element.symbol: Ni
# Element.edge: K
# Element.reference: Ni
# Element.reference_material: Ni foil
# Facility.name: NSLS-II
# Facility.energy: 3.0
# Facility.current: 400.5
# Facility.mode: top-off
# Facility.GUP: 301027
# Facility.SAF: 310583
# Facility.cycle: 2023-2
# Mono.name: Si(111)
# Mono.d_spacing: 3.1351860
# Mono.encoder_resolution: 0.0000050 deg/ct
# Mono.angle_offset: 16.0754326 deg
# Mono.scan_mode: pseudo channel cut
# Mono.scan_type: step
# Mono.direction: forward in energy
# Sample.name: Ni foil
# Sample.prep: reference foil
# Sample.x: 109.138 mm
# Sample.y: 153.150 mm
# Sample.SDD_position: 205.000 mm
# Scan.experimenters: Bruce Ravel
# Scan.edge_energy: 8332.8
# Scan.start_time: 2023-05-28T14:55:46
# Scan.end_time: 2023-05-28T15:03:42
# Scan.transient_id: 78777
# Scan.uid: 93081eaf-854b-48c6-ac5d-88cebc1c2845
# Scan.plot_hint: ln(It/Ir)  --  ln($6/$7)
# Column.1: energy eV
# Column.2: requested_energy eV
# Column.3: measurement_time seconds
# Column.4: xmu 
# Column.5: I0 nA
# Column.6: It nA
# Column.7: Ir nA
# ///////////
# standard reference foil
# -----------
# energy  requested_energy  measurement_time  xmu  I0  It  Ir
  8132.790  8132.800  0.500  1.064226  135.462252  167.946311  57.940628
  8142.829  8142.800  0.500  1.060347  135.338514  168.069443  58.208440
  8152.837  8152.800  0.500  1.056502  135.186935  168.170492  58.467802
  8162.847  8162.800  0.500  1.052685  135.013123  168.247300  58.718203
  8172.866  8172.800  0.500  1.048721  134.863131  168.339075  58.983616
  8182.844  8182.800  0.500  1.044937  134.722215  168.416501  59.234441
  8192.873  8192.800  0.500  1.041153  134.588783  168.512328  59.492864
  8202.813  8202.800  0.500  1.037472  134.420770  168.608147  59.746166
  8212.840  8212.800  0.500  1.033776  134.333087  168.776669  60.027344
  8222.818  8222.800  0.500  1.030078  134.176337  168.844707  60.274006
  8232.812  8232.800  0.500  1.026453  134.024423  168.919871  60.519842
  8242.811  8242.800  0.500  1.022795  133.930386  169.069876  60.795597
  8252.820  8252.800  0.500  1.019258  133.754317  169.099453  61.021693
  8262.813  8262.800  0.500  1.015822  133.627454  169.236980  61.281499
  8272.814  8272.800  0.500  1.012497  133.482509  169.314766  61.513868
  8282.816  8282.800  0.500  1.009163  133.267151  169.311885  61.718241
  8293.215  8292.800  0.500  1.006299  133.751415  170.209911  62.223539
  8302.780  8302.800  0.500  1.003723  133.756187  170.489180  62.486411
  8304.769  8304.800  0.500  1.003338  133.733601  170.516729  62.520577
  8306.780  8306.800  0.500  1.002933  133.700615  170.499788  62.539697
  8308.774  8308.800  0.500  1.002682  133.672117  170.554695  62.575524
  8310.781  8310.800  0.500  1.002444  133.645323  170.551162  62.589138
  8312.780  8312.800  0.500  1.002274  133.610558  170.573395  62.607930
  8314.783  8314.800  0.500  1.002334  133.574027  170.603341  62.615127
  8316.778  8316.800  0.500  1.002401  133.548261  170.537864  62.586926
  8318.777  8318.800  0.500  1.002811  133.496538  170.534947  62.560207
  8320.783  8320.800  0.500  1.003566  133.480552  170.594847  62.534927
  8322.784  8322.800  0.500  1.004805  133.439926  170.579809  62.451972
  8323.069  8323.100  0.500  1.004950  133.416787  170.534585  62.426362
  8323.372  8323.400  0.500  1.005294  133.407609  170.543428  62.408164
  8323.669  8323.700  0.500  1.005590  133.397839  170.579611  62.402930
  8323.972  8324.000  0.500  1.005889  133.390002  170.567664  62.379904
  8324.278  8324.300  0.500  1.006224  133.381307  170.570693  62.360085
  8324.578  8324.600  0.500  1.006610  133.370655  170.555669  62.330569
  8324.875  8324.900  0.500  1.007042  133.363076  170.516443  62.289316
  8325.175  8325.200  0.500  1.007448  133.354458  170.520814  62.265610
  8325.484  8325.500  0.500  1.007968  133.339957  170.521843  62.233637
  8325.775  8325.800  0.500  1.008456  133.345123  170.511510  62.199469
  8326.079  8326.100  0.500  1.009105  133.339842  170.529274  62.165616
  8326.379  8326.400  0.500  1.009618  133.337670  170.556583  62.143654
  8326.676  8326.700  0.500  1.010454  133.321078  170.545513  62.087691
  8326.979  8327.000  0.500  1.011256  133.319128  170.532189  62.033115
  8327.279  8327.300  0.500  1.012170  133.306208  170.522419  61.972861
  8327.589  8327.600  0.500  1.013122  133.297448  170.521841  61.913664
  8327.874  8327.900  0.500  1.014250  133.304059  170.520918  61.843577
  8328.183  8328.200  0.500  1.015516  133.278393  170.506158  61.759999
  8328.481  8328.500  0.500  1.016937  133.267773  170.552462  61.689048
  8328.787  8328.800  0.500  1.018693  133.266613  170.557294  61.582512
  8329.087  8329.100  0.500  1.020658  133.256002  170.553116  61.460136
  8329.385  8329.400  0.500  1.023042  133.243838  170.522970  61.302975
  8329.694  8329.700  0.500  1.026165  133.251111  170.521734  61.111384
  8329.983  8330.000  0.500  1.029822  133.245718  170.510042  60.884089
  8330.295  8330.300  0.500  1.034775  133.217475  170.509465  60.583104
  8330.596  8330.600  0.500  1.041174  133.223814  170.508611  60.196375
  8330.896  8330.900  0.500  1.049812  133.202961  170.483581  59.669864
  8331.197  8331.200  0.500  1.061567  133.200442  170.504394  58.979725
  8331.485  8331.500  0.500  1.077295  133.197503  170.517164  58.063723
  8331.798  8331.800  0.500  1.099016  133.161169  170.491076  56.807409
  8332.089  8332.100  0.500  1.123430  133.154074  170.475546  55.432244
  8332.393  8332.400  0.500  1.152298  133.149029  170.440116  53.843712
  8332.685  8332.700  0.500  1.181687  133.130049  170.429556  52.281116
  8332.994  8333.000  0.500  1.211753  133.103854  170.409157  50.726563
  8333.286  8333.300  0.500  1.239170  133.087016  170.398642  49.351629
  8333.587  8333.600  0.500  1.264859  133.059120  170.390210  48.097611
  8333.894  8333.900  0.500  1.289083  133.026603  170.367023  46.940096
  8334.191  8334.200  0.500  1.309557  133.001605  170.343987  45.982603
  8334.492  8334.500  0.500  1.328602  132.982944  170.346805  45.115902
  8334.790  8334.800  0.500  1.344669  132.965346  170.330241  44.392487
  8335.094  8335.100  0.500  1.358715  132.939095  170.290366  43.763042
  8335.404  8335.400  0.500  1.370363  132.926235  170.296438  43.257797
  8335.693  8335.700  0.500  1.379539  132.912504  170.286674  42.860239
  8336.002  8336.000  0.500  1.387681  132.912404  170.304369  42.517077
  8336.294  8336.300  0.500  1.394301  132.904599  170.313107  42.238743
  8336.604  8336.600  0.500  1.400501  132.885940  170.295453  41.973306
  8336.899  8336.900  0.500  1.406312  132.884805  170.278329  41.725914
  8337.200  8337.200  0.500  1.412833  132.877410  170.253726  41.448732
  8337.498  8337.500  0.500  1.420469  132.859737  170.241659  41.130480
  8337.793  8337.800  0.500  1.429594  132.866427  170.233140  40.754870
  8338.100  8338.100  0.500  1.440652  132.846607  170.244713  40.309406
  8338.387  8338.400  0.500  1.452335  132.846110  170.250125  39.842481
  8338.697  8338.700  0.500  1.465066  132.827943  170.236176  39.335224
  8338.992  8339.000  0.500  1.477602  132.810393  170.228435  38.843434
  8339.290  8339.300  0.500  1.489415  132.798256  170.220897  38.385573
  8339.597  8339.600  0.500  1.500471  132.790978  170.232888  37.966213
  8339.889  8339.900  0.500  1.510310  132.763724  170.213831  37.590291
  8340.202  8340.200  0.500  1.520167  132.759648  170.217789  37.222439
  8340.492  8340.500  0.500  1.529353  132.743588  170.204877  36.879283
  8340.802  8340.800  0.500  1.539384  132.733614  170.187660  36.507507
  8341.097  8341.100  0.500  1.549964  132.706304  170.151432  36.115595
  8341.402  8341.400  0.500  1.561867  132.701981  170.156381  35.689283
  8341.703  8341.700  0.500  1.574987  132.687826  170.159208  35.224710
  8342.001  8342.000  0.500  1.589309  132.678587  170.138718  34.719634
  8342.309  8342.300  0.500  1.605668  132.663692  170.132016  34.154922
  8342.598  8342.600  0.500  1.622526  132.656140  170.127229  33.583017
  8342.902  8342.900  0.500  1.641058  132.639793  170.114705  32.963950
  8343.201  8343.200  0.500  1.660777  132.620951  170.075035  32.312790
  8343.499  8343.500  0.500  1.681901  132.608670  170.071563  31.636704
  8343.801  8343.800  0.500  1.703867  132.597452  170.084316  30.951686
  8344.093  8344.100  0.500  1.726731  132.585242  170.088033  30.252684
  8344.398  8344.400  0.500  1.751311  132.568124  170.069733  29.514968
  8344.693  8344.700  0.500  1.775359  132.565714  170.066420  28.813098
  8344.995  8345.000  0.500  1.800377  132.564755  170.075463  28.102694
  8345.300  8345.300  0.500  1.825753  132.551636  170.069447  27.397552
  8345.595  8345.600  0.500  1.850436  132.543473  170.026576  26.722831
  8345.897  8345.900  0.500  1.875038  132.896254  170.496071  26.145439
  8346.196  8346.200  0.500  1.898520  132.907099  170.555829  25.547574
  8346.506  8346.500  0.500  1.922921  132.920470  170.585287  24.936046
  8346.805  8346.800  0.500  1.945024  132.921930  170.554596  24.386551
  8347.104  8347.100  0.500  1.966154  132.915133  170.555211  23.876746
  8347.405  8347.400  0.500  1.985310  132.902025  170.565076  23.425077
  8347.698  8347.700  0.500  2.001157  132.890718  170.553880  23.055268
  8348.003  8348.000  0.500  2.014494  132.885682  170.557906  22.750354
  8348.305  8348.300  0.500  2.024584  132.870381  170.561061  22.522386
  8348.610  8348.600  0.500  2.032209  132.860344  170.583882  22.354279
  8348.899  8348.900  0.500  2.037262  132.846890  170.525865  22.234056
  8349.201  8349.200  0.500  2.040469  132.819738  170.490878  22.158312
  8349.500  8349.500  0.500  2.042010  132.791458  170.483821  22.123277
  8349.796  8349.800  0.500  2.042359  132.772564  170.438624  22.109702
  8350.098  8350.100  0.500  2.041074  132.741787  170.387299  22.131451
  8350.394  8350.400  0.500  2.038911  132.724790  170.364533  22.176410
  8350.696  8350.700  0.500  2.035760  132.697598  170.342360  22.243519
  8350.995  8351.000  0.500  2.032138  132.661980  170.308420  22.319780
  8351.294  8351.300  0.500  2.027909  132.635863  170.284221  22.411172
  8351.599  8351.600  0.500  2.023477  132.609083  170.267529  22.508530
  8351.892  8351.900  0.500  2.019215  132.574948  170.231325  22.599847
  8352.203  8352.200  0.500  2.015030  132.545017  170.197159  22.690075
  8352.503  8352.500  0.500  2.011337  132.518332  170.166560  22.769930
  8352.808  8352.800  0.500  2.008201  132.498868  170.152328  22.839543
  8353.104  8353.100  0.500  2.006007  132.478821  170.133783  22.887208
  8353.400  8353.400  0.500  2.005007  132.465356  170.146158  22.911776
  8353.711  8353.700  0.500  2.005451  132.456820  170.144324  22.901357
  8354.005  8354.000  0.500  2.007468  132.428471  170.126095  22.852762
  8354.304  8354.300  0.500  2.010765  132.439788  170.159368  22.781997
  8354.609  8354.600  0.500  2.015896  132.441581  170.186678  22.669047
  8354.896  8354.900  0.500  2.021961  132.434832  170.171613  22.529970
  8355.199  8355.200  0.500  2.029599  132.427131  170.154488  22.356295
  8355.498  8355.500  0.500  2.037815  132.433262  170.148540  22.172593
  8355.795  8355.800  0.500  2.046690  132.432773  170.151257  21.977037
  8356.097  8356.100  0.500  2.055634  132.422250  170.143457  21.780348
  8356.399  8356.400  0.500  2.064533  132.412459  170.131531  21.585874
  8356.690  8356.700  0.500  2.071988  132.397782  170.134336  21.425904
  8356.995  8357.000  0.500  2.078462  132.382036  170.135807  21.287823
  8357.304  8357.300  0.500  2.083303  132.382321  170.148697  21.186623
  8357.606  8357.600  0.500  2.086231  132.369330  170.142456  21.123905
  8357.795  8357.800  0.500  2.087212  132.378583  170.177246  21.107503
  8358.796  8358.790  0.500  2.082922  132.365098  170.155282  21.195518
  8359.790  8359.790  0.500  2.069069  132.346428  170.174020  21.493537
  8360.818  8360.810  0.500  2.054960  132.342603  170.208449  21.803349
  8361.877  8361.860  0.500  2.043593  132.357633  170.249026  22.057866
  8362.938  8362.920  0.500  2.031266  132.344992  170.272787  22.334580
  8364.018  8364.000  0.500  2.015237  132.336003  170.272231  22.695386
  8365.104  8365.100  0.500  1.998661  132.313796  170.257517  23.072723
  8366.236  8366.220  0.500  1.986696  132.298569  170.258647  23.350608
  8367.373  8367.360  0.500  1.980489  132.286086  170.279158  23.498813
  8368.524  8368.510  0.500  1.976444  132.263733  170.282596  23.594544
  8369.695  8369.690  0.500  1.974392  132.253684  170.285971  23.643466
  8370.888  8370.880  0.500  1.976471  132.245324  170.308821  23.597545
  8372.117  8372.100  0.500  1.984679  132.222525  170.336825  23.408499
  8373.344  8373.330  0.500  1.998263  132.193775  170.332594  23.092075
  8374.577  8374.580  0.500  2.016414  132.201994  170.378265  22.682814
  8375.867  8375.850  0.500  2.037645  132.176594  170.371001  22.205359
  8377.152  8377.140  0.500  2.060600  132.165062  170.390206  21.703883
  8378.465  8378.450  0.500  2.085445  132.144604  170.430280  21.176265
  8379.783  8379.780  0.500  2.107798  132.126615  170.408438  20.705512
  8381.148  8381.130  0.500  2.123916  132.100374  170.397559  20.373164
  8382.513  8382.500  0.500  2.128407  132.071001  170.402618  20.282468
  8383.893  8383.880  0.500  2.121619  132.027453  170.402229  20.420571
  8385.298  8385.290  0.500  2.105101  131.995114  170.371816  20.756977
  8386.725  8386.710  0.500  2.079942  131.959771  170.368464  21.285409
  8388.155  8388.150  0.500  2.052306  131.907225  170.339578  21.878133
  8389.613  8389.610  0.500  2.026838  131.869602  170.301049  22.437411
  8391.105  8391.090  0.500  2.005106  131.832900  170.294837  22.929518
  8392.603  8392.590  0.500  1.987068  131.806395  170.348369  23.354219
  8394.108  8394.110  0.500  1.974269  131.776937  170.336104  23.653357
  8395.658  8395.650  0.500  1.968205  131.741075  170.306909  23.793139
  8397.222  8397.210  0.500  1.967703  131.714929  170.326389  23.807808
  8398.786  8398.780  0.500  1.968212  131.668350  170.298255  23.791752
  8400.399  8400.380  0.500  1.965963  131.637841  170.307912  23.846685
  8401.997  8401.990  0.500  1.961658  131.615730  170.318899  23.951099
  8403.633  8403.630  0.500  1.958672  131.581633  170.324572  24.023539
  8405.296  8405.280  0.500  1.959725  131.555067  170.339506  24.000360
  8406.957  8406.950  0.500  1.965363  131.542662  170.355956  23.867721
  8408.646  8408.640  0.500  1.973516  131.508189  170.337357  23.671348
  8410.366  8410.350  0.500  1.979923  131.474758  170.359063  23.523155
  8412.093  8412.080  0.500  1.984846  131.441624  170.399934  23.413248
  8413.836  8413.830  0.500  1.991915  131.425540  170.373660  23.244744
  8415.607  8415.590  0.500  2.002963  131.387730  170.345212  22.985503
  8417.382  8417.380  0.500  2.015685  131.351997  170.366998  22.697845
  8419.185  8419.180  0.500  2.027191  131.326059  170.351490  22.436131
  8421.025  8421.010  0.500  2.038724  131.291263  170.336809  22.176948
  8422.850  8422.850  0.500  2.051431  131.259485  170.368146  21.900969
  8424.723  8424.710  0.500  2.067088  131.231733  170.374193  21.561504
  8426.599  8426.590  0.500  2.084342  131.207181  170.376403  21.192947
  8428.500  8428.490  0.500  2.100093  131.158581  170.360591  20.859802
  8430.427  8430.410  0.500  2.110987  131.135015  170.396359  20.638124
  8432.345  8432.350  0.500  2.113169  131.098599  170.401232  20.593728
  8434.325  8434.310  0.500  2.105662  131.053835  170.404085  20.749254
  8436.291  8436.280  0.500  2.089833  131.000792  170.388401  21.078373
  8438.289  8438.280  0.500  2.069924  130.974754  170.396293  21.503230
  8440.297  8440.290  0.500  2.048670  130.936910  170.416217  21.967717
  8442.330  8442.320  0.500  2.026147  130.895470  170.419146  22.468500
  8444.391  8444.380  0.500  2.005481  130.865532  170.421016  22.937899
  8446.451  8446.450  0.500  1.990645  130.821454  170.421089  23.280754
  8448.558  8448.540  0.500  1.978020  130.775155  170.408322  23.574784
  8450.653  8450.650  0.500  1.961623  130.728214  170.384981  23.961230
  8452.796  8452.780  0.500  1.940215  130.684913  170.367598  24.477242
  8454.933  8454.920  0.500  1.918699  130.642065  170.387384  25.012505
  8457.102  8457.090  0.500  1.902312  130.596931  170.376066  25.424061
  8459.288  8459.280  0.500  1.894919  130.537916  170.358221  25.610031
  8461.497  8461.480  0.500  1.896290  130.483891  170.348457  25.573486
  8463.706  8463.700  0.500  1.905049  130.444352  170.314432  25.345396
  8465.957  8465.950  0.500  1.918858  130.392535  170.270054  24.991302
  8468.224  8468.210  0.500  1.935008  130.345411  170.272684  24.591317
  8470.512  8470.490  0.500  1.951283  130.297337  170.276505  24.194861
  8472.806  8472.790  0.500  1.963506  130.236583  170.273992  23.900583
  8475.130  8475.110  0.500  1.968441  130.175178  170.271946  23.782644
  8477.467  8477.450  0.500  1.965923  130.115058  170.211131  23.834093
  8479.821  8479.800  0.500  1.960015  130.075138  170.217679  23.976224
  8482.198  8482.180  0.500  1.957079  130.006718  170.173207  24.040459
  8484.586  8484.570  0.500  1.965237  129.957582  170.167600  23.844333
  8487.002  8486.990  0.500  1.988044  129.897505  170.150747  23.304361
  8489.436  8489.420  0.500  2.020050  129.844096  170.170531  22.572927
  8491.887  8491.870  0.500  2.049112  129.785013  170.186793  21.928451
  8494.351  8494.350  0.500  2.067646  129.726056  170.123930  21.517817
  8496.851  8496.840  0.500  2.075882  129.669322  170.116391  21.340385
  8499.350  8499.350  0.500  2.078226  129.624436  170.141520  21.293560
  8501.887  8501.870  0.500  2.075741  129.561380  170.131998  21.345341
  8504.422  8504.420  0.500  2.065506  129.512120  170.104940  21.561507
  8507.003  8506.990  0.500  2.045685  129.444144  170.058045  21.987072
  8509.570  8509.570  0.500  2.017477  129.383386  170.059124  22.616255
  8512.194  8512.180  0.500  1.982497  129.326224  170.053829  23.420652
  8514.808  8514.800  0.500  1.942258  129.261985  170.038944  24.380166
  8517.457  8517.450  0.500  1.901209  129.200805  170.013472  25.397956
  8520.127  8520.110  0.500  1.865487  129.120516  169.971150  26.315063
  8522.802  8522.790  0.500  1.842756  129.034719  169.897689  26.908441
  8525.503  8525.490  0.500  1.836956  128.895394  169.785634  27.047135
  8528.222  8528.210  0.500  1.846787  128.440324  169.238592  26.696233
  8530.967  8530.950  0.500  1.866811  113.874634  150.099780  23.207828
  8533.708  8533.700  0.500  1.890809  127.621660  168.278340  25.401554
  8536.505  8536.480  0.500  1.911857  128.582704  169.623604  25.071338
  8539.281  8539.270  0.500  1.928244  128.648773  169.779088  24.686428
  8542.109  8542.090  0.500  1.937836  128.628879  169.829679  24.458055
  8544.935  8544.920  0.500  1.940046  128.582665  169.854379  24.407631
  8547.780  8547.770  0.500  1.936879  128.524456  169.837132  24.482564
  8550.667  8550.650  0.500  1.931768  128.467350  169.829281  24.606860
  8553.544  8553.540  0.500  1.925962  128.413592  169.823219  24.749280
  8556.470  8556.450  0.500  1.918667  128.349127  169.816677  24.929519
  8559.379  8559.370  0.500  1.909021  128.279685  169.791110  25.167353
  8562.330  8562.320  0.500  1.901103  128.220484  169.777372  25.365378
  8565.294  8565.290  0.500  1.901495  128.143395  169.749348  25.351246
