# XDI/1.0 BlueSky/1.5.0
# Beamline.name: 6BM
# Beamline.xray_source: NSLS-II three-pole wiggler
# Beamline.collimation: paraboloid mirror, 5 nm Rh on 30 nm Pt
# Beamline.focusing: not in use
# Beamline.harmonic_rejection: flat mirror, Si stripe, pitch = 7.0 mrad relative to beam
# Detector.i0: 10 cm N2
# Detector.i1: 25 cm N2
# Detector.i2: 25 cm N2
# Element.symbol: Ti
# Element.edge: K
# Facility.name: NSLS-II
# Facility.energy: 3.0
# Facility.current: 219.4
# Facility.mode: top-off
# Facility.gup: 301027
# Facility.saf: 304156
# Mono.name: Si(111)
# Mono.d_spacing: 3.1353241
# Mono.encoder_resolution: 0.0000050 deg/ct
# Mono.angle_offset: 16.0576931 deg
# Mono.scan_mode: pseudo channel cut
# Mono.scan_type: step
# Mono.direction: forward in energy
# Sample.name: Eu2Ti2O7 pyrochlore
# Sample.prep: powder on tape
# Sample.x_position: -97.500 mm
# Sample.y_position: 115.250 mm
# Sample.wheel_position: 0.000 mm
# Scan.experimenters: Bruce Ravel
# Scan.edge_energy: 4966.0
# Scan.start_time: 2019-06-16T20:39:25
# Scan.end_time: 2019-06-16T23:06:51
# Scan.transient_id: 10639
# Scan.uid: 13bb7c02-38da-4619-ae76-ad642b5872ee
# Scan.plot_hint: ln(I0/It)  --  ln($5/$6)
# Scan.sequence: merge of 9 scans
# Column.1: energy eV
# Column.2: requested_energy eV
# Column.3: measurement_time seconds
# Column.4: mutrans
# Column.5: i0
# Column.6: itrans
# Column.7: irefer
# /////
#  from Fatih Dogan, 1993
# -----
# energy   requested_energy   measurement_time   mutrans   i0   itrans   irefer
4765.994000 4766.000000 0.500000 3.298278 8.529566 0.315141 0.020981
4776.007000 4776.000000 0.500000 3.273615 8.731844 0.330668 0.022493
4786.008000 4786.000000 0.500000 3.249044 8.952498 0.347457 0.024071
4796.008000 4796.000000 0.500000 3.225389 9.168524 0.364360 0.025641
4806.008000 4806.000000 0.500000 3.201300 9.388443 0.382197 0.027255
4816.007000 4816.000000 0.500000 3.177510 9.602639 0.400328 0.029228
4826.006000 4826.000000 0.500000 3.153849 9.820939 0.419231 0.031060
4836.004000 4836.000000 0.500000 3.130648 10.034690 0.438408 0.032980
4846.067000 4846.000000 0.500000 3.107444 10.267140 0.459158 0.035250
4855.996000 4856.000000 0.500000 3.084695 10.491782 0.479926 0.037489
4866.003000 4866.000000 0.500000 3.061854 10.718668 0.501634 0.039803
4876.008000 4876.000000 0.500000 3.039474 10.942237 0.523700 0.042264
4886.002000 4886.000000 0.500000 3.016901 11.169063 0.546751 0.044792
4896.005000 4896.000000 0.500000 2.994806 11.394608 0.570255 0.047377
4906.003000 4906.000000 0.500000 2.972941 11.626316 0.594716 0.050279
4916.002000 4916.000000 0.500000 2.951204 11.859415 0.619970 0.053339
4926.001000 4926.000000 0.500000 2.929426 12.101191 0.646538 0.056423
4935.998000 4936.000000 0.500000 2.908285 12.328861 0.672773 0.059631
4937.999000 4938.000000 0.500000 2.903761 12.370698 0.678121 0.060182
4940.000000 4940.000000 0.500000 2.899466 12.428384 0.684211 0.060890
4942.007000 4942.000000 0.500000 2.895372 12.474465 0.689571 0.061585
4944.004000 4944.000000 0.500000 2.891020 12.517081 0.694940 0.062266
4946.002000 4946.000000 0.500000 2.886900 12.555641 0.699960 0.062896
4947.998000 4948.000000 0.500000 2.882466 12.586688 0.704807 0.063575
4949.996000 4950.000000 0.500000 2.878371 12.631791 0.710235 0.064090
4951.997000 4952.000000 0.500000 2.874375 12.672642 0.715386 0.064643
4953.995000 4954.000000 0.500000 2.870079 12.713021 0.720753 0.065327
4955.998000 4956.000000 0.500000 2.865879 12.752368 0.726029 0.065930
4956.248000 4956.250000 0.500000 2.865340 12.755543 0.726606 0.065998
4956.496000 4956.500000 0.500000 2.864812 12.766043 0.727586 0.066123
4956.746000 4956.750000 0.500000 2.864401 12.776311 0.728471 0.066236
4956.994000 4957.000000 0.500000 2.864057 12.780822 0.728977 0.066274
4957.245000 4957.250000 0.500000 2.863602 12.784390 0.729513 0.066225
4957.493000 4957.500000 0.500000 2.862789 12.797572 0.730858 0.066411
4957.744000 4957.750000 0.500000 2.862340 12.804522 0.731584 0.066411
4957.995000 4958.000000 0.500000 2.861835 12.808581 0.732188 0.066677
4958.244000 4958.250000 0.500000 2.861228 12.814736 0.732983 0.066610
4958.495000 4958.500000 0.500000 2.860724 12.820139 0.733660 0.066722
4958.745000 4958.750000 0.500000 2.860226 12.836667 0.734972 0.066824
4958.998000 4959.000000 0.500000 2.859774 12.841996 0.735614 0.066792
4959.246000 4959.250000 0.500000 2.859406 12.847969 0.736226 0.066835
4959.495000 4959.500000 0.500000 2.858794 12.852029 0.736908 0.066972
4959.745000 4959.750000 0.500000 2.858315 12.856482 0.737517 0.066943
4959.995000 4960.000000 0.500000 2.858044 12.861760 0.738019 0.066867
4960.245000 4960.250000 0.500000 2.857516 12.867136 0.738716 0.067131
4960.494000 4960.500000 0.500000 2.857041 12.871538 0.739319 0.067080
4960.747000 4960.750000 0.500000 2.856553 12.874575 0.739858 0.067088
4960.997000 4961.000000 0.500000 2.855978 12.880764 0.740639 0.067014
4961.246000 4961.250000 0.500000 2.855479 12.885834 0.741301 0.067026
4961.498000 4961.500000 0.500000 2.854902 12.892634 0.742124 0.067046
4961.746000 4961.750000 0.500000 2.854488 12.896001 0.742622 0.067072
4961.996000 4962.000000 0.500000 2.854173 12.902491 0.743230 0.067026
4962.246000 4962.250000 0.500000 2.853446 12.906378 0.743993 0.066931
4962.494000 4962.500000 0.500000 2.853164 12.912144 0.744534 0.066873
4962.746000 4962.750000 0.500000 2.852593 12.916122 0.745188 0.066625
4962.998000 4963.000000 0.500000 2.852116 12.921341 0.745846 0.066448
4963.247000 4963.250000 0.500000 2.851825 12.924675 0.746257 0.066124
4963.498000 4963.500000 0.500000 2.851298 12.930900 0.747010 0.065608
4963.745000 4963.750000 0.500000 2.850812 12.935043 0.747610 0.064750
4963.997000 4964.000000 0.500000 2.850388 12.938156 0.748108 0.063443
4964.244000 4964.250000 0.500000 2.849996 12.943068 0.748683 0.061213
4964.496000 4964.500000 0.500000 2.849621 12.948402 0.749272 0.058154
4964.748000 4964.750000 0.500000 2.849336 12.963778 0.750376 0.053758
4964.999000 4965.000000 0.500000 2.848796 12.969514 0.751115 0.049407
4965.250000 4965.250000 0.500000 2.848700 12.971764 0.751320 0.046568
4965.499000 4965.500000 0.500000 2.848262 12.976011 0.751893 0.045434
4965.746000 4965.750000 0.500000 2.848031 12.982480 0.752442 0.046112
4965.998000 4966.000000 0.500000 2.848002 12.986836 0.752716 0.047654
4966.247000 4966.250000 0.500000 2.848385 12.992240 0.752743 0.049503
4966.500000 4966.500000 0.500000 2.848912 13.009377 0.753332 0.050953
4966.749000 4966.750000 0.500000 2.850324 13.013479 0.752512 0.052106
4967.001000 4967.000000 0.500000 2.852022 13.014804 0.751307 0.052701
4967.249000 4967.250000 0.500000 2.853798 13.017716 0.750147 0.052522
4967.498000 4967.500000 0.500000 2.854459 13.021198 0.749852 0.052105
4967.748000 4967.750000 0.500000 2.854127 13.027620 0.750469 0.051517
4967.998000 4968.000000 0.500000 2.853918 13.034334 0.751011 0.050938
4968.248000 4968.250000 0.500000 2.855053 13.038987 0.750436 0.050080
4968.498000 4968.500000 0.500000 2.856965 13.042723 0.749225 0.049065
4968.748000 4968.750000 0.500000 2.859870 13.045367 0.747206 0.047975
4969.002000 4969.000000 0.500000 2.863106 13.047026 0.744868 0.047163
4969.248000 4969.250000 0.500000 2.865182 13.046880 0.743327 0.046610
4969.499000 4969.500000 0.500000 2.865506 13.050466 0.743283 0.046041
4969.747000 4969.750000 0.500000 2.864293 13.051710 0.744247 0.045865
4969.998000 4970.000000 0.500000 2.863208 13.056763 0.745347 0.045466
4970.249000 4970.250000 0.500000 2.862337 13.064848 0.746458 0.045615
4970.498000 4970.500000 0.500000 2.860972 13.074846 0.748047 0.045395
4970.752000 4970.750000 0.500000 2.858333 13.083881 0.750552 0.045339
4971.003000 4971.000000 0.500000 2.855612 13.092548 0.753105 0.045198
4971.251000 4971.250000 0.500000 2.853686 13.101245 0.755050 0.044802
4971.501000 4971.500000 0.500000 2.852188 13.108377 0.756591 0.044254
4971.747000 4971.750000 0.500000 2.851911 13.123134 0.757648 0.043591
4972.000000 4972.000000 0.500000 2.852862 13.128408 0.757234 0.042772
4972.247000 4972.250000 0.500000 2.854863 13.131554 0.755927 0.041835
4972.501000 4972.500000 0.500000 2.856784 13.137725 0.754803 0.040723
4972.750000 4972.750000 0.500000 2.858641 13.141194 0.753616 0.039799
4973.002000 4973.000000 0.500000 2.859978 13.144285 0.752770 0.038967
4973.246000 4973.250000 0.500000 2.860974 13.148078 0.752251 0.038067
4973.500000 4973.500000 0.500000 2.862238 13.151202 0.751470 0.037292
4973.747000 4973.750000 0.500000 2.862903 13.152390 0.751041 0.036460
4974.002000 4974.000000 0.500000 2.863565 13.155453 0.750714 0.035809
4974.250000 4974.250000 0.500000 2.864141 13.171271 0.751186 0.035000
4974.501000 4974.500000 0.500000 2.864149 13.173032 0.751279 0.034348
4974.752000 4974.750000 0.500000 2.863657 13.175902 0.751814 0.033661
4975.000000 4975.000000 0.500000 2.863005 13.177625 0.752399 0.033210
4975.249000 4975.250000 0.500000 2.862076 13.179173 0.753187 0.032510
4975.501000 4975.500000 0.500000 2.861863 13.180318 0.753417 0.031974
4975.752000 4975.750000 0.500000 2.861453 13.181104 0.753769 0.031207
4976.003000 4976.000000 0.500000 2.861474 13.181093 0.753751 0.030554
4976.251000 4976.250000 0.500000 2.861745 13.180602 0.753520 0.030251
4976.501000 4976.500000 0.500000 2.862700 13.182131 0.752891 0.029629
4976.751000 4976.750000 0.500000 2.864281 13.184774 0.751843 0.028998
4976.999000 4977.000000 0.500000 2.866447 13.185878 0.750294 0.028537
4977.250000 4977.250000 0.500000 2.869460 13.188554 0.748174 0.028130
4977.501000 4977.500000 0.500000 2.873379 13.190275 0.745353 0.027753
4977.752000 4977.750000 0.500000 2.877327 13.193518 0.742585 0.027353
4978.003000 4978.000000 0.500000 2.881149 13.195657 0.739880 0.027005
4978.252000 4978.250000 0.500000 2.884234 13.197939 0.737726 0.026661
4978.499000 4978.500000 0.500000 2.886853 13.200361 0.735946 0.026346
4978.749000 4978.750000 0.500000 2.889668 13.203469 0.734047 0.026104
4978.999000 4979.000000 0.500000 2.892361 13.204463 0.732127 0.025875
4979.252000 4979.250000 0.500000 2.896106 13.205552 0.729433 0.025771
4979.501000 4979.500000 0.500000 2.899930 13.205547 0.726669 0.025507
4979.752000 4979.750000 0.500000 2.904465 13.213345 0.723805 0.025446
4980.002000 4980.000000 0.500000 2.909486 13.215831 0.720305 0.025023
4980.254000 4980.250000 0.500000 2.915288 13.213954 0.716000 0.024958
4980.499000 4980.500000 0.500000 2.922432 13.211983 0.710865 0.024580
4980.751000 4980.750000 0.500000 2.931177 13.213376 0.704718 0.024285
4981.000000 4981.000000 0.500000 2.940837 13.224350 0.698520 0.024005
4981.251000 4981.250000 0.500000 2.951591 13.223896 0.691053 0.023677
4981.502000 4981.500000 0.500000 2.963520 13.225782 0.682947 0.023303
4981.752000 4981.750000 0.500000 2.976836 13.229058 0.674056 0.022897
4982.002000 4982.000000 0.500000 2.991454 13.233010 0.664416 0.022489
4982.251000 4982.250000 0.500000 3.006431 13.235066 0.654708 0.022117
4982.500000 4982.500000 0.500000 3.022035 13.238284 0.644692 0.021737
4982.750000 4982.750000 0.500000 3.037058 13.241752 0.635309 0.021225
4983.002000 4983.000000 0.500000 3.050781 13.243735 0.626703 0.020921
4983.251000 4983.250000 0.500000 3.062208 13.249215 0.619919 0.020712
4983.503000 4983.500000 0.500000 3.073083 13.258790 0.613588 0.020289
4983.750000 4983.750000 0.500000 3.082797 13.259202 0.607725 0.020198
4984.004000 4984.000000 0.500000 3.091294 13.258509 0.602455 0.019987
4984.248000 4984.250000 0.500000 3.098522 13.257321 0.598151 0.019955
4984.500000 4984.500000 0.500000 3.103653 13.259163 0.595137 0.019910
4984.749000 4984.750000 0.500000 3.105987 13.261335 0.593855 0.020128
4985.002000 4985.000000 0.500000 3.106029 13.268287 0.594135 0.020033
4985.253000 4985.250000 0.500000 3.102480 13.277809 0.596670 0.020295
4985.503000 4985.500000 0.500000 3.097167 13.280816 0.600008 0.020587
4985.749000 4985.750000 0.500000 3.089978 13.282324 0.604354 0.020784
4986.001000 4986.000000 0.500000 3.082910 13.282518 0.608694 0.021104
4986.250000 4986.250000 0.500000 3.076001 13.285520 0.613020 0.021319
4986.501000 4986.500000 0.500000 3.069560 13.292708 0.617335 0.021718
4986.752000 4986.750000 0.500000 3.064105 13.291979 0.620683 0.021875
4987.001000 4987.000000 0.500000 3.059181 13.291847 0.623721 0.022156
4987.253000 4987.250000 0.500000 3.054859 13.290041 0.626352 0.022291
4987.502000 4987.500000 0.500000 3.051041 13.290552 0.628774 0.022342
4987.749000 4987.750000 0.500000 3.047522 13.292974 0.631092 0.022437
4988.001000 4988.000000 0.500000 3.044471 13.296335 0.633199 0.022521
4988.251000 4988.250000 0.500000 3.041751 13.300863 0.635136 0.022659
4988.502000 4988.500000 0.500000 3.039560 13.308944 0.636918 0.022657
4988.753000 4988.750000 0.500000 3.037612 13.318854 0.638633 0.022729
4989.001000 4989.000000 0.500000 3.036875 13.330721 0.639669 0.022868
4989.252000 4989.250000 0.500000 3.036676 13.340304 0.640256 0.022707
4989.500000 4989.500000 0.500000 3.037753 13.352353 0.640147 0.022759
4989.750000 4989.750000 0.500000 3.039151 13.364547 0.639829 0.022914
4990.000000 4990.000000 0.500000 3.042498 13.376530 0.638275 0.022741
4990.250000 4990.250000 0.500000 3.045820 13.387038 0.636652 0.022863
4990.504000 4990.500000 0.500000 3.049556 13.397791 0.634779 0.022751
4990.751000 4990.750000 0.500000 3.052907 13.409470 0.633224 0.022712
4991.001000 4991.000000 0.500000 3.056399 13.420712 0.631550 0.022494
4991.250000 4991.250000 0.500000 3.059010 13.429470 0.630314 0.022665
4991.501000 4991.500000 0.500000 3.061835 13.437249 0.628885 0.022643
4991.748000 4991.750000 0.500000 3.064270 13.447972 0.627866 0.022581
4992.001000 4992.000000 0.500000 3.066621 13.467716 0.627301 0.022588
4992.252000 4992.250000 0.500000 3.067874 13.474714 0.626840 0.022611
4992.503000 4992.500000 0.500000 3.068699 13.481964 0.626661 0.022586
4992.753000 4992.750000 0.500000 3.069013 13.488216 0.626756 0.022620
4993.000000 4993.000000 0.500000 3.068976 13.495291 0.627109 0.022701
4993.251000 4993.250000 0.500000 3.067866 13.500626 0.628053 0.022924
4993.502000 4993.500000 0.500000 3.066878 13.505220 0.628894 0.022800
4993.750000 4993.750000 0.500000 3.065793 13.508050 0.629701 0.022643
4994.004000 4994.000000 0.500000 3.064387 13.512623 0.630808 0.022727
4994.251000 4994.250000 0.500000 3.063179 13.516829 0.631758 0.022799
4994.505000 4994.500000 0.500000 3.062658 13.531506 0.632780 0.022599
4994.751000 4994.750000 0.500000 3.061832 13.537555 0.633580 0.022718
4995.000000 4995.000000 0.500000 3.061528 13.542783 0.634019 0.022685
4995.250000 4995.250000 0.500000 3.061328 13.547333 0.634360 0.022516
4995.501000 4995.500000 0.500000 3.061229 13.549325 0.634517 0.022403
4995.749000 4995.750000 0.500000 3.060792 13.552559 0.634943 0.022257
4996.002000 4996.000000 0.700000 3.060561 18.937102 0.887417 0.030990
4997.089000 4997.080000 0.710000 3.057695 19.260239 0.905150 0.030843
4998.194000 4998.180000 0.730000 3.050410 19.808045 0.937731 0.031047
4999.291000 4999.290000 0.740000 3.039611 20.093921 0.961538 0.031322
5000.434000 5000.430000 0.750000 3.029944 20.423109 0.986796 0.032243
5001.587000 5001.580000 0.760000 3.026448 20.742108 1.005731 0.032917
5002.765000 5002.760000 0.780000 3.028717 21.340808 1.032416 0.034006
5003.954000 5003.950000 0.790000 3.032169 21.668348 1.044657 0.034549
5005.166000 5005.160000 0.800000 3.028573 22.002882 1.064601 0.035742
5006.392000 5006.390000 0.810000 3.014810 22.341159 1.095918 0.037616
5007.645000 5007.640000 0.830000 2.998652 22.951601 1.144212 0.040372
5008.916000 5008.910000 0.840000 2.983784 23.284883 1.178232 0.042962
5010.205000 5010.200000 0.850000 2.966752 23.616677 1.215556 0.045113
5011.513000 5011.510000 0.860000 2.952244 23.949085 1.250658 0.046859
5012.834000 5012.830000 0.880000 2.942922 24.576710 1.295467 0.049017
5014.186000 5014.180000 0.890000 2.937685 24.906054 1.319724 0.050485
5015.544000 5015.540000 0.900000 2.935211 25.235573 1.340497 0.051743
5016.933000 5016.930000 0.910000 2.935047 25.571329 1.358556 0.052872
5018.335000 5018.330000 0.930000 2.934182 26.189430 1.392598 0.054790
5019.757000 5019.750000 0.940000 2.930127 26.533616 1.416636 0.056353
5021.193000 5021.190000 0.950000 2.923385 26.877423 1.444690 0.057964
5022.652000 5022.650000 0.960000 2.916598 27.220290 1.473076 0.059387
5024.135000 5024.130000 0.980000 2.911799 27.855262 1.514700 0.061054
5025.634000 5025.630000 0.990000 2.909454 28.198472 1.536962 0.061700
5027.144000 5027.140000 1.000000 2.908689 28.547298 1.557170 0.062425
5028.684000 5028.680000 1.010000 2.908965 28.897697 1.575851 0.062615
5030.244000 5030.240000 1.030000 2.908503 29.534034 1.611295 0.063398
5031.815000 5031.810000 1.040000 2.906951 29.884314 1.632938 0.062996
5033.405000 5033.400000 1.050000 2.904044 30.237105 1.657021 0.062653
5035.016000 5035.010000 1.060000 2.900706 30.594628 1.682222 0.062014
5036.656000 5036.650000 1.080000 2.898061 31.246353 1.722611 0.062770
5038.305000 5038.300000 1.090000 2.896941 31.611862 1.744713 0.062769
5039.973000 5039.970000 1.100000 2.896304 32.004504 1.767509 0.063593
5041.648000 5041.650000 1.110000 2.895289 32.388094 1.790508 0.064700
5043.366000 5043.360000 1.130000 2.893960 33.060532 1.830122 0.067051
5045.087000 5045.090000 1.140000 2.893007 33.430404 1.852357 0.068762
5046.834000 5046.830000 1.150000 2.892619 33.806168 1.873902 0.071128
5048.600000 5048.600000 1.160000 2.892571 34.184498 1.894975 0.073620
5050.379000 5050.380000 1.180000 2.891190 34.858661 1.935027 0.076998
5052.177000 5052.180000 1.190000 2.887814 35.251250 1.963437 0.080176
5053.993000 5054.000000 1.200000 2.883238 35.690581 1.997005 0.083017
5055.834000 5055.840000 1.210000 2.879129 36.086135 2.027446 0.085414
5057.691000 5057.700000 1.230000 2.876275 36.782483 2.072471 0.087649
5059.574000 5059.580000 1.240000 2.874195 37.186508 2.099608 0.089062
5061.472000 5061.480000 1.250000 2.871885 37.588027 2.127176 0.090556
5063.392000 5063.400000 1.260000 2.868422 37.989741 2.157368 0.092610
5065.323000 5065.330000 1.280000 2.863988 38.711121 2.208096 0.095459
5067.284000 5067.290000 1.290000 2.858581 39.156234 2.245608 0.098141
5069.254000 5069.260000 1.300000 2.852740 39.575061 2.282924 0.100234
5071.250000 5071.260000 1.310000 2.846252 39.997088 2.322259 0.102566
5073.263000 5073.270000 1.330000 2.839688 40.726716 2.380214 0.105450
5075.295000 5075.300000 1.340000 2.833628 41.144416 2.419262 0.106755
5077.346000 5077.350000 1.350000 2.828459 41.569999 2.456949 0.107377
5079.412000 5079.420000 1.360000 2.823888 41.992527 2.493287 0.107628
5081.507000 5081.510000 1.380000 2.818569 42.725805 2.550366 0.108410
5083.604000 5083.610000 1.390000 2.812407 43.147614 2.591464 0.108163
5085.734000 5085.740000 1.400000 2.805712 43.597703 2.636078 0.108221
5087.889000 5087.890000 1.410000 2.799127 44.045561 2.680796 0.108538
5090.045000 5090.050000 1.430000 2.792535 44.788617 2.744010 0.110397
5092.224000 5092.230000 1.440000 2.786529 45.215888 2.786866 0.112630
5094.438000 5094.440000 1.450000 2.781320 45.650783 2.828368 0.116317
5096.655000 5096.660000 1.460000 2.777454 46.090213 2.866642 0.120962
5098.895000 5098.900000 1.480000 2.773703 46.844322 2.924487 0.127420
5101.161000 5101.160000 1.490000 2.769452 47.285774 2.964643 0.133314
5103.442000 5103.440000 1.500000 2.764668 47.736995 3.007303 0.138367
5105.739000 5105.740000 1.510000 2.759143 48.189511 3.052594 0.142492
5108.054000 5108.050000 1.530000 2.754217 48.989257 3.118616 0.146254
5110.394000 5110.390000 1.540000 2.749424 49.436495 3.162208 0.148807
5112.744000 5112.740000 1.550000 2.744991 49.891157 3.205466 0.151168
5115.123000 5115.120000 1.560000 2.740315 50.366223 3.251147 0.153856
5117.508000 5117.510000 1.580000 2.735972 51.159825 3.316714 0.157232
5119.920000 5119.920000 1.590000 2.732349 51.614020 3.358319 0.159905
5122.351000 5122.350000 1.600000 2.729353 52.064583 3.397804 0.162293
5124.802000 5124.800000 1.610000 2.726242 52.523436 3.438446 0.165195
5127.271000 5127.270000 1.630000 2.722474 53.318969 3.503699 0.169711
5129.762000 5129.760000 1.640000 2.717843 53.829932 3.553686 0.173228
5132.272000 5132.270000 1.650000 2.712929 54.294154 3.601992 0.175874
