# XDI/1.0 BlueSky/1.5.0
# Beamline.name: 6BM
# Beamline.xray_source: NSLS-II three-pole wiggler
# Beamline.collimation: paraboloid mirror, 5 nm Rh on 30 nm Pt
# Beamline.focusing: not in use
# Beamline.harmonic_rejection: flat mirror, Si stripe, pitch = 7.0 mrad relative to beam
# Detector.i0: 10 cm N2
# Detector.i1: 25 cm N2
# Detector.i2: 25 cm N2
# Element.symbol: Ti
# Element.edge: K
# Facility.name: NSLS-II
# Facility.energy: 3.0
# Facility.current: 220.5
# Facility.mode: top-off
# Facility.gup: 301027
# Facility.saf: 304156
# Mono.name: Si(111)
# Mono.d_spacing: 3.1353241
# Mono.encoder_resolution: 0.0000050 deg/ct
# Mono.angle_offset: 16.0576931 deg
# Mono.scan_mode: pseudo channel cut
# Mono.scan_type: step
# Mono.direction: forward in energy
# Sample.name: Li2TiO5
# Sample.prep: Powder in polyethylene glycol pellet
# Sample.x_position: -97.500 mm
# Sample.y_position: 115.250 mm
# Sample.wheel_position: 30.000 mm
# Scan.experimenters: Bruce Ravel
# Scan.edge_energy: 4966.0
# Scan.start_time: 2019-06-16T15:41:20
# Scan.end_time: 2019-06-16T18:11:15
# Scan.transient_id: 10621
# Scan.uid: 84886ac2-6dbb-43d7-9855-9aeb89350303
# Scan.plot_hint: ln(I0/It)  --  ln($5/$6)
# Scan.sequence: merge of 9 scans
# Column.1: energy eV
# Column.2: requested_energy eV
# Column.3: measurement_time seconds
# Column.4: mutrans
# Column.5: i0
# Column.6: itrans
# Column.7: irefer
# /////
#  from Martin Stennet
# -----
# energy   requested_energy   measurement_time   mutrans   i0   itrans   irefer
4765.995000 4766.000000 0.500000 5.773535 8.377634 0.026045 0.001047
4776.007000 4776.000000 0.500000 5.725533 8.586826 0.028007 0.001372
4786.009000 4786.000000 0.500000 5.683950 8.794434 0.029903 0.001417
4796.009000 4796.000000 0.500000 5.642147 9.007278 0.031933 0.001632
4806.008000 4806.000000 0.500000 5.599353 9.224540 0.034133 0.001942
4816.007000 4816.000000 0.500000 5.565907 9.438794 0.036114 0.001998
4826.007000 4826.000000 0.500000 5.525207 9.655348 0.038477 0.002376
4836.005000 4836.000000 0.500000 5.487128 9.862909 0.040820 0.002512
4846.004000 4846.000000 0.500000 5.449017 10.086426 0.043378 0.002724
4856.003000 4856.000000 0.500000 5.412351 10.305588 0.045974 0.003063
4866.012000 4866.000000 0.500000 5.374273 10.532117 0.048810 0.003353
4876.013000 4876.000000 0.500000 5.335785 10.761589 0.051831 0.003737
4886.006000 4886.000000 0.500000 5.302091 10.991288 0.054750 0.003889
4896.011000 4896.000000 0.500000 5.265518 11.215053 0.057946 0.004155
4906.005000 4906.000000 0.500000 5.227980 11.456443 0.061457 0.004762
4916.004000 4916.000000 0.500000 5.195558 11.689220 0.064773 0.005014
4926.002000 4926.000000 0.500000 5.160562 11.923274 0.068422 0.005411
4936.003000 4936.000000 0.500000 5.124317 12.165986 0.072392 0.005974
4937.999000 4938.000000 0.500000 5.116961 12.211270 0.073197 0.006033
4939.997000 4940.000000 0.500000 5.110203 12.257829 0.073973 0.006057
4941.998000 4942.000000 0.500000 5.103395 12.302392 0.074748 0.006195
4944.003000 4944.000000 0.500000 5.095751 12.348037 0.075603 0.006274
4946.003000 4946.000000 0.500000 5.089329 12.388775 0.076342 0.006411
4948.001000 4948.000000 0.500000 5.083977 12.422972 0.076964 0.006396
4949.999000 4950.000000 0.500000 5.078085 12.468040 0.077699 0.006576
4951.998000 4952.000000 0.500000 5.070483 12.509314 0.078551 0.006561
4953.998000 4954.000000 0.500000 5.064575 12.549349 0.079269 0.006635
4956.002000 4956.000000 0.500000 5.058098 12.588170 0.080031 0.006829
4956.247000 4956.250000 0.500000 5.057926 12.592482 0.080073 0.006832
4956.496000 4956.500000 0.500000 5.057052 12.596483 0.080168 0.006875
4956.746000 4956.750000 0.500000 5.056573 12.601547 0.080239 0.006663
4956.996000 4957.000000 0.500000 5.055369 12.604248 0.080352 0.006881
4957.247000 4957.250000 0.500000 5.056096 12.607025 0.080314 0.006780
4957.495000 4957.500000 0.500000 5.054297 12.619998 0.080539 0.006919
4957.743000 4957.750000 0.500000 5.054321 12.623437 0.080559 0.006843
4957.994000 4958.000000 0.500000 5.052033 12.629320 0.080781 0.006838
4958.246000 4958.250000 0.500000 5.052186 12.632953 0.080792 0.006807
4958.496000 4958.500000 0.500000 5.051323 12.636778 0.080886 0.006900
4958.745000 4958.750000 0.500000 5.050534 12.642816 0.080989 0.007030
4958.996000 4959.000000 0.500000 5.049366 12.648054 0.081117 0.006945
4959.246000 4959.250000 0.500000 5.049328 12.651426 0.081142 0.006985
4959.497000 4959.500000 0.500000 5.048549 12.653838 0.081222 0.007046
4959.745000 4959.750000 0.500000 5.046536 12.659491 0.081421 0.006937
4959.994000 4960.000000 0.500000 5.047212 12.664287 0.081397 0.006979
4960.245000 4960.250000 0.500000 5.047248 12.667802 0.081417 0.006975
4960.495000 4960.500000 0.500000 5.046621 12.675024 0.081514 0.006909
4960.747000 4960.750000 0.500000 5.046359 12.680046 0.081567 0.006895
4960.998000 4961.000000 0.500000 5.045384 12.682710 0.081665 0.006987
4961.248000 4961.250000 0.500000 5.043509 12.688589 0.081855 0.006978
4961.498000 4961.500000 0.500000 5.043806 12.691136 0.081848 0.006898
4961.745000 4961.750000 0.500000 5.042144 12.697835 0.082027 0.006984
4961.995000 4962.000000 0.500000 5.042488 12.701502 0.082023 0.006980
4962.245000 4962.250000 0.500000 5.041694 12.706815 0.082122 0.006978
4962.495000 4962.500000 0.500000 5.041483 12.710509 0.082163 0.006906
4962.747000 4962.750000 0.500000 5.041275 12.716070 0.082216 0.006959
4963.000000 4963.000000 0.500000 5.039254 12.719062 0.082402 0.006911
4963.248000 4963.250000 0.500000 5.039900 12.726059 0.082393 0.006882
4963.497000 4963.500000 0.500000 5.039412 12.731179 0.082467 0.006689
4963.746000 4963.750000 0.500000 5.039739 12.734734 0.082464 0.006693
4963.996000 4964.000000 0.500000 5.038627 12.739892 0.082588 0.006693
4964.247000 4964.250000 0.500000 5.039902 12.744973 0.082516 0.006363
4964.498000 4964.500000 0.500000 5.039017 12.756533 0.082663 0.006014
4964.747000 4964.750000 0.500000 5.041207 12.759557 0.082503 0.005475
4965.000000 4965.000000 0.500000 5.040677 12.763910 0.082574 0.004996
4965.247000 4965.250000 0.500000 5.040546 12.779755 0.082689 0.004652
4965.500000 4965.500000 0.500000 5.041047 12.798093 0.082765 0.004587
4965.747000 4965.750000 0.500000 5.043031 12.800165 0.082615 0.004581
4966.000000 4966.000000 0.500000 5.046090 12.805211 0.082391 0.004724
4966.248000 4966.250000 0.500000 5.050486 12.808420 0.082054 0.004857
4966.498000 4966.500000 0.500000 5.056882 12.812118 0.081556 0.005123
4966.750000 4966.750000 0.500000 5.070860 12.813464 0.080423 0.005065
4967.001000 4967.000000 0.500000 5.085996 12.830399 0.079326 0.005052
4967.250000 4967.250000 0.500000 5.095107 12.833320 0.078626 0.005018
4967.499000 4967.500000 0.500000 5.093137 12.834699 0.078792 0.004965
4967.748000 4967.750000 0.500000 5.079876 12.840253 0.079876 0.005122
4968.000000 4968.000000 0.500000 5.071954 12.845959 0.080545 0.005081
4968.246000 4968.250000 0.500000 5.075531 12.848867 0.080282 0.004760
4968.498000 4968.500000 0.500000 5.084039 12.850366 0.079609 0.004707
4968.749000 4968.750000 0.500000 5.106283 12.852724 0.077880 0.004511
4969.000000 4969.000000 0.500000 5.137529 12.861900 0.075531 0.004274
4969.250000 4969.250000 0.500000 5.168905 12.869118 0.073237 0.004089
4969.499000 4969.500000 0.500000 5.193342 12.868293 0.071468 0.003815
4969.750000 4969.750000 0.500000 5.197611 12.868957 0.071166 0.003841
4969.997000 4970.000000 0.500000 5.191099 12.874845 0.071656 0.004042
4970.250000 4970.250000 0.500000 5.182913 12.882430 0.072293 0.003901
4970.500000 4970.500000 0.500000 5.169866 12.893041 0.073300 0.003960
4970.750000 4970.750000 0.500000 5.151535 12.903515 0.074716 0.004169
4971.001000 4971.000000 0.500000 5.129932 12.908509 0.076381 0.004147
4971.251000 4971.250000 0.500000 5.114303 12.915768 0.077626 0.004119
4971.498000 4971.500000 0.500000 5.099661 12.923077 0.078813 0.004239
4971.748000 4971.750000 0.500000 5.094804 12.927180 0.079224 0.004109
4972.000000 4972.000000 0.500000 5.096509 12.928333 0.079095 0.004000
4972.250000 4972.250000 0.500000 5.103674 12.933258 0.078564 0.003855
4972.503000 4972.500000 0.500000 5.114141 12.936419 0.077758 0.003750
4972.750000 4972.750000 0.500000 5.123384 12.941706 0.077084 0.003637
4973.002000 4973.000000 0.500000 5.131331 12.944004 0.076482 0.003397
4973.249000 4973.250000 0.500000 5.133067 12.946751 0.076366 0.003420
4973.500000 4973.500000 0.500000 5.135672 12.951387 0.076195 0.003218
4973.747000 4973.750000 0.500000 5.135938 12.955223 0.076197 0.003190
4974.000000 4974.000000 0.500000 5.139394 12.957854 0.075950 0.003151
4974.251000 4974.250000 0.500000 5.145335 12.958759 0.075504 0.003061
4974.504000 4974.500000 0.500000 5.160157 12.975334 0.074476 0.002940
4974.751000 4974.750000 0.500000 5.181806 12.976872 0.072898 0.002774
4975.001000 4975.000000 0.500000 5.212056 12.977212 0.070737 0.002739
4975.248000 4975.250000 0.500000 5.252818 12.979570 0.067932 0.002433
4975.500000 4975.500000 0.500000 5.301045 12.978561 0.064722 0.002268
4975.750000 4975.750000 0.500000 5.354122 12.980414 0.061381 0.002228
4976.000000 4976.000000 0.500000 5.403714 12.980557 0.058428 0.001940
4976.252000 4976.250000 0.500000 5.435637 12.981814 0.056580 0.001938
4976.502000 4976.500000 0.500000 5.449948 12.982368 0.055782 0.001781
4976.752000 4976.750000 0.500000 5.445614 12.981249 0.056016 0.001764
4976.999000 4977.000000 0.500000 5.445614 12.981717 0.056019 0.001733
4977.248000 4977.250000 0.500000 5.445419 12.985138 0.056044 0.001800
4977.499000 4977.500000 0.500000 5.455597 12.989574 0.055498 0.001619
4977.751000 4977.750000 0.500000 5.464820 12.991149 0.054992 0.001626
4978.001000 4978.000000 0.500000 5.478903 12.992871 0.054232 0.001583
4978.253000 4978.250000 0.500000 5.493517 12.997465 0.053459 0.001315
4978.502000 4978.500000 0.500000 5.503878 13.000486 0.052922 0.001461
4978.752000 4978.750000 0.500000 5.516471 13.016876 0.052322 0.001457
4978.997000 4979.000000 0.500000 5.530337 13.017899 0.051619 0.001330
4979.250000 4979.250000 0.500000 5.541529 13.018936 0.051042 0.001394
4979.500000 4979.500000 0.500000 5.550902 13.015893 0.050555 0.001362
4979.753000 4979.750000 0.500000 5.561102 13.027295 0.050081 0.001366
4980.002000 4980.000000 0.500000 5.570650 13.027635 0.049611 0.001283
4980.252000 4980.250000 0.500000 5.578560 13.025003 0.049208 0.001204
4980.500000 4980.500000 0.500000 5.588411 13.024022 0.048725 0.001195
4980.749000 4980.750000 0.500000 5.600689 13.023690 0.048129 0.001275
4981.000000 4981.000000 0.500000 5.613239 13.022176 0.047522 0.001157
4981.249000 4981.250000 0.500000 5.630202 13.021124 0.046721 0.001132
4981.502000 4981.500000 0.500000 5.653699 13.024782 0.045648 0.001142
4981.753000 4981.750000 0.500000 5.675780 13.030173 0.044656 0.001125
4982.002000 4982.000000 0.500000 5.711398 13.033928 0.043116 0.000959
4982.253000 4982.250000 0.500000 5.749678 13.035356 0.041493 0.000991
4982.501000 4982.500000 0.500000 5.792427 13.038202 0.039766 0.000802
4982.750000 4982.750000 0.500000 5.835880 13.041317 0.038084 0.000704
4983.000000 4983.000000 0.500000 5.879221 13.043263 0.036484 0.000730
4983.249000 4983.250000 0.500000 5.921358 13.046576 0.034999 0.000593
4983.503000 4983.500000 0.500000 5.957725 13.046920 0.033732 0.000739
4983.753000 4983.750000 0.500000 6.000767 13.046294 0.032310 0.000558
4984.003000 4984.000000 0.500000 6.035246 13.047657 0.031221 0.000745
4984.250000 4984.250000 0.500000 6.073246 13.061212 0.030094 0.000522
4984.498000 4984.500000 0.500000 6.106111 13.062795 0.029128 0.000459
4984.749000 4984.750000 0.500000 6.136499 13.063510 0.028252 0.000511
4985.002000 4985.000000 0.500000 6.160567 13.067180 0.027583 0.000548
4985.253000 4985.250000 0.500000 6.184660 13.072643 0.026939 0.000394
4985.501000 4985.500000 0.500000 6.202641 13.072994 0.026462 0.000471
4985.753000 4985.750000 0.500000 6.228058 13.075143 0.025799 0.000361
4986.000000 4986.000000 0.500000 6.243696 13.076035 0.025404 0.000446
4986.251000 4986.250000 0.500000 6.263124 13.078145 0.024919 0.000360
4986.498000 4986.500000 0.500000 6.277227 13.076247 0.024568 0.000528
4986.752000 4986.750000 0.500000 6.291153 13.076620 0.024226 0.000572
4987.001000 4987.000000 0.500000 6.301386 13.075067 0.023979 0.000333
4987.252000 4987.250000 0.500000 6.313944 13.076255 0.023682 0.000403
4987.503000 4987.500000 0.500000 6.315334 13.076733 0.023649 0.000421
4987.753000 4987.750000 0.500000 6.305374 13.078209 0.023889 0.000371
4988.001000 4988.000000 0.500000 6.292716 13.082680 0.024201 0.000450
4988.249000 4988.250000 0.500000 6.280075 13.088006 0.024517 0.000400
4988.500000 4988.500000 0.500000 6.260168 13.098622 0.025033 0.000409
4988.752000 4988.750000 0.500000 6.235277 13.106920 0.025682 0.000398
4989.000000 4989.000000 0.500000 6.205741 13.115989 0.026462 0.000474
4989.255000 4989.250000 0.500000 6.186321 13.127504 0.027015 0.000488
4989.502000 4989.500000 0.500000 6.158327 13.139598 0.027803 0.000562
4989.752000 4989.750000 0.500000 6.136108 13.151711 0.028456 0.000643
4989.998000 4990.000000 0.500000 6.112079 13.164364 0.029167 0.000631
4990.249000 4990.250000 0.500000 6.094623 13.173488 0.029705 0.000590
4990.502000 4990.500000 0.500000 6.071935 13.186633 0.030420 0.000669
4990.752000 4990.750000 0.500000 6.052584 13.201019 0.031047 0.000647
4991.002000 4991.000000 0.500000 6.036639 13.210762 0.031569 0.000647
4991.254000 4991.250000 0.500000 6.019548 13.217875 0.032132 0.000747
4991.500000 4991.500000 0.500000 6.003685 13.228469 0.032668 0.000830
4991.751000 4991.750000 0.500000 5.992774 13.238369 0.033052 0.000759
4991.998000 4992.000000 0.500000 5.984834 13.247078 0.033336 0.000744
4992.252000 4992.250000 0.500000 5.977448 13.253769 0.033605 0.000736
4992.502000 4992.500000 0.500000 5.971841 13.265432 0.033821 0.000782
4992.752000 4992.750000 0.500000 5.971138 13.282395 0.033889 0.000820
4993.002000 4993.000000 0.500000 5.961918 13.299687 0.034246 0.000887
4993.251000 4993.250000 0.500000 5.963374 13.304784 0.034210 0.000736
4993.502000 4993.500000 0.500000 5.960585 13.310246 0.034320 0.000724
4993.749000 4993.750000 0.500000 5.960174 13.329175 0.034384 0.000767
4994.000000 4994.000000 0.500000 5.959250 13.334440 0.034428 0.000854
4994.251000 4994.250000 0.500000 5.958324 13.338058 0.034469 0.000721
4994.502000 4994.500000 0.500000 5.959407 13.344032 0.034447 0.000811
4994.749000 4994.750000 0.500000 5.962874 13.345915 0.034333 0.000727
4995.003000 4995.000000 0.500000 5.962687 13.362023 0.034381 0.000902
4995.252000 4995.250000 0.500000 5.967498 13.368255 0.034231 0.000801
4995.500000 4995.500000 0.500000 5.972465 13.372087 0.034072 0.000766
4995.749000 4995.750000 0.500000 5.976977 13.375100 0.033928 0.000815
4996.003000 4996.000000 0.700000 5.983152 18.727054 0.047204 0.001174
4997.093000 4997.080000 0.710000 6.035161 19.011242 0.045495 0.000862
4998.188000 4998.180000 0.730000 6.088207 19.570927 0.044413 0.000803
4999.291000 4999.290000 0.740000 6.133613 19.859273 0.043075 0.000716
5000.438000 5000.430000 0.750000 6.155489 20.168310 0.042794 0.000706
5001.588000 5001.580000 0.760000 6.142823 20.485648 0.044026 0.000791
5002.766000 5002.760000 0.780000 6.099097 21.074237 0.047312 0.000913
5003.956000 5003.950000 0.790000 6.055835 21.401499 0.050169 0.001013
5005.169000 5005.160000 0.800000 6.014988 21.733670 0.053078 0.001044
5006.396000 5006.390000 0.810000 5.970601 22.067780 0.056337 0.001126
5007.646000 5007.640000 0.830000 5.929789 22.669937 0.060280 0.001342
5008.918000 5008.910000 0.840000 5.895316 23.019611 0.063364 0.001516
5010.205000 5010.200000 0.850000 5.854165 23.353178 0.066979 0.001819
5011.515000 5011.510000 0.860000 5.825563 23.679915 0.069884 0.001911
5012.833000 5012.830000 0.880000 5.813780 24.280728 0.072504 0.002148
5014.181000 5014.180000 0.890000 5.810222 24.604468 0.073734 0.002055
5015.540000 5015.540000 0.900000 5.808278 24.931504 0.074859 0.002170
5016.933000 5016.930000 0.910000 5.810896 25.267864 0.075671 0.002071
5018.334000 5018.330000 0.930000 5.807898 25.883338 0.077748 0.002267
5019.752000 5019.750000 0.940000 5.796938 26.223414 0.079638 0.002344
5021.192000 5021.190000 0.950000 5.777598 26.565727 0.082252 0.002449
5022.653000 5022.650000 0.960000 5.757956 26.907762 0.084962 0.002538
5024.135000 5024.130000 0.980000 5.738854 27.538306 0.088632 0.002856
5025.634000 5025.630000 0.990000 5.730919 27.882911 0.090456 0.002867
5027.143000 5027.140000 1.000000 5.727680 28.229331 0.091875 0.002964
5028.681000 5028.680000 1.010000 5.733777 28.583100 0.092462 0.002718
5030.243000 5030.240000 1.030000 5.738888 29.219716 0.094041 0.002711
5031.811000 5031.810000 1.040000 5.741787 29.594959 0.094972 0.002753
5033.403000 5033.400000 1.050000 5.744644 29.961047 0.095872 0.002753
5035.012000 5035.010000 1.060000 5.751891 30.319047 0.096317 0.002765
5036.653000 5036.650000 1.080000 5.766471 30.992277 0.097031 0.002698
5038.301000 5038.300000 1.090000 5.780573 31.369646 0.096839 0.002536
5039.975000 5039.970000 1.100000 5.789512 31.736794 0.097099 0.002642
5041.655000 5041.650000 1.110000 5.788425 32.105441 0.098334 0.002570
5043.367000 5043.360000 1.130000 5.779704 32.768453 0.101244 0.002808
5045.097000 5045.090000 1.140000 5.769894 33.143666 0.103414 0.002855
5046.838000 5046.830000 1.150000 5.759897 33.518097 0.105633 0.003090
5048.608000 5048.600000 1.160000 5.755332 33.904879 0.107339 0.003196
5050.389000 5050.380000 1.180000 5.753609 34.616497 0.109782 0.003433
5052.186000 5052.180000 1.190000 5.753702 35.003140 0.110995 0.003508
5054.001000 5054.000000 1.200000 5.753869 35.400315 0.112237 0.003610
5055.836000 5055.840000 1.210000 5.754835 35.794816 0.113378 0.003727
5057.701000 5057.700000 1.230000 5.751723 36.500360 0.115975 0.004014
5059.583000 5059.580000 1.240000 5.743882 36.899814 0.118166 0.003923
5061.484000 5061.480000 1.250000 5.730831 37.304460 0.121034 0.004222
5063.407000 5063.400000 1.260000 5.717947 37.714285 0.123950 0.004417
5065.332000 5065.330000 1.280000 5.710220 38.431429 0.127285 0.004432
5067.284000 5067.290000 1.290000 5.703861 38.853575 0.129502 0.004749
5069.261000 5069.260000 1.300000 5.700214 39.277194 0.131396 0.004749
5071.266000 5071.260000 1.310000 5.691828 39.704720 0.133953 0.004795
5073.264000 5073.270000 1.330000 5.676494 40.433852 0.138508 0.005187
5075.301000 5075.300000 1.340000 5.663302 40.900367 0.141973 0.005144
5077.347000 5077.350000 1.350000 5.649645 41.338747 0.145462 0.005381
5079.412000 5079.420000 1.360000 5.639767 41.774011 0.148453 0.005295
5081.503000 5081.510000 1.380000 5.629532 42.514873 0.152638 0.005428
5083.603000 5083.610000 1.390000 5.617976 42.947559 0.155985 0.005495
5085.731000 5085.740000 1.400000 5.606893 43.415773 0.159441 0.005473
5087.885000 5087.890000 1.410000 5.592384 43.855870 0.163414 0.005758
5090.042000 5090.050000 1.430000 5.581765 44.649743 0.168146 0.005706
5092.222000 5092.230000 1.440000 5.572158 45.080246 0.171407 0.005828
5094.434000 5094.440000 1.450000 5.563520 45.525156 0.174600 0.006143
5096.655000 5096.660000 1.460000 5.558344 45.967560 0.177212 0.006490
5098.895000 5098.900000 1.480000 5.550328 46.726390 0.181587 0.006869
5101.162000 5101.160000 1.490000 5.543885 47.179483 0.184538 0.007150
5103.436000 5103.440000 1.500000 5.532985 47.634622 0.188352 0.007510
5105.732000 5105.740000 1.510000 5.521725 48.112851 0.192395 0.007762
5108.044000 5108.050000 1.530000 5.508233 48.907984 0.198231 0.008227
5110.385000 5110.390000 1.540000 5.498345 49.370682 0.202096 0.008550
5112.741000 5112.740000 1.550000 5.491197 49.835046 0.205466 0.008630
5115.124000 5115.120000 1.560000 5.484348 50.295796 0.208791 0.008902
5117.508000 5117.510000 1.580000 5.479355 51.086416 0.213132 0.009126
5119.923000 5119.920000 1.590000 5.475479 51.599776 0.216112 0.009234
5122.350000 5122.350000 1.600000 5.470386 52.064393 0.219169 0.009505
5124.802000 5124.800000 1.610000 5.464687 52.533806 0.222410 0.009719
5127.273000 5127.270000 1.630000 5.460060 53.341837 0.226880 0.009880
5129.764000 5129.760000 1.640000 5.453291 53.819945 0.230470 0.010348
5132.270000 5132.270000 1.650000 5.446554 54.294600 0.234071 0.010403
