# XDI/1.0 BlueSky/1.5.0
# Beamline.name: 6BM
# Beamline.xray_source: NSLS-II three-pole wiggler
# Beamline.collimation: paraboloid mirror, 5 nm Rh on 30 nm Pt
# Beamline.focusing: not in use
# Beamline.harmonic_rejection: flat mirror, Si stripe, pitch = 7.0 mrad relative to beam
# Detector.i0: 10 cm N2
# Detector.i1: 25 cm N2
# Detector.i2: 25 cm N2
# Element.symbol: Ti
# Element.edge: K
# Facility.name: NSLS-II
# Facility.energy: 3.0
# Facility.current: 219.6
# Facility.mode: top-off
# Facility.gup: 301027
# Facility.saf: 304156
# Mono.name: Si(111)
# Mono.d_spacing: 3.1352584
# Mono.encoder_resolution: 0.0000050 deg/ct
# Mono.angle_offset: 16.0571090 deg
# Mono.scan_mode: pseudo channel cut
# Mono.scan_type: step
# Mono.direction: forward in energy
# Sample.name: NiTiO3
# Sample.prep: Powder in polyethylene glycol pellet
# Sample.x_position: -97.532 mm
# Sample.y_position: 117.543 mm
# Sample.wheel_position: -510.000 mm
# Scan.experimenters: Bruce Ravel, Martin Stennett
# Scan.edge_energy: 4966.0
# Scan.start_time: 2019-05-29T23:21:34
# Scan.end_time: 2019-05-30T00:04:18
# Scan.transient_id: 9770
# Scan.uid: e68ce967-35fe-4a24-94db-a3b576784ae8
# Scan.plot_hint: ln(I0/It)  --  ln($5/$6)
# Scan.sequence: merge of 3 scans
# Column.1: energy eV
# Column.2: requested_energy eV
# Column.3: measurement_time seconds
# Column.4: mutrans
# Column.5: i0
# Column.6: itrans
# Column.7: irefer
# /////
#  sample disk prepared by Martin
# -----
# energy   requested_energy   measurement_time   mutrans   i0   itrans   irefer
4765.980000 4766.000000 0.500000 3.753255 11.033462 0.258660 0.021463
4776.006000 4776.000000 0.500000 3.749914 11.199968 0.263421 0.021791
4786.008000 4786.000000 0.500000 3.723311 11.436463 0.276235 0.023076
4796.010000 4796.000000 0.500000 3.696857 11.673201 0.289514 0.024497
4806.008000 4806.000000 0.500000 3.669784 11.937594 0.304193 0.026007
4816.007000 4816.000000 0.500000 3.644030 12.171697 0.318249 0.027635
4826.007000 4826.000000 0.500000 3.618195 12.402799 0.332785 0.029036
4835.999000 4836.000000 0.500000 3.591683 12.637637 0.348189 0.030986
4845.997000 4846.000000 0.500000 3.566974 12.875301 0.363613 0.032526
4856.004000 4856.000000 0.500000 3.541106 13.109672 0.379932 0.034406
4866.007000 4866.000000 0.500000 3.516145 13.338950 0.396352 0.036319
4876.001000 4876.000000 0.500000 3.490562 13.567651 0.413593 0.038420
4886.001000 4886.000000 0.500000 3.466218 13.792269 0.430801 0.040465
4896.002000 4896.000000 0.500000 3.441162 14.009003 0.448673 0.042533
4906.002000 4906.000000 0.500000 3.416499 14.229263 0.467107 0.045141
4915.999000 4916.000000 0.500000 3.392705 14.448441 0.485720 0.047191
4926.000000 4926.000000 0.500000 3.368437 14.665085 0.505115 0.049788
4935.999000 4936.000000 0.500000 3.345153 14.876409 0.524463 0.052250
4938.000000 4938.000000 0.500000 3.340603 14.918275 0.528342 0.052749
4939.999000 4940.000000 0.500000 3.335938 14.956698 0.532178 0.053220
4941.995000 4942.000000 0.500000 3.331227 14.992326 0.535965 0.053939
4943.996000 4944.000000 0.500000 3.327120 15.031610 0.539580 0.054252
4946.005000 4946.000000 0.500000 3.322087 15.066989 0.543577 0.054726
4948.006000 4948.000000 0.500000 3.317654 15.101529 0.547249 0.055200
4950.006000 4950.000000 0.500000 3.312859 15.138879 0.551240 0.055405
4952.003000 4952.000000 0.500000 3.308671 15.170368 0.554699 0.056311
4954.003000 4954.000000 0.500000 3.304585 15.202115 0.558136 0.056725
4956.001000 4956.000000 0.500000 3.300015 15.232683 0.561819 0.056952
4956.244000 4956.250000 0.500000 3.299235 15.236984 0.562417 0.057223
4956.495000 4956.500000 0.500000 3.299062 15.237584 0.562538 0.057068
4956.746000 4956.750000 0.500000 3.299026 15.241329 0.562697 0.057278
4956.995000 4957.000000 0.500000 3.298609 15.247405 0.563157 0.056925
4957.245000 4957.250000 0.500000 3.297714 15.284740 0.565038 0.057401
4957.495000 4957.500000 0.500000 3.297256 15.286037 0.565344 0.057310
4957.745000 4957.750000 0.500000 3.296796 15.290297 0.565764 0.057545
4957.995000 4958.000000 0.500000 3.296208 15.295169 0.566275 0.057613
4958.243000 4958.250000 0.500000 3.295612 15.299083 0.566757 0.057512
4958.494000 4958.500000 0.500000 3.295014 15.304597 0.567301 0.057643
4958.745000 4958.750000 0.500000 3.294417 15.311282 0.567889 0.057655
4958.998000 4959.000000 0.500000 3.294042 15.312289 0.568140 0.057733
4959.247000 4959.250000 0.500000 3.293601 15.316111 0.568536 0.057786
4959.498000 4959.500000 0.500000 3.293007 15.320425 0.569034 0.057855
4959.746000 4959.750000 0.500000 3.292340 15.326385 0.569629 0.057789
4959.995000 4960.000000 0.500000 3.291849 15.329905 0.570041 0.057997
4960.246000 4960.250000 0.500000 3.291715 15.332821 0.570226 0.057940
4960.495000 4960.500000 0.500000 3.291169 15.337918 0.570725 0.057872
4960.745000 4960.750000 0.500000 3.290957 15.343736 0.571065 0.057690
4960.994000 4961.000000 0.500000 3.290370 15.348480 0.571578 0.058004
4961.247000 4961.250000 0.500000 3.290280 15.354252 0.571846 0.057593
4961.497000 4961.500000 0.500000 3.289476 15.358972 0.572481 0.057994
4961.746000 4961.750000 0.500000 3.289408 15.358228 0.572490 0.057811
4962.000000 4962.000000 0.500000 3.289283 15.362885 0.572738 0.057716
4962.246000 4962.250000 0.500000 3.288598 15.370120 0.573397 0.057589
4962.494000 4962.500000 0.500000 3.288361 15.377095 0.573796 0.057550
4962.747000 4962.750000 0.500000 3.288113 15.379656 0.574034 0.057239
4962.996000 4963.000000 0.500000 3.287708 15.393419 0.574779 0.056850
4963.249000 4963.250000 0.500000 3.287726 15.398395 0.574956 0.056307
4963.498000 4963.500000 0.500000 3.287434 15.404609 0.575356 0.056069
4963.749000 4963.750000 0.500000 3.286725 15.427990 0.576637 0.055124
4964.000000 4964.000000 0.500000 3.286869 15.429885 0.576626 0.053685
4964.246000 4964.250000 0.500000 3.286602 15.433896 0.576928 0.051382
4964.497000 4964.500000 0.500000 3.286853 15.436563 0.576885 0.048057
4964.745000 4964.750000 0.500000 3.286713 15.440681 0.577118 0.044334
4964.999000 4965.000000 0.500000 3.287315 15.445575 0.576953 0.041377
4965.250000 4965.250000 0.500000 3.288347 15.449131 0.576490 0.039404
4965.499000 4965.500000 0.500000 3.289094 15.451649 0.576154 0.039395
4965.750000 4965.750000 0.500000 3.290861 15.455956 0.575300 0.040392
4965.999000 4966.000000 0.500000 3.293970 15.462399 0.573751 0.041905
4966.248000 4966.250000 0.500000 3.299022 15.467861 0.571085 0.043209
4966.498000 4966.500000 0.500000 3.306892 15.469297 0.566657 0.043958
4966.748000 4966.750000 0.500000 3.318778 15.470386 0.559975 0.043891
4967.001000 4967.000000 0.500000 3.327812 15.472572 0.555021 0.043982
4967.250000 4967.250000 0.500000 3.328781 15.473032 0.554522 0.043766
4967.502000 4967.500000 0.500000 3.324274 15.477646 0.557180 0.043657
4967.751000 4967.750000 0.500000 3.322285 15.483040 0.558474 0.042954
4967.999000 4968.000000 0.500000 3.327053 15.491313 0.556123 0.042028
4968.250000 4968.250000 0.500000 3.343311 15.494487 0.547277 0.040632
4968.497000 4968.500000 0.500000 3.370477 15.495872 0.532726 0.039005
4968.747000 4968.750000 0.500000 3.405468 15.496515 0.514401 0.037146
4968.996000 4969.000000 0.500000 3.431683 15.497031 0.501107 0.035869
4969.250000 4969.250000 0.500000 3.434452 15.500033 0.499796 0.035278
4969.501000 4969.500000 0.500000 3.420321 15.501105 0.506906 0.035575
4969.750000 4969.750000 0.500000 3.401213 15.506545 0.516890 0.036109
4969.999000 4970.000000 0.500000 3.383497 15.512373 0.526214 0.036582
4970.249000 4970.250000 0.500000 3.368048 15.521289 0.534781 0.036909
4970.497000 4970.500000 0.500000 3.354724 15.530296 0.542236 0.037301
4970.749000 4970.750000 0.500000 3.342932 15.541913 0.549120 0.037548
4971.000000 4971.000000 0.500000 3.334493 15.550284 0.554101 0.037428
4971.254000 4971.250000 0.500000 3.329393 15.560019 0.557285 0.037443
4971.501000 4971.500000 0.500000 3.326836 15.565037 0.558886 0.036723
4971.751000 4971.750000 0.500000 3.326948 15.572421 0.559090 0.036101
4971.999000 4972.000000 0.500000 3.328137 15.574599 0.558508 0.035447
4972.250000 4972.250000 0.500000 3.328485 15.578903 0.558461 0.034582
4972.499000 4972.500000 0.500000 3.328486 15.578901 0.558462 0.034088
4972.751000 4972.750000 0.500000 3.328142 15.585284 0.558886 0.033178
4973.003000 4973.000000 0.500000 3.326973 15.588871 0.559668 0.032678
4973.253000 4973.250000 0.500000 3.326684 15.589980 0.559864 0.031874
4973.501000 4973.500000 0.500000 3.327412 15.592152 0.559537 0.031481
4973.750000 4973.750000 0.500000 3.329892 15.594725 0.558256 0.030661
4973.998000 4974.000000 0.500000 3.334715 15.598078 0.555704 0.030067
4974.252000 4974.250000 0.500000 3.341808 15.602332 0.551895 0.029370
4974.500000 4974.500000 0.500000 3.350154 15.602236 0.547288 0.028500
4974.753000 4974.750000 0.500000 3.360333 15.602030 0.541710 0.027751
4975.002000 4975.000000 0.500000 3.372102 15.600466 0.535338 0.026972
4975.253000 4975.250000 0.500000 3.385464 15.601265 0.528290 0.026320
4975.500000 4975.500000 0.500000 3.400853 15.601593 0.520243 0.025316
4975.751000 4975.750000 0.500000 3.418996 15.601445 0.510974 0.024353
4975.998000 4976.000000 0.500000 3.436919 15.601204 0.501866 0.023630
4976.252000 4976.250000 0.500000 3.454695 15.602285 0.492997 0.022978
4976.501000 4976.500000 0.500000 3.470864 15.601319 0.485021 0.022107
4976.752000 4976.750000 0.500000 3.485742 15.599205 0.477820 0.021670
4977.000000 4977.000000 0.500000 3.499134 15.599794 0.471507 0.021048
4977.253000 4977.250000 0.500000 3.510383 15.606651 0.466432 0.020363
4977.499000 4977.500000 0.500000 3.517569 15.618221 0.463433 0.020500
4977.749000 4977.750000 0.500000 3.523121 15.643148 0.461609 0.020281
4978.001000 4978.000000 0.500000 3.525963 15.645093 0.460334 0.019797
4978.253000 4978.250000 0.500000 3.527978 15.648444 0.459488 0.019587
4978.504000 4978.500000 0.500000 3.532276 15.652045 0.457601 0.019493
4978.752000 4978.750000 0.500000 3.538853 15.649672 0.454560 0.019333
4979.002000 4979.000000 0.500000 3.546807 15.650441 0.450981 0.019008
4979.250000 4979.250000 0.500000 3.555934 15.647495 0.446843 0.018746
4979.501000 4979.500000 0.500000 3.564713 15.645570 0.442855 0.018621
4979.748000 4979.750000 0.500000 3.578235 15.642977 0.436863 0.018439
4980.001000 4980.000000 0.500000 3.595283 15.637167 0.429230 0.017841
4980.252000 4980.250000 0.500000 3.615109 15.635838 0.420788 0.017528
4980.503000 4980.500000 0.500000 3.637070 15.632521 0.411521 0.017178
4980.751000 4980.750000 0.500000 3.660479 15.629741 0.402079 0.016980
4981.002000 4981.000000 0.500000 3.684687 15.629531 0.392395 0.016405
4981.250000 4981.250000 0.500000 3.708689 15.629424 0.383174 0.016062
4981.500000 4981.500000 0.500000 3.731643 15.631778 0.374460 0.015589
4981.750000 4981.750000 0.500000 3.753799 15.635554 0.366353 0.015118
4982.003000 4982.000000 0.500000 3.774302 15.637707 0.358885 0.015022
4982.254000 4982.250000 0.500000 3.791779 15.640429 0.352752 0.014868
4982.504000 4982.500000 0.500000 3.806413 15.639765 0.347602 0.014571
4982.752000 4982.750000 0.500000 3.818751 15.641212 0.343408 0.014182
4983.002000 4983.000000 0.500000 3.829216 15.639885 0.339806 0.014025
4983.251000 4983.250000 0.500000 3.834704 15.642534 0.338013 0.014152
4983.503000 4983.500000 0.500000 3.836954 15.638289 0.337148 0.014039
4983.751000 4983.750000 0.500000 3.836839 15.635235 0.337121 0.014085
4984.003000 4984.000000 0.500000 3.834565 15.632267 0.337831 0.014246
4984.252000 4984.250000 0.500000 3.831284 15.631999 0.338928 0.014410
4984.501000 4984.500000 0.500000 3.828618 15.632472 0.339841 0.014373
4984.751000 4984.750000 0.500000 3.828481 15.633855 0.339920 0.014324
4985.000000 4985.000000 0.500000 3.829228 15.632401 0.339636 0.014665
4985.252000 4985.250000 0.500000 3.834143 15.633964 0.337991 0.014458
4985.502000 4985.500000 0.500000 3.839155 15.636899 0.336379 0.014429
4985.753000 4985.750000 0.500000 3.845223 15.636019 0.334301 0.014423
4986.002000 4986.000000 0.500000 3.853876 15.635522 0.331437 0.014556
4986.253000 4986.250000 0.500000 3.860764 15.636882 0.329161 0.014390
4986.501000 4986.500000 0.500000 3.868914 15.666048 0.327136 0.014400
4986.752000 4986.750000 0.500000 3.877772 15.665416 0.324237 0.014337
4986.999000 4987.000000 0.500000 3.888266 15.661141 0.320797 0.014082
4987.254000 4987.250000 0.500000 3.898769 15.659151 0.317327 0.014461
4987.499000 4987.500000 0.500000 3.911927 15.659135 0.313243 0.014080
4987.752000 4987.750000 0.500000 3.926509 15.660998 0.308716 0.013943
4988.003000 4988.000000 0.500000 3.943314 15.665689 0.303626 0.013448
4988.254000 4988.250000 0.500000 3.958399 15.670375 0.299211 0.013352
4988.501000 4988.500000 0.500000 3.970619 15.680167 0.295765 0.013485
4988.750000 4988.750000 0.500000 3.978704 15.692794 0.293634 0.013166
4989.001000 4989.000000 0.500000 3.979975 15.706293 0.293491 0.013241
4989.251000 4989.250000 0.500000 3.975923 15.719510 0.294928 0.013662
4989.503000 4989.500000 0.500000 3.967355 15.730488 0.297708 0.013417
4989.751000 4989.750000 0.500000 3.955044 15.740770 0.301582 0.013513
4990.005000 4990.000000 0.500000 3.939146 15.755544 0.306713 0.013871
4990.252000 4990.250000 0.500000 3.924321 15.767481 0.311494 0.013960
4990.501000 4990.500000 0.500000 3.911103 15.779829 0.315842 0.013970
4990.751000 4990.750000 0.500000 3.898381 15.789451 0.320124 0.014262
4990.999000 4991.000000 0.500000 3.887895 15.798428 0.323654 0.014417
4991.249000 4991.250000 0.500000 3.878725 15.804339 0.326788 0.014705
4991.500000 4991.500000 0.500000 3.871434 15.815172 0.329405 0.014734
4991.755000 4991.750000 0.500000 3.864445 15.828443 0.332013 0.014847
4992.000000 4992.000000 0.500000 3.859560 15.868080 0.334447 0.015045
4992.251000 4992.250000 0.500000 3.853463 15.877029 0.336669 0.015206
4992.499000 4992.500000 0.500000 3.849459 15.884857 0.338202 0.015072
4992.750000 4992.750000 0.500000 3.844450 15.890042 0.340004 0.015261
4992.999000 4993.000000 0.500000 3.840282 15.894172 0.341523 0.015251
4993.253000 4993.250000 0.500000 3.835453 15.898077 0.343265 0.015349
4993.503000 4993.500000 0.500000 3.831494 15.903175 0.344757 0.015613
4993.753000 4993.750000 0.500000 3.826439 15.905766 0.346541 0.015394
4994.003000 4994.000000 0.500000 3.823342 15.909651 0.347700 0.015429
4994.249000 4994.250000 0.500000 3.819658 15.918007 0.349156 0.015673
4994.503000 4994.500000 0.500000 3.816730 15.922361 0.350289 0.015428
4994.748000 4994.750000 0.500000 3.813479 15.923937 0.351453 0.015526
4995.003000 4995.000000 0.500000 3.811223 15.928665 0.352361 0.015401
4995.252000 4995.250000 0.500000 3.809160 15.930000 0.353122 0.015393
4995.504000 4995.500000 0.500000 3.806781 15.932145 0.354005 0.015569
4995.751000 4995.750000 0.500000 3.806622 15.933801 0.354098 0.015471
4996.001000 4996.000000 0.700000 3.804935 22.293676 0.496270 0.021251
4997.092000 4997.080000 0.710000 3.804182 22.642224 0.504400 0.021095
4998.184000 4998.180000 0.730000 3.814467 23.277240 0.513274 0.021161
4999.297000 4999.290000 0.740000 3.832767 23.609408 0.511122 0.020566
5000.436000 5000.430000 0.750000 3.849526 23.968809 0.510286 0.020768
5001.584000 5001.580000 0.760000 3.856316 24.332047 0.514526 0.020822
5002.769000 5002.760000 0.780000 3.847068 25.025797 0.534121 0.022095
5003.955000 5003.950000 0.790000 3.831650 25.408296 0.550695 0.022779
5005.165000 5005.160000 0.800000 3.816417 25.789363 0.567524 0.023700
5006.399000 5006.390000 0.810000 3.801007 26.177709 0.585043 0.024922
5007.647000 5007.640000 0.830000 3.788344 26.883300 0.608453 0.026456
5008.914000 5008.910000 0.840000 3.771721 27.260904 0.627320 0.028193
5010.208000 5010.200000 0.850000 3.748574 27.647260 0.651147 0.029167
5011.517000 5011.510000 0.860000 3.725400 28.028014 0.675583 0.030427
5012.834000 5012.830000 0.880000 3.708240 28.728717 0.704428 0.032176
5014.187000 5014.180000 0.890000 3.696606 29.097282 0.721837 0.033330
5015.549000 5015.540000 0.900000 3.687333 29.476885 0.738072 0.034051
5016.936000 5016.930000 0.910000 3.681671 29.855091 0.751774 0.035069
5018.335000 5018.330000 0.930000 3.677690 30.567658 0.772785 0.036073
5019.758000 5019.750000 0.940000 3.671898 30.963147 0.787337 0.037224
5021.193000 5021.190000 0.950000 3.663637 31.356660 0.803953 0.038226
5022.655000 5022.650000 0.960000 3.656029 31.745071 0.820124 0.039234
5024.136000 5024.130000 0.980000 3.651061 32.470591 0.843056 0.040217
5025.637000 5025.630000 0.990000 3.649613 32.868868 0.854625 0.040488
5027.139000 5027.140000 1.000000 3.651311 33.266500 0.863503 0.040740
5028.688000 5028.680000 1.010000 3.651320 33.656590 0.873618 0.041088
5030.244000 5030.240000 1.030000 3.651499 34.382152 0.892291 0.041577
5031.817000 5031.810000 1.040000 3.652638 34.782842 0.901663 0.041175
5033.402000 5033.400000 1.050000 3.655040 35.189626 0.910014 0.040762
5035.012000 5035.010000 1.060000 3.658587 35.587053 0.917042 0.040163
5036.648000 5036.650000 1.080000 3.663289 36.412615 0.933909 0.040068
5038.294000 5038.300000 1.090000 3.667747 36.822609 0.940229 0.040396
5039.965000 5039.970000 1.100000 3.670965 37.227039 0.947503 0.040777
5041.647000 5041.650000 1.110000 3.671851 37.632697 0.956972 0.041074
5043.358000 5043.360000 1.130000 3.670707 38.384335 0.977207 0.042486
5045.088000 5045.090000 1.140000 3.668180 38.797312 0.990221 0.043855
5046.827000 5046.830000 1.150000 3.663898 39.208468 1.005006 0.045291
5048.597000 5048.600000 1.160000 3.658913 39.627723 1.020827 0.046950
5050.378000 5050.380000 1.180000 3.651929 40.398711 1.047981 0.049266
5052.176000 5052.180000 1.190000 3.645070 40.816216 1.066094 0.051371
5053.997000 5054.000000 1.200000 3.638658 41.248538 1.084323 0.053109
5055.836000 5055.840000 1.210000 3.632489 41.674494 1.102290 0.054346
5057.698000 5057.700000 1.230000 3.625400 42.459704 1.131053 0.055609
5059.578000 5059.580000 1.240000 3.618600 42.905403 1.150728 0.056939
5061.479000 5061.480000 1.250000 3.614483 43.339065 1.167155 0.057992
5063.396000 5063.400000 1.260000 3.611776 43.782348 1.182285 0.058992
5065.331000 5065.330000 1.280000 3.608750 44.581495 1.207517 0.060563
5067.290000 5067.290000 1.290000 3.604540 45.031868 1.224868 0.061846
5069.259000 5069.260000 1.300000 3.600026 45.481275 1.242680 0.063533
5071.256000 5071.260000 1.310000 3.597508 46.033170 1.260934 0.064382
5073.272000 5073.270000 1.330000 3.594225 46.841695 1.287301 0.066033
5075.300000 5075.300000 1.340000 3.591323 47.293824 1.303503 0.066698
5077.352000 5077.350000 1.350000 3.588437 47.764638 1.320282 0.066687
5079.420000 5079.420000 1.360000 3.583720 48.230908 1.339472 0.066716
5081.509000 5081.510000 1.380000 3.577199 49.056903 1.371325 0.067186
5083.611000 5083.610000 1.390000 3.568537 49.530422 1.396608 0.067225
5085.740000 5085.740000 1.400000 3.560063 50.006031 1.422004 0.067569
5087.891000 5087.890000 1.410000 3.553546 50.488162 1.445113 0.067821
5090.049000 5090.050000 1.430000 3.549227 51.336756 1.475756 0.068656
5092.229000 5092.230000 1.440000 3.546382 51.832144 1.494251 0.069986
5094.443000 5094.440000 1.450000 3.542864 52.335356 1.514073 0.072168
5096.663000 5096.660000 1.460000 3.537646 52.923085 1.539094 0.074848
5098.903000 5098.900000 1.480000 3.530227 53.815096 1.576698 0.078900
5101.165000 5101.160000 1.490000 3.521153 54.307914 1.605652 0.082409
5103.442000 5103.440000 1.500000 3.511414 54.815280 1.636489 0.085758
5105.743000 5105.740000 1.510000 3.501254 55.321713 1.668486 0.088386
5108.051000 5108.050000 1.530000 3.493198 56.184091 1.708190 0.090882
5110.389000 5110.390000 1.540000 3.485957 56.694531 1.736231 0.092749
5112.738000 5112.740000 1.550000 3.480270 57.205084 1.761856 0.093803
5115.118000 5115.120000 1.560000 3.475176 57.711452 1.786526 0.095845
5117.512000 5117.510000 1.580000 3.469809 58.604283 1.823930 0.097895
5119.922000 5119.920000 1.590000 3.465097 59.129386 1.848973 0.099598
5122.350000 5122.350000 1.600000 3.460909 59.656136 1.873269 0.101130
5124.801000 5124.800000 1.610000 3.455946 60.178101 1.899065 0.102831
5127.271000 5127.270000 1.630000 3.450704 61.094438 1.938109 0.105880
5129.761000 5129.760000 1.640000 3.446746 61.645621 1.963346 0.107769
