# XDI/1.0 BlueSky/1.5.0
# Beamline.name: 6BM
# Beamline.xray_source: NSLS-II three-pole wiggler
# Beamline.collimation: paraboloid mirror, 5 nm Rh on 30 nm Pt
# Beamline.focusing: not in use
# Beamline.harmonic_rejection: flat mirror, Si stripe, pitch = 7.0 mrad relative to beam
# Detector.i0: 10 cm N2
# Detector.i1: 25 cm N2
# Detector.i2: 25 cm N2
# Element.symbol: Ti
# Element.edge: K
# Facility.name: NSLS-II
# Facility.energy: 3.0
# Facility.current: 219.5
# Facility.mode: top-off
# Facility.gup: 301027
# Facility.saf: 304156
# Mono.name: Si(111)
# Mono.d_spacing: 3.1352584
# Mono.encoder_resolution: 0.0000050 deg/ct
# Mono.angle_offset: 16.0571090 deg
# Mono.scan_mode: pseudo channel cut
# Mono.scan_type: step
# Mono.direction: forward in energy
# Sample.name: TiO2 anatase
# Sample.prep: Powder in polyethylene glycol pellet
# Sample.x_position: -97.532 mm
# Sample.y_position: 117.543 mm
# Sample.wheel_position: -420.000 mm
# Scan.experimenters: Bruce Ravel, Martin Stennett
# Scan.edge_energy: 4966.0
# Scan.start_time: 2019-05-29T19:00:19
# Scan.end_time: 2019-05-29T19:43:36
# Scan.transient_id: 9752
# Scan.uid: f32ba38a-0473-4f12-8442-7691134ab519
# Scan.plot_hint: ln(I0/It)  --  ln($5/$6)
# Scan.sequence: merge of 3 scans
# Column.1: energy eV
# Column.2: requested_energy eV
# Column.3: measurement_time seconds
# Column.4: mutrans
# Column.5: i0
# Column.6: itrans
# Column.7: irefer
# /////
#  sample disk prepared by Martin
# -----
# energy   requested_energy   measurement_time   mutrans   i0   itrans   irefer
4765.993000 4766.000000 0.500000 3.603884 10.822187 0.294585 0.024139
4776.007000 4776.000000 0.500000 3.583998 11.034243 0.306358 0.025275
4786.008000 4786.000000 0.500000 3.557324 11.311264 0.322539 0.026842
4796.007000 4796.000000 0.500000 3.530579 11.561848 0.338622 0.028565
4806.005000 4806.000000 0.500000 3.504507 11.823685 0.355436 0.030225
4816.002000 4816.000000 0.500000 3.478077 12.074030 0.372682 0.032238
4825.998000 4826.000000 0.500000 3.452964 12.328517 0.390215 0.034006
4836.000000 4836.000000 0.500000 3.427149 12.580752 0.408611 0.036127
4846.004000 4846.000000 0.500000 3.401364 12.833024 0.427688 0.038100
4856.003000 4856.000000 0.500000 3.376981 13.085353 0.446867 0.040350
4866.003000 4866.000000 0.500000 3.351425 13.330400 0.467021 0.042677
4876.002000 4876.000000 0.500000 3.327005 13.573207 0.487283 0.045104
4886.001000 4886.000000 0.500000 3.302953 13.814696 0.508025 0.047602
4896.000000 4896.000000 0.500000 3.278318 14.055796 0.529782 0.050185
4906.000000 4906.000000 0.500000 3.253821 14.301890 0.552425 0.053143
4915.999000 4916.000000 0.500000 3.230773 14.544544 0.574896 0.055826
4926.000000 4926.000000 0.500000 3.207798 14.780132 0.597787 0.058719
4936.001000 4936.000000 0.500000 3.184384 15.013774 0.621626 0.061702
4937.996000 4938.000000 0.500000 3.179523 15.082731 0.627522 0.062812
4939.995000 4940.000000 0.500000 3.175507 15.133100 0.632154 0.063172
4941.994000 4942.000000 0.500000 3.171524 15.175435 0.636450 0.063667
4943.995000 4944.000000 0.500000 3.166854 15.215631 0.641122 0.064276
4946.007000 4946.000000 0.500000 3.162234 15.254586 0.645744 0.064967
4947.998000 4948.000000 0.500000 3.157624 15.289002 0.650185 0.065708
4950.004000 4950.000000 0.500000 3.153598 15.330468 0.654585 0.066287
4952.007000 4952.000000 0.500000 3.148883 15.369320 0.659346 0.066763
4954.006000 4954.000000 0.500000 3.145798 15.404870 0.662914 0.067074
4956.007000 4956.000000 0.500000 3.141734 15.475545 0.668663 0.067750
4956.247000 4956.250000 0.500000 3.141355 15.480631 0.669137 0.067751
4956.494000 4956.500000 0.500000 3.140621 15.483669 0.669757 0.068117
4956.744000 4956.750000 0.500000 3.139998 15.486174 0.670283 0.067841
4956.994000 4957.000000 0.500000 3.139182 15.489508 0.670972 0.068057
4957.244000 4957.250000 0.500000 3.139089 15.492239 0.671156 0.067938
4957.493000 4957.500000 0.500000 3.139257 15.498814 0.671329 0.068235
4957.743000 4957.750000 0.500000 3.137998 15.499450 0.672201 0.068422
4957.995000 4958.000000 0.500000 3.137386 15.504945 0.672852 0.068271
4958.245000 4958.250000 0.500000 3.137170 15.511300 0.673273 0.068473
4958.495000 4958.500000 0.500000 3.136666 15.514588 0.673755 0.068330
4958.744000 4958.750000 0.500000 3.137055 15.518898 0.673681 0.068395
4958.996000 4959.000000 0.500000 3.136241 15.524687 0.674478 0.068400
4959.245000 4959.250000 0.500000 3.135612 15.526922 0.674999 0.068465
4959.496000 4959.500000 0.500000 3.135134 15.532200 0.675554 0.068516
4959.744000 4959.750000 0.500000 3.134889 15.537533 0.675951 0.068787
4959.996000 4960.000000 0.500000 3.134652 15.541117 0.676269 0.068277
4960.248000 4960.250000 0.500000 3.134072 15.543127 0.676746 0.068608
4960.497000 4960.500000 0.500000 3.134248 15.549477 0.676905 0.068741
4960.747000 4960.750000 0.500000 3.133667 15.554096 0.677500 0.068459
4960.998000 4961.000000 0.500000 3.133154 15.558903 0.678057 0.068702
4961.245000 4961.250000 0.500000 3.132571 15.562715 0.678615 0.068929
4961.494000 4961.500000 0.500000 3.132391 15.568008 0.678972 0.068599
4961.746000 4961.750000 0.500000 3.132358 15.572384 0.679184 0.068316
4961.997000 4962.000000 0.500000 3.131957 15.578410 0.679720 0.068495
4962.249000 4962.250000 0.500000 3.131950 15.584915 0.680011 0.068377
4962.499000 4962.500000 0.500000 3.131231 15.589550 0.680699 0.068382
4962.748000 4962.750000 0.500000 3.131546 15.594705 0.680711 0.068027
4962.999000 4963.000000 0.500000 3.131311 15.599990 0.681101 0.067826
4963.249000 4963.250000 0.500000 3.131075 15.603018 0.681392 0.067373
4963.497000 4963.500000 0.500000 3.131330 15.608066 0.681443 0.066870
4963.746000 4963.750000 0.500000 3.131273 15.614047 0.681741 0.066268
4964.000000 4964.000000 0.500000 3.131063 15.619371 0.682115 0.065095
4964.246000 4964.250000 0.500000 3.131275 15.624332 0.682189 0.063297
4964.499000 4964.500000 0.500000 3.131794 15.627011 0.681948 0.060188
4964.749000 4964.750000 0.500000 3.132361 15.630146 0.681703 0.056075
4964.998000 4965.000000 0.500000 3.133251 15.635307 0.681322 0.051593
4965.251000 4965.250000 0.500000 3.134183 15.638393 0.680815 0.048276
4965.497000 4965.500000 0.500000 3.135776 15.642718 0.679929 0.046750
4965.747000 4965.750000 0.500000 3.137641 15.645143 0.678756 0.046692
4965.998000 4966.000000 0.500000 3.141262 15.650144 0.676532 0.047761
4966.252000 4966.250000 0.500000 3.147133 15.653890 0.672673 0.049264
4966.500000 4966.500000 0.500000 3.156449 15.655545 0.666542 0.050223
4966.750000 4966.750000 0.500000 3.173156 15.660433 0.655765 0.050732
4967.001000 4967.000000 0.500000 3.199338 15.659591 0.638669 0.050143
4967.248000 4967.250000 0.500000 3.227354 15.664654 0.621410 0.049178
4967.498000 4967.500000 0.500000 3.240994 15.667428 0.613018 0.048392
4967.749000 4967.750000 0.500000 3.229862 15.672962 0.620127 0.048522
4967.999000 4968.000000 0.500000 3.206647 15.678145 0.634842 0.048633
4968.247000 4968.250000 0.500000 3.191319 15.684273 0.644886 0.048947
4968.499000 4968.500000 0.500000 3.190697 15.687172 0.645418 0.048199
4968.749000 4968.750000 0.500000 3.203782 15.690015 0.637167 0.046358
4968.999000 4969.000000 0.500000 3.224320 15.690852 0.624277 0.045017
4969.249000 4969.250000 0.500000 3.243294 15.690711 0.612565 0.043666
4969.497000 4969.500000 0.500000 3.256305 15.693231 0.604677 0.042560
4969.750000 4969.750000 0.500000 3.269222 15.691508 0.596810 0.041786
4970.000000 4970.000000 0.500000 3.287462 15.696559 0.586214 0.040913
4970.251000 4970.250000 0.500000 3.305328 15.702548 0.576073 0.040017
4970.503000 4970.500000 0.500000 3.316143 15.716977 0.570413 0.039322
4970.750000 4970.750000 0.500000 3.314034 15.726080 0.571936 0.039435
4971.002000 4971.000000 0.500000 3.300701 15.736585 0.579988 0.039622
4971.249000 4971.250000 0.500000 3.284558 15.744255 0.589697 0.039981
4971.499000 4971.500000 0.500000 3.271393 15.749143 0.597724 0.039900
4971.748000 4971.750000 0.500000 3.265768 15.754101 0.601277 0.039599
4972.000000 4972.000000 0.500000 3.270602 15.759036 0.598555 0.038725
4972.252000 4972.250000 0.500000 3.281857 15.763746 0.592050 0.037667
4972.502000 4972.500000 0.500000 3.295446 15.767802 0.584231 0.036175
4972.752000 4972.750000 0.500000 3.303976 15.770418 0.579351 0.035306
4973.001000 4973.000000 0.500000 3.306319 15.772970 0.578092 0.034306
4973.249000 4973.250000 0.500000 3.301308 15.774867 0.581045 0.033858
4973.501000 4973.500000 0.500000 3.292184 15.777671 0.586504 0.033615
4973.750000 4973.750000 0.500000 3.282119 15.781872 0.592597 0.032915
4973.997000 4974.000000 0.500000 3.270359 15.782541 0.599613 0.032926
4974.251000 4974.250000 0.500000 3.260941 15.785043 0.605364 0.032737
4974.502000 4974.500000 0.500000 3.253963 15.788605 0.609777 0.032531
4974.755000 4974.750000 0.500000 3.250790 15.789539 0.611742 0.031876
4975.001000 4975.000000 0.500000 3.251231 15.788655 0.611439 0.031185
4975.251000 4975.250000 0.500000 3.256101 15.789281 0.608501 0.030331
4975.501000 4975.500000 0.500000 3.264448 15.789593 0.603427 0.029362
4975.747000 4975.750000 0.500000 3.276335 15.790672 0.596436 0.028966
4976.000000 4976.000000 0.500000 3.292091 15.792107 0.587124 0.027941
4976.254000 4976.250000 0.500000 3.309169 15.798158 0.577246 0.027091
4976.500000 4976.500000 0.500000 3.329266 15.796498 0.565885 0.025919
4976.753000 4976.750000 0.500000 3.350931 15.811804 0.554166 0.025411
4976.998000 4977.000000 0.500000 3.374821 15.819251 0.541561 0.024480
4977.249000 4977.250000 0.500000 3.399482 15.822410 0.528342 0.023641
4977.498000 4977.500000 0.500000 3.424511 15.823024 0.515390 0.022617
4977.748000 4977.750000 0.500000 3.451426 15.825226 0.501746 0.021952
4978.003000 4978.000000 0.500000 3.478149 15.829029 0.488495 0.021327
4978.251000 4978.250000 0.500000 3.503558 15.831629 0.476428 0.020652
4978.502000 4978.500000 0.500000 3.525690 15.833544 0.466022 0.020257
4978.751000 4978.750000 0.500000 3.542553 15.834673 0.458270 0.019786
4979.000000 4979.000000 0.500000 3.553301 15.836526 0.453408 0.019465
4979.252000 4979.250000 0.500000 3.559626 15.835076 0.450492 0.019211
4979.500000 4979.500000 0.500000 3.565776 15.832810 0.447671 0.018987
4979.752000 4979.750000 0.500000 3.575130 15.828720 0.443390 0.018941
4979.999000 4980.000000 0.500000 3.590074 15.824979 0.436731 0.018565
4980.253000 4980.250000 0.500000 3.615221 15.822207 0.425699 0.018186
4980.502000 4980.500000 0.500000 3.649978 15.820921 0.411166 0.017449
4980.750000 4980.750000 0.500000 3.697469 15.816298 0.392189 0.016751
4981.002000 4981.000000 0.500000 3.754654 15.817142 0.370118 0.015849
4981.247000 4981.250000 0.500000 3.816127 15.816196 0.348352 0.014928
4981.500000 4981.500000 0.500000 3.876230 15.813885 0.327764 0.014285
4981.751000 4981.750000 0.500000 3.934383 15.816713 0.309351 0.013421
4982.001000 4982.000000 0.500000 3.988712 15.846840 0.293587 0.012756
4982.252000 4982.250000 0.500000 4.040592 15.857920 0.278900 0.012523
4982.502000 4982.500000 0.500000 4.094206 15.859472 0.264406 0.011551
4982.752000 4982.750000 0.500000 4.152756 15.862059 0.249228 0.011209
4983.001000 4983.000000 0.500000 4.219754 15.863357 0.233301 0.010562
4983.250000 4983.250000 0.500000 4.291509 15.861778 0.217026 0.010014
4983.498000 4983.500000 0.500000 4.362175 15.862374 0.202381 0.009552
4983.751000 4983.750000 0.500000 4.432984 15.858942 0.188332 0.008826
4984.002000 4984.000000 0.500000 4.501814 15.856251 0.175851 0.008433
4984.252000 4984.250000 0.500000 4.565791 15.854149 0.164891 0.008172
4984.501000 4984.500000 0.500000 4.622030 15.856908 0.155935 0.007826
4984.751000 4984.750000 0.500000 4.673286 15.889546 0.148407 0.007548
4985.001000 4985.000000 0.500000 4.720483 15.892122 0.141583 0.007186
4985.250000 4985.250000 0.500000 4.754135 15.893166 0.136949 0.007188
4985.502000 4985.500000 0.500000 4.774147 15.893094 0.134221 0.007176
4985.752000 4985.750000 0.500000 4.779049 15.895374 0.133585 0.006952
4986.005000 4986.000000 0.500000 4.766883 15.894463 0.135237 0.007210
4986.252000 4986.250000 0.500000 4.744554 15.894729 0.138259 0.007420
4986.504000 4986.500000 0.500000 4.713584 15.890791 0.142620 0.007534
4986.752000 4986.750000 0.500000 4.681404 15.888102 0.147238 0.007790
4987.000000 4987.000000 0.500000 4.650622 15.885179 0.151781 0.007973
4987.251000 4987.250000 0.500000 4.628579 15.884828 0.155182 0.008078
4987.501000 4987.500000 0.500000 4.609010 15.883541 0.158228 0.008212
4987.753000 4987.750000 0.500000 4.597039 15.881831 0.160115 0.008228
4988.003000 4988.000000 0.500000 4.582770 15.886598 0.162459 0.008493
4988.253000 4988.250000 0.500000 4.570204 15.890802 0.164568 0.008350
4988.501000 4988.500000 0.500000 4.559221 15.900035 0.166470 0.008589
4988.750000 4988.750000 0.500000 4.550516 15.909903 0.168036 0.008576
4988.999000 4989.000000 0.500000 4.544144 15.922997 0.169243 0.008690
4989.251000 4989.250000 0.500000 4.536432 15.931956 0.170658 0.008822
4989.503000 4989.500000 0.500000 4.531130 15.945841 0.171716 0.008870
4989.751000 4989.750000 0.500000 4.524195 15.957324 0.173026 0.009052
4990.003000 4990.000000 0.500000 4.517110 15.971013 0.174410 0.008866
4990.253000 4990.250000 0.500000 4.508488 15.983458 0.176065 0.008967
4990.502000 4990.500000 0.500000 4.500477 15.995674 0.177614 0.008675
4990.750000 4990.750000 0.500000 4.491410 16.008565 0.179373 0.009038
4991.001000 4991.000000 0.500000 4.481859 16.021935 0.181249 0.009095
4991.252000 4991.250000 0.500000 4.474541 16.031168 0.182683 0.009298
4991.499000 4991.500000 0.500000 4.470939 16.043432 0.183474 0.009343
4991.752000 4991.750000 0.500000 4.470426 16.049624 0.183646 0.009465
4992.001000 4992.000000 0.500000 4.473729 16.062033 0.183184 0.009424
4992.251000 4992.250000 0.500000 4.480253 16.066766 0.182044 0.009283
4992.499000 4992.500000 0.500000 4.490216 16.076904 0.180360 0.009123
4992.750000 4992.750000 0.500000 4.502304 16.083054 0.178246 0.009054
4993.001000 4993.000000 0.500000 4.517209 16.089470 0.175685 0.009166
4993.251000 4993.250000 0.500000 4.530201 16.094491 0.173491 0.009018
4993.504000 4993.500000 0.500000 4.542604 16.099551 0.171384 0.008806
4993.752000 4993.750000 0.500000 4.549453 16.103566 0.170265 0.008805
4994.005000 4994.000000 0.500000 4.555091 16.108463 0.169359 0.008746
4994.249000 4994.250000 0.500000 4.554206 16.114058 0.169565 0.008851
4994.502000 4994.500000 0.500000 4.551480 16.118475 0.170079 0.008870
4994.750000 4994.750000 0.500000 4.548345 16.121581 0.170642 0.008727
4995.002000 4995.000000 0.500000 4.545347 16.124023 0.171182 0.008654
4995.251000 4995.250000 0.500000 4.543068 16.131089 0.171645 0.008922
4995.500000 4995.500000 0.500000 4.545802 16.133510 0.171209 0.008562
4995.752000 4995.750000 0.500000 4.549217 16.145654 0.170746 0.008548
4996.000000 4996.000000 0.700000 4.552123 22.553408 0.237825 0.012120
4997.093000 4997.080000 0.710000 4.587419 22.933128 0.233437 0.011602
4998.189000 4998.180000 0.730000 4.616378 23.581431 0.233188 0.011472
4999.302000 4999.290000 0.740000 4.613683 23.921291 0.237187 0.011403
5000.431000 5000.430000 0.750000 4.610486 24.279840 0.241510 0.011688
5001.588000 5001.580000 0.760000 4.624504 24.652085 0.241803 0.011889
5002.769000 5002.760000 0.780000 4.614255 25.356820 0.251284 0.012234
5003.956000 5003.950000 0.790000 4.557360 25.741336 0.270026 0.012966
5005.169000 5005.160000 0.800000 4.475624 26.129569 0.297463 0.014512
5006.396000 5006.390000 0.810000 4.397583 26.520567 0.326377 0.015370
5007.646000 5007.640000 0.830000 4.330621 27.243545 0.358503 0.017386
5008.916000 5008.910000 0.840000 4.272783 27.627732 0.385226 0.018446
5010.207000 5010.200000 0.850000 4.203801 28.017127 0.418546 0.020386
5011.514000 5011.510000 0.860000 4.145098 28.405804 0.449982 0.021995
5012.838000 5012.830000 0.880000 4.113956 29.118379 0.475889 0.022940
5014.188000 5014.180000 0.890000 4.105593 29.498541 0.486142 0.023483
5015.545000 5015.540000 0.900000 4.107652 29.878061 0.491385 0.024507
5016.938000 5016.930000 0.910000 4.107115 30.269487 0.498099 0.024741
5018.337000 5018.330000 0.930000 4.099274 30.988829 0.513945 0.025575
5019.759000 5019.750000 0.940000 4.086015 31.385845 0.527482 0.026417
5021.193000 5021.190000 0.950000 4.074443 31.782135 0.540341 0.027351
5022.656000 5022.650000 0.960000 4.070378 32.181396 0.549365 0.027909
5024.139000 5024.130000 0.980000 4.074442 32.919359 0.559677 0.028291
5025.639000 5025.630000 0.990000 4.081853 33.317930 0.562274 0.028629
5027.148000 5027.140000 1.000000 4.091081 33.712405 0.563709 0.028309
5028.685000 5028.680000 1.010000 4.097320 34.187501 0.568105 0.028620
5030.246000 5030.240000 1.030000 4.099494 34.922823 0.579059 0.028731
5031.815000 5031.810000 1.040000 4.100750 35.325536 0.585001 0.028566
5033.405000 5033.400000 1.050000 4.101332 35.728283 0.591327 0.028230
5035.019000 5035.010000 1.060000 4.097489 36.127711 0.600242 0.028446
5036.658000 5036.650000 1.080000 4.092838 36.874194 0.615496 0.028668
5038.306000 5038.300000 1.090000 4.094662 37.291453 0.621317 0.028600
5039.976000 5039.970000 1.100000 4.106247 37.693193 0.620791 0.028687
5041.649000 5041.650000 1.110000 4.123254 38.093419 0.616794 0.028704
5043.357000 5043.360000 1.130000 4.133342 38.844337 0.622645 0.029126
5045.090000 5045.090000 1.140000 4.133739 39.257130 0.629013 0.029754
5046.826000 5046.830000 1.150000 4.132842 39.665376 0.636124 0.030885
5048.594000 5048.600000 1.160000 4.135842 40.074573 0.640767 0.031386
5050.378000 5050.380000 1.180000 4.136212 40.838441 0.652733 0.032862
5052.176000 5052.180000 1.190000 4.138984 41.340493 0.658932 0.033697
5053.997000 5054.000000 1.200000 4.148444 41.775785 0.659596 0.034396
5055.836000 5055.840000 1.210000 4.164020 42.201423 0.656018 0.034778
5057.699000 5057.700000 1.230000 4.177356 42.991203 0.659441 0.035219
5059.577000 5059.580000 1.240000 4.184744 43.430003 0.661272 0.035094
5061.477000 5061.480000 1.250000 4.183686 43.856800 0.668478 0.035729
5063.400000 5063.400000 1.260000 4.176111 44.292815 0.680270 0.036363
5065.328000 5065.330000 1.280000 4.162904 45.126334 0.702280 0.037888
5067.289000 5067.290000 1.290000 4.146883 45.640028 0.721735 0.038900
5069.259000 5069.260000 1.300000 4.128763 46.081657 0.742052 0.040354
5071.260000 5071.260000 1.310000 4.111468 46.527325 0.762303 0.041619
5073.269000 5073.270000 1.330000 4.097370 47.337975 0.786590 0.042626
5075.299000 5075.300000 1.340000 4.087664 47.782933 0.801724 0.043276
5077.351000 5077.350000 1.350000 4.080135 48.240614 0.815525 0.044030
5079.416000 5079.420000 1.360000 4.073126 48.700031 0.829069 0.043873
5081.507000 5081.510000 1.380000 4.064815 49.510528 0.849907 0.044552
5083.610000 5083.610000 1.390000 4.051601 49.967007 0.869166 0.044621
5085.736000 5085.740000 1.400000 4.031735 50.417338 0.894578 0.045403
5087.889000 5087.890000 1.410000 4.006692 50.874036 0.925584 0.046104
5090.047000 5090.050000 1.430000 3.981879 51.701954 0.964257 0.047673
5092.231000 5092.230000 1.440000 3.963342 52.172677 0.991269 0.048617
5094.437000 5094.440000 1.450000 3.950208 52.637392 1.013295 0.050512
5096.656000 5096.660000 1.460000 3.942438 53.092165 1.030026 0.052549
5098.898000 5098.900000 1.480000 3.939122 53.915120 1.049473 0.054579
5101.155000 5101.160000 1.490000 3.937458 54.370824 1.060103 0.057480
5103.440000 5103.440000 1.500000 3.934763 54.835906 1.072059 0.058925
5105.742000 5105.740000 1.510000 3.924727 55.305403 1.092144 0.060810
5108.052000 5108.050000 1.530000 3.911194 56.136613 1.123666 0.062458
5110.392000 5110.390000 1.540000 3.900961 56.616288 1.144916 0.063984
5112.740000 5112.740000 1.550000 3.895294 57.097640 1.161214 0.064788
5115.123000 5115.120000 1.560000 3.889596 57.575039 1.177623 0.065904
5117.509000 5117.510000 1.580000 3.884963 58.430582 1.200663 0.067457
5119.918000 5119.920000 1.590000 3.883009 58.932248 1.213340 0.067977
5122.351000 5122.350000 1.600000 3.883337 59.432981 1.223250 0.069029
5124.799000 5124.800000 1.610000 3.884252 59.933725 1.232430 0.069785
5127.274000 5127.270000 1.630000 3.885712 60.817853 1.248783 0.071403
5129.761000 5129.760000 1.640000 3.888980 61.337109 1.255336 0.072109
