# XDI/1.0 BlueSky/1.5.3
# Beamline.name: 6BM
# Beamline.xray_source: NSLS-II three-pole wiggler
# Beamline.collimation: paraboloid mirror, 5 nm Rh on 30 nm Pt
# Beamline.focusing: not in use
# Beamline.harmonic_rejection: flat mirror, Pt stripe, pitch = 7.0 mrad relative to beam
# Detector.i0: 10 cm N2
# Detector.i1: 25 cm N2
# Detector.i2: 25 cm N2
# Element.symbol: Ta
# Element.edge: L3
# Facility.name: NSLS-II
# Facility.energy: 3.0
# Facility.current: 400.7
# Facility.mode: top-off
# Facility.gup: 305832
# Facility.saf: 305669
# Facility.cycle: 2020-1
# Mono.name: Si(111)
# Mono.d_spacing: 3.1353241
# Mono.encoder_resolution: 0.0000050 deg/ct
# Mono.angle_offset: 16.0581090 deg
# Mono.scan_mode: fixed exit
# Mono.scan_type: step
# Mono.direction: forward in energy
# Sample.name: Ta2O3
# Sample.prep: Powder in polyethylene glycol pellet
# Sample.x_position: -5.367 mm
# Sample.y_position: 103.555 mm
# Scan.experimenters: Neil Hyatt, Martin Stennett, Dan Austin, Seb Lawson
# Scan.edge_energy: 9881.1
# Scan.start_time: 2020-03-05T01:00:54
# Scan.end_time: 2020-03-05T18:34:04
# Scan.transient_id: 22951
# Scan.uid: e820bc4d-b17e-4e1d-8068-1a815f9a3f3c
# Scan.plot_hint: ln(I0/It)  --  ln($5/$6)
# Scan.sequence: merge of 2 scans
# Column.1: energy eV
# Column.2: requested_energy eV
# Column.3: measurement_time seconds
# Column.4: mutrans
# Column.5: i0
# Column.6: itrans
# Column.7: irefer
# /////
# 
# -----
# energy   requested_energy   measurement_time   mutrans   i0   itrans   irefer
9681.107000 9681.100000 1.000000 0.383541 113.633488 77.698130 34.063166
9691.165000 9691.100000 1.000000 0.380568 113.365910 77.745685 34.164447
9701.178000 9701.100000 1.000000 0.377664 113.075232 77.770938 34.258939
9711.164000 9711.100000 1.000000 0.374745 112.850427 77.841463 34.367940
9721.154000 9721.100000 1.000000 0.371910 112.571878 77.867909 34.459741
9731.145000 9731.100000 1.000000 0.369125 112.301286 77.895361 34.547732
9741.129000 9741.100000 1.000000 0.366244 112.042909 77.938589 34.648959
9751.421000 9751.100000 1.000000 0.363343 111.745074 77.959837 34.738013
9761.105000 9761.100000 1.000000 0.360579 111.429532 77.948366 34.803062
9771.085000 9771.100000 1.000000 0.357903 111.047265 77.888029 34.858311
9781.090000 9781.100000 1.000000 0.355290 110.759199 77.887031 34.928300
9791.100000 9791.100000 1.000000 0.352637 108.927462 76.795972 34.505748
9801.097000 9801.100000 1.000000 0.350301 110.228915 77.902389 35.079965
9811.091000 9811.100000 1.000000 0.348121 110.046275 77.941350 35.158850
9821.088000 9821.100000 1.000000 0.346383 109.353110 77.588981 35.060660
9831.094000 9831.100000 1.000000 0.345194 109.419876 77.725084 35.155980
9841.095000 9841.100000 1.000000 0.345534 109.159532 77.514672 35.069383
9851.105000 9851.100000 1.000000 0.349024 108.820471 77.007893 34.759301
9853.082000 9853.100000 1.000000 0.350514 108.754395 76.847867 34.653533
9855.084000 9855.100000 1.000000 0.352460 108.691222 76.654836 34.517516
9857.079000 9857.100000 1.000000 0.354847 108.622650 76.425309 34.351512
9859.071000 9859.100000 1.000000 0.358098 108.565056 76.139660 34.144550
9861.072000 9861.100000 1.000000 0.362209 108.508457 75.791525 33.888597
9863.082000 9863.100000 1.000000 0.367762 108.445601 75.330996 33.539203
9865.081000 9865.100000 1.000000 0.375235 108.382982 74.733007 33.081623
9867.080000 9867.100000 1.000000 0.385656 108.325279 73.926835 32.444148
9869.084000 9869.100000 1.000000 0.400130 108.260800 72.829369 31.571849
9871.094000 9871.100000 1.000000 0.422117 108.206504 71.220715 30.276843
9871.317000 9871.350000 1.000000 0.425368 108.193819 70.982966 30.084964
9871.566000 9871.600000 1.000000 0.428978 108.171207 70.710187 29.863390
9871.823000 9871.850000 1.000000 0.432987 108.173572 70.427995 29.634861
9872.067000 9872.100000 1.000000 0.437154 108.164241 70.143891 29.408601
9872.320000 9872.350000 1.000000 0.441417 108.150294 69.831569 29.148866
9872.577000 9872.600000 1.000000 0.446028 108.132456 69.492389 28.875633
9872.822000 9872.850000 1.000000 0.450958 108.125238 69.162728 28.609584
9873.075000 9873.100000 1.000000 0.455953 108.113923 68.808338 28.316389
9873.327000 9873.350000 1.000000 0.461634 108.097780 68.410380 27.994635
9873.568000 9873.600000 1.000000 0.467467 108.095123 68.024030 27.677198
9873.833000 9873.850000 1.000000 0.473938 108.079342 67.561454 27.304556
9874.078000 9874.100000 1.000000 0.480796 108.080413 67.115876 26.945211
9874.327000 9874.350000 1.000000 0.488007 108.065854 66.623663 26.546531
9874.588000 9874.600000 1.000000 0.496037 108.044630 66.066504 26.101171
9874.828000 9874.850000 1.000000 0.504598 108.044369 65.537709 25.682673
9875.081000 9875.100000 1.000000 0.513682 108.032787 64.926620 25.205274
9875.334000 9875.350000 1.000000 0.523613 108.014554 64.278216 24.709601
9875.575000 9875.600000 1.000000 0.534280 108.012464 63.612028 24.199459
9875.840000 9875.850000 1.000000 0.545945 108.000704 62.842521 23.630879
9876.089000 9876.100000 1.000000 0.558870 107.976884 62.070816 23.074793
9876.338000 9876.350000 1.000000 0.572103 107.961259 61.233510 22.486764
9876.595000 9876.600000 1.000000 0.586878 107.949583 60.319154 21.875469
9876.844000 9876.850000 1.000000 0.602531 107.937140 59.390517 21.281159
9877.097000 9877.100000 1.000000 0.619170 107.914112 58.395338 20.674784
9877.346000 9877.350000 1.000000 0.637608 107.892922 57.334006 20.062570
9877.591000 9877.600000 1.000000 0.657595 107.823675 56.189071 19.448678
9877.848000 9877.850000 1.000000 0.679860 107.725371 54.867242 18.774056
9878.106000 9878.100000 1.000000 0.704995 107.555113 53.457958 18.102528
9878.351000 9878.350000 1.000000 0.730352 107.255765 51.944239 17.433682
9878.600000 9878.600000 1.000000 0.760272 106.816432 50.247502 16.714324
9878.844000 9878.850000 1.000000 0.792126 106.317876 48.475213 16.011285
9879.102000 9879.100000 1.000000 0.828242 105.972308 46.592002 15.305756
9879.355000 9879.350000 1.000000 0.867880 105.641822 44.656772 14.602985
9879.600000 9879.600000 1.000000 0.909786 105.459947 42.762344 13.922434
9879.857000 9879.850000 1.000000 0.957320 105.435039 40.770487 13.247560
9880.094000 9880.100000 1.000000 1.004914 105.560521 38.966941 12.635809
9880.347000 9880.350000 1.000000 1.056404 106.024338 37.172413 12.040901
9880.600000 9880.600000 1.000000 1.108459 106.432357 35.436912 11.478620
9880.845000 9880.850000 1.000000 1.160983 106.890189 33.802809 10.963247
9881.103000 9881.100000 1.000000 1.213766 107.273228 32.151789 10.443944
9881.339000 9881.350000 1.000000 1.263097 107.508787 30.704833 9.992044
9881.592000 9881.600000 1.000000 1.313984 107.663085 29.270218 9.558180
9881.842000 9881.850000 1.000000 1.358931 107.749000 27.998175 9.172241
9882.091000 9882.100000 1.000000 1.400962 107.795576 26.914455 8.859989
9882.344000 9882.350000 1.000000 1.436618 107.825355 25.970923 8.584237
9882.581000 9882.600000 1.000000 1.466619 107.854697 25.273229 8.391163
9882.847000 9882.850000 1.000000 1.491217 107.863799 24.636655 8.219120
9883.096000 9883.100000 1.000000 1.510337 107.862931 24.200905 8.103344
9883.349000 9883.350000 1.000000 1.523929 107.872093 23.879205 8.028986
9883.599000 9883.600000 1.000000 1.533399 107.876835 23.667057 7.985153
9883.852000 9883.850000 1.000000 1.539338 107.879995 23.534169 7.969580
9884.110000 9884.100000 1.000000 1.542285 107.871817 23.469784 7.971881
9884.355000 9884.350000 1.000000 1.542628 107.861740 23.463543 7.992504
9884.608000 9884.600000 1.000000 1.540752 107.856883 23.509951 8.033393
9884.853000 9884.850000 1.000000 1.537063 107.866205 23.602400 8.086829
9885.103000 9885.100000 1.000000 1.531517 107.855974 23.730486 8.157829
9885.356000 9885.350000 1.000000 1.523812 107.849017 23.915767 8.237076
9885.601000 9885.600000 1.000000 1.514647 107.827388 24.131555 8.336336
9885.855000 9885.850000 1.000000 1.503180 107.817132 24.408665 8.448749
9886.100000 9886.100000 1.000000 1.489888 107.810004 24.733630 8.583050
9886.354000 9886.350000 1.000000 1.473432 107.797954 25.139039 8.744801
9886.603000 9886.600000 1.000000 1.454713 107.776554 25.607929 8.924400
9886.848000 9886.850000 1.000000 1.433909 107.760173 26.143851 9.129622
9887.102000 9887.100000 1.000000 1.409114 107.756435 26.790771 9.363894
9887.343000 9887.350000 1.000000 1.382778 107.747292 27.488856 9.617237
9887.601000 9887.600000 1.000000 1.353337 107.729806 28.315638 9.915420
9887.846000 9887.850000 1.000000 1.323203 107.714570 29.180267 10.219678
9888.095000 9888.100000 1.000000 1.290096 107.707959 30.116431 10.552560
9888.349000 9888.350000 1.000000 1.256414 107.687281 31.132839 10.899599
9888.590000 9888.600000 1.000000 1.223370 107.646023 32.124752 11.244247
9888.848000 9888.850000 1.000000 1.191048 107.642989 33.182082 11.604001
9889.089000 9889.100000 1.000000 1.159551 107.622610 34.190832 11.945406
9889.347000 9889.350000 1.000000 1.129327 107.612065 35.248092 12.301245
9889.597000 9889.600000 1.000000 1.100418 107.596423 36.232623 12.633831
9889.842000 9889.850000 1.000000 1.073647 107.583005 37.222447 12.967066
9890.108000 9890.100000 1.000000 1.046653 107.566596 38.216161 13.298987
9890.349000 9890.350000 1.000000 1.023294 107.543459 39.105777 13.596353
9890.607000 9890.600000 1.000000 0.999564 107.525373 40.012432 13.899931
9890.849000 9890.850000 1.000000 0.979178 107.513904 40.819298 14.168286
9891.107000 9891.100000 1.000000 0.958966 107.498675 41.641478 14.446749
9891.356000 9891.350000 1.000000 0.941202 107.476043 42.379247 14.701818
9891.606000 9891.600000 1.000000 0.924448 107.458684 43.062333 14.932167
9891.860000 9891.850000 1.000000 0.909309 107.446653 43.718893 15.155091
9892.101000 9892.100000 1.000000 0.896020 107.438685 44.279608 15.350281
9892.363000 9892.350000 1.000000 0.883351 107.419025 44.833414 15.540855
9892.605000 9892.600000 1.000000 0.872848 107.407941 45.292728 15.704788
9892.854000 9892.850000 1.000000 0.862948 107.388601 45.714916 15.855956
9893.096000 9893.100000 1.000000 0.855051 107.384294 46.073218 15.986376
9893.345000 9893.350000 1.000000 0.847409 107.364381 46.403735 16.111652
9893.604000 9893.600000 1.000000 0.840964 107.348231 46.700286 16.223729
9893.849000 9893.850000 1.000000 0.835152 107.332580 46.951714 16.314589
9894.103000 9894.100000 1.000000 0.830071 107.329863 47.191527 16.416866
9894.340000 9894.350000 1.000000 0.825631 107.313175 47.382277 16.495836
9894.594000 9894.600000 1.000000 0.821196 107.306526 47.585547 16.581044
9894.848000 9894.850000 1.000000 0.817306 107.291986 47.765785 16.658156
9895.094000 9895.100000 1.000000 0.813424 107.265637 47.934301 16.728614
9895.344000 9895.350000 1.000000 0.809994 107.262219 48.098197 16.799155
9895.593000 9895.600000 1.000000 0.806556 107.247366 48.249204 16.863354
9895.856000 9895.850000 1.000000 0.803398 107.226293 48.397651 16.932958
9896.097000 9896.100000 1.000000 0.800346 107.210210 48.532957 16.991727
9896.356000 9896.350000 1.000000 0.797594 107.200078 48.664583 17.052350
9896.601000 9896.600000 1.000000 0.794947 107.197314 48.787411 17.106101
9896.851000 9896.850000 1.000000 0.792479 107.174539 48.897621 17.154892
9897.101000 9897.100000 1.000000 0.790315 107.161358 48.999787 17.203353
9897.351000 9897.350000 1.000000 0.788080 107.140507 49.093347 17.244490
9897.614000 9897.600000 1.000000 0.786125 107.135043 49.189582 17.290062
9897.851000 9897.850000 1.000000 0.784354 107.139249 49.275302 17.329494
9898.110000 9898.100000 1.000000 0.782766 107.127740 49.351387 17.369816
9898.355000 9898.350000 1.000000 0.781177 107.101889 49.411205 17.396112
9898.605000 9898.600000 1.000000 0.779619 107.076197 49.475688 17.422984
9898.855000 9898.850000 1.000000 0.778342 107.071887 49.537219 17.458551
9899.101000 9899.100000 1.000000 0.776992 107.075487 49.604693 17.493611
9899.360000 9899.350000 1.000000 0.775732 107.045917 49.652852 17.518228
9899.597000 9899.600000 1.000000 0.774457 107.031297 49.705148 17.544944
9899.856000 9899.850000 1.000000 0.773328 107.012710 49.754907 17.574915
9900.093000 9900.100000 1.000000 0.772104 107.010694 49.810773 17.604722
9900.347000 9900.350000 1.000000 0.771083 106.982319 49.847240 17.624268
9900.597000 9900.600000 1.000000 0.769899 106.974828 49.902106 17.656354
9900.843000 9900.850000 1.000000 0.768985 106.980166 49.952061 17.684002
9901.098000 9901.100000 1.000000 0.767980 106.944258 49.983368 17.705825
9901.339000 9901.350000 1.000000 0.767081 106.922318 50.017564 17.724791
9901.602000 9901.600000 1.000000 0.766282 106.980790 50.089615 17.766882
9901.844000 9901.850000 1.000000 0.765590 107.096913 50.185240 17.822130
9902.094000 9902.100000 1.000000 0.764841 107.085248 50.218719 17.841705
9902.348000 9902.350000 1.000000 0.764231 107.074905 50.242939 17.853022
9902.594000 9902.600000 1.000000 0.763634 107.051125 50.261075 17.865554
9902.857000 9902.850000 1.000000 0.763135 107.234322 50.359194 17.884499
9903.103000 9903.100000 1.000000 0.762555 107.221369 50.383158 17.894173
9903.354000 9903.350000 1.000000 0.762024 107.211189 50.403796 17.910498
9903.600000 9903.600000 1.000000 0.761529 107.193236 50.419786 17.915360
9903.850000 9903.850000 1.000000 0.760918 107.184456 50.445699 17.928472
9904.109000 9904.100000 1.000000 0.760301 107.158907 50.464350 17.938202
9904.350000 9904.350000 1.000000 0.759649 107.154705 50.495404 17.948683
9904.613000 9904.600000 1.000000 0.758951 107.142175 50.524558 17.963112
9904.851000 9904.850000 1.000000 0.758293 107.118247 50.545310 17.971434
9905.101000 9905.100000 1.000000 0.757544 107.101068 50.574133 17.982533
9905.352000 9905.350000 1.000000 0.756682 107.087421 50.611363 17.999213
9905.602000 9905.600000 1.000000 0.755907 107.076263 50.644354 18.011975
9905.857000 9905.850000 1.000000 0.755072 107.053935 50.675554 18.021712
9906.103000 9906.100000 1.000000 0.754253 107.039131 50.709552 18.036492
9906.357000 9906.350000 1.000000 0.753359 107.025428 50.748621 18.055461
9906.595000 9906.600000 1.000000 0.752449 107.022248 50.792542 18.076332
9906.854000 9906.850000 1.000000 0.751480 107.019014 50.840315 18.095764
9907.096000 9907.100000 1.000000 0.750675 106.998731 50.870646 18.108125
9907.342000 9907.350000 1.000000 0.749575 106.993190 50.922776 18.130993
9907.601000 9907.600000 1.000000 0.748634 106.990356 50.970515 18.154879
9907.843000 9907.850000 1.000000 0.747606 106.975486 51.016007 18.172506
9908.098000 9908.100000 1.000000 0.746435 106.970381 51.071390 18.195797
9908.336000 9908.350000 1.000000 0.745352 106.964072 51.123594 18.221078
9908.595000 9908.600000 1.000000 0.744266 106.936263 51.165385 18.238608
9908.849000 9908.850000 1.000000 0.743102 106.935628 51.225533 18.265131
9909.092000 9909.100000 1.000000 0.741947 106.929202 51.278969 18.281997
9909.355000 9909.350000 1.000000 0.740908 106.917484 51.326918 18.304424
9909.593000 9909.600000 1.000000 0.739840 106.916582 51.379924 18.324562
9909.856000 9909.850000 1.000000 0.738798 106.919418 51.436865 18.353621
9910.102000 9910.100000 1.000000 0.737940 106.907944 51.474834 18.368569
9910.353000 9910.350000 1.000000 0.737133 106.891792 51.507576 18.379532
9910.608000 9910.600000 1.000000 0.736365 106.881342 51.542190 18.390811
9910.850000 9910.850000 1.000000 0.735852 106.872623 51.562826 18.401358
9911.113000 9911.100000 1.000000 0.735400 106.869207 51.585769 18.408939
9912.201000 9912.180000 1.000000 0.735501 106.821399 51.555661 18.398861
9913.297000 9913.280000 1.000000 0.738840 106.796320 51.373055 18.334035
9914.403000 9914.390000 1.000000 0.744520 106.755675 51.067747 18.232393
9915.546000 9915.530000 1.000000 0.750925 106.726765 50.732313 18.131633
9916.703000 9916.680000 1.000000 0.757228 106.696405 50.400890 18.046468
9917.886000 9917.860000 1.000000 0.763301 106.666068 50.085933 17.970642
9919.073000 9919.050000 1.000000 0.769634 106.597290 49.739682 17.884045
9920.269000 9920.260000 1.000000 0.776234 106.565053 49.404063 17.798064
9921.495000 9921.490000 1.000000 0.783361 106.518248 49.033700 17.689397
9922.759000 9922.740000 1.000000 0.791073 106.478150 48.643784 17.563833
9924.033000 9924.010000 1.000000 0.798590 106.426595 48.260176 17.421682
9925.324000 9925.300000 1.000000 0.806016 106.373233 47.883776 17.279276
9926.623000 9926.610000 1.000000 0.813296 106.295171 47.503872 17.127581
9927.936000 9927.930000 1.000000 0.819937 106.204559 47.156511 16.988558
9929.300000 9929.280000 1.000000 0.825874 106.032764 46.804197 16.852516
9930.661000 9930.640000 1.000000 0.830654 103.935239 45.652515 16.416542
9932.052000 9932.030000 1.000000 0.834524 104.810185 45.889220 16.543740
9933.439000 9933.430000 1.000000 0.835828 106.079614 46.368321 16.690722
9934.864000 9934.850000 1.000000 0.835386 106.084916 46.392286 16.713261
9936.303000 9936.290000 1.000000 0.833535 106.038601 46.457847 16.746687
9937.768000 9937.750000 1.000000 0.830732 105.968834 46.556394 16.794131
9939.238000 9939.230000 1.000000 0.827033 105.907293 46.699443 16.854518
9940.742000 9940.730000 1.000000 0.822365 105.871606 46.901790 16.936625
9942.247000 9942.240000 1.000000 0.817135 105.821343 47.123092 17.021415
9943.808000 9943.780000 1.000000 0.811195 105.742460 47.365455 17.107791
9945.352000 9945.340000 1.000000 0.805607 105.669762 47.592714 17.188965
9946.927000 9946.910000 1.000000 0.800331 105.612043 47.816504 17.264378
9948.510000 9948.500000 1.000000 0.795391 105.566943 48.030023 17.327559
9950.125000 9950.110000 1.000000 0.791170 105.478490 48.189662 17.373190
9951.765000 9951.750000 1.000000 0.787750 105.399004 48.316091 17.405131
9953.406000 9953.400000 1.000000 0.784994 105.283742 48.393489 17.425846
9955.078000 9955.070000 1.000000 0.783079 104.700804 48.208872 17.346046
9956.767000 9956.750000 1.000000 0.781824 102.797206 47.407558 17.101007
9958.474000 9958.460000 1.000000 0.780950 105.024891 48.475800 17.503047
9960.195000 9960.190000 1.000000 0.780199 105.118716 48.551434 17.553362
9961.946000 9961.930000 1.000000 0.779306 105.043706 48.559462 17.581585
9963.715000 9963.700000 1.000000 0.777973 104.963238 48.585758 17.610583
9965.506000 9965.480000 1.000000 0.776412 104.832099 48.598933 17.626978
9967.294000 9967.280000 1.000000 0.774725 104.607958 48.573190 17.617351
9969.108000 9969.100000 1.000000 0.773057 102.499128 47.656519 17.256334
9970.957000 9970.940000 1.000000 0.772554 104.220367 48.516581 17.624601
9972.811000 9972.800000 1.000000 0.772197 104.853535 48.814757 17.708592
9974.687000 9974.680000 1.000000 0.772471 104.763170 48.760399 17.696813
9976.594000 9976.580000 1.000000 0.773198 104.657600 48.675077 17.668268
9978.510000 9978.500000 1.000000 0.774362 104.540338 48.563817 17.632616
9980.441000 9980.430000 1.000000 0.775705 104.412351 48.440043 17.591844
9982.389000 9982.390000 1.000000 0.777228 103.353757 47.862863 17.362040
9984.377000 9984.360000 1.000000 0.779154 101.380527 46.903055 17.081575
9986.369000 9986.360000 1.000000 0.780433 104.144079 48.090824 17.464046
9988.359000 9988.370000 1.000000 0.781687 104.130380 48.025512 17.435338
9990.409000 9990.400000 1.000000 0.782804 104.063352 47.942198 17.404275
9992.470000 9992.450000 1.000000 0.783815 103.936410 47.835021 17.362856
9994.522000 9994.520000 1.000000 0.784628 103.726852 47.702433 17.312198
9996.631000 9996.610000 1.000000 0.785523 100.955270 46.381828 16.825485
9998.724000 9998.710000 1.000000 0.786774 104.080523 47.778255 17.361582
10000.844000 10000.840000 1.000000 0.787804 104.021403 47.697334 17.332211
10003.000000 10002.990000 1.000000 0.788587 104.044220 47.665189 17.318955
10005.173000 10005.150000 1.000000 0.789143 104.016691 47.622564 17.305933
10007.344000 10007.330000 1.000000 0.789371 103.875381 47.546844 17.290299
10009.550000 10009.540000 1.000000 0.789196 102.919884 47.108353 17.137714
10011.770000 10011.760000 1.000000 0.788884 102.380282 46.905532 17.143793
10014.017000 10014.000000 1.000000 0.787677 103.655003 47.529581 17.369753
10016.269000 10016.260000 1.000000 0.786099 103.620159 47.587261 17.414081
10018.561000 10018.540000 1.000000 0.784440 103.550381 47.634100 17.451605
10020.855000 10020.840000 1.000000 0.782552 103.450852 47.676711 17.478832
