# XDI/1.0 BlueSky/1.5.3
# Beamline.name: 6BM
# Beamline.xray_source: NSLS-II three-pole wiggler
# Beamline.collimation: paraboloid mirror, 5 nm Rh on 30 nm Pt
# Beamline.focusing: not in use
# Beamline.harmonic_rejection: flat mirror, Pt stripe, pitch = 7.0 mrad relative to beam
# Detector.i0: 10 cm N2
# Detector.I1: 25 cm N2
# Detector.I2: 25 cm N2
# Element.symbol: Ta
# Element.edge: L3
# Facility.name: NSLS-II
# Facility.energy: 3.0
# Facility.current: 400.3
# Facility.mode: top-off
# Facility.GUP: 305832
# Facility.SAF: 305669
# Facility.cycle: 2020-1
# Mono.name: Si(111)
# Mono.d_spacing: 3.1353241
# Mono.encoder_resolution: 0.0000050 deg/ct
# Mono.angle_offset: 16.0581090 deg
# Mono.scan_mode: fixed exit
# Mono.scan_type: step
# Mono.direction: forward in energy
# Sample.name: Ta
# Sample.prep: X
# Sample.x_position: -7.603 mm
# Sample.y_position: 102.894 mm
# Scan.experimenters: Neil Hyatt, Martin Stennett, Dan Austin, Seb Lawson
# Scan.edge_energy: 9881.1
# Scan.start_time: 2020-03-07T06:14:15
# Scan.end_time: 2020-03-07T06:25:44
# Scan.transient_id: 23472
# Scan.uid: ed6ccb2b-2857-4f87-977c-896b4366f4f0
# Scan.plot_hint: ln(i0/itrans)  --  ln($5/$6)
# Column.1: energy eV
# Column.2: requested_energy eV
# Column.3: measurement_time seconds
# Column.4: mutrans 
# Column.5: i0
# Column.6: itrans
# Column.7: irefer
# ///////////
# 
# -----------
#  energy  requested_energy  measurement_time  mutrans  i0  itrans  irefer
9681.091  9681.100  1.000  0.490438  113.422033  69.454909  16.929450
9691.189  9691.100  1.000  0.486928  113.153935  69.534386  17.173559
9701.166  9701.100  1.000  0.483388  112.814466  69.571596  16.035651
9711.168  9711.100  1.000  0.479819  112.518511  69.637206  16.767557
9721.134  9721.100  1.000  0.476502  112.239172  69.695105  16.599116
9731.141  9731.100  1.000  0.473016  111.923026  69.741471  16.485202
9741.141  9741.100  1.000  0.469621  111.616157  69.786769  16.132907
9751.137  9751.100  1.000  0.466271  111.300149  69.822764  16.894869
9761.134  9761.100  1.000  0.463122  110.998383  69.853061  17.287735
9771.122  9771.100  1.000  0.460009  110.606314  69.823296  17.022810
9781.115  9781.100  1.000  0.456931  110.254405  69.815763  16.525587
9791.117  9791.100  1.000  0.454082  108.569375  68.944892  16.377349
9801.110  9801.100  1.000  0.451590  109.676176  69.821545  16.789034
9811.103  9811.100  1.000  0.449493  109.449478  69.823429  17.182884
9821.113  9821.100  1.000  0.448147  108.622495  69.389244  17.438350
9831.119  9831.100  1.000  0.448261  108.756507  69.466932  17.197050
9841.020  9841.100  1.000  0.451523  108.407840  69.018720  17.024665
9851.088  9851.100  1.000  0.460997  108.083757  68.163531  16.782185
9853.086  9853.100  1.000  0.464609  108.006270  67.869037  16.697745
9855.084  9855.100  1.000  0.469136  107.941693  67.522141  16.603831
9857.084  9857.100  1.000  0.474939  107.859356  67.080198  16.486152
9859.084  9859.100  1.000  0.482585  107.796325  66.530362  16.350986
9861.081  9861.100  1.000  0.492432  107.737399  65.842426  16.182242
9863.074  9863.100  1.000  0.505910  107.677484  64.924876  15.971027
9865.081  9865.100  1.000  0.524361  107.605746  63.695454  15.684960
9867.076  9867.100  1.000  0.551311  107.532065  61.959321  15.277761
9869.089  9869.100  1.000  0.591665  107.486445  59.483542  14.696913
9871.081  9871.100  1.000  0.657178  107.420423  55.677289  13.795140
9871.313  9871.350  1.000  0.667803  107.389027  55.072740  13.652198
9871.557  9871.600  1.000  0.679555  107.383373  54.426477  13.499265
9871.810  9871.850  1.000  0.692660  107.380738  53.716536  13.329023
9872.080  9872.100  1.000  0.707066  107.378641  52.947192  13.141536
9872.324  9872.350  1.000  0.721790  107.360014  52.164287  12.953381
9872.581  9872.600  1.000  0.738268  107.357514  51.310569  12.747603
9872.839  9872.850  1.000  0.755797  107.364004  50.421999  12.533262
9873.075  9873.100  1.000  0.774267  107.337239  49.486941  12.307164
9873.336  9873.350  1.000  0.796165  107.333095  48.413174  12.046977
9873.593  9873.600  1.000  0.819448  107.351840  47.307253  11.780052
9873.833  9873.850  1.000  0.844041  107.341431  46.153558  11.495748
9874.095  9874.100  1.000  0.872795  107.333310  44.841950  11.176651
9874.343  9874.350  1.000  0.904526  107.316280  43.434500  10.833833
9874.584  9874.600  1.000  0.937465  107.294823  42.018725  10.487291
9874.849  9874.850  1.000  0.978140  107.303145  40.347049  10.077747
9875.098  9875.100  1.000  1.020476  107.297452  38.672501  9.667909
9875.343  9875.350  1.000  1.066974  107.280150  36.909518  9.231161
9875.600  9875.600  1.000  1.122306  107.278596  34.922211  8.740719
9875.845  9875.850  1.000  1.179405  107.271434  32.981860  8.262837
9876.094  9876.100  1.000  1.245393  107.252752  30.870315  7.740865
9876.355  9876.350  1.000  1.318761  107.231547  28.680850  7.196654
9876.595  9876.600  1.000  1.395924  107.218925  26.547843  6.668261
9876.844  9876.850  1.000  1.478201  107.589930  24.535634  6.167229
9877.097  9877.100  1.000  1.570886  107.570378  22.359683  5.624176
9877.342  9877.350  1.000  1.666957  107.540300  20.305847  5.112287
9877.587  9877.600  1.000  1.769980  107.494554  18.310231  4.613874
9877.848  9877.850  1.000  1.887771  107.433502  16.266386  4.102986
9878.093  9878.100  1.000  2.003402  107.339457  14.477478  3.656653
9878.338  9878.350  1.000  2.127787  107.104763  12.756237  3.225100
9878.604  9878.600  1.000  2.265545  106.712929  11.073974  2.800758
9878.836  9878.850  1.000  2.397132  106.239251  9.665491  2.447165
9879.085  9879.100  1.000  2.539771  105.706698  8.338615  2.113500
9879.347  9879.350  1.000  2.692540  105.277269  7.128193  1.808704
9879.596  9879.600  1.000  2.837603  105.037720  6.151626  1.561901
9879.840  9879.850  1.000  2.987881  104.935968  5.288153  1.344457
9880.102  9880.100  1.000  3.140016  104.953377  4.542601  1.156141
9880.347  9880.350  1.000  3.271155  105.111771  3.990312  1.016303
9880.600  9880.600  1.000  3.395596  105.463349  3.535192  0.901029
9880.853  9880.850  1.000  3.504426  105.941942  3.185041  0.811442
9881.098  9881.100  1.000  3.587720  106.391009  2.942916  0.750283
9881.356  9881.350  1.000  3.651947  106.733132  2.768719  0.705251
9881.605  9881.600  1.000  3.692953  106.929230  2.662364  0.678559
9881.846  9881.850  1.000  3.708588  107.048239  2.623979  0.668105
9882.103  9882.100  1.000  3.701662  107.098392  2.643453  0.673844
9882.361  9882.350  1.000  3.670050  107.140363  2.729422  0.693763
9882.602  9882.600  1.000  3.623647  107.172871  2.859926  0.727217
9882.855  9882.850  1.000  3.558276  107.170770  3.053071  0.775959
9883.104  9883.100  1.000  3.481171  107.181688  3.298127  0.837836
9883.345  9883.350  1.000  3.399636  107.198480  3.578866  0.907543
9883.603  9883.600  1.000  3.305495  107.194407  3.932005  0.997377
9883.856  9883.850  1.000  3.213040  107.164633  4.311675  1.093699
9884.101  9884.100  1.000  3.125447  107.176426  4.706898  1.193452
9884.346  9884.350  1.000  3.037040  107.162876  5.141320  1.303830
9884.608  9884.600  1.000  2.950353  107.138996  5.605646  1.422609
9884.845  9884.850  1.000  2.873946  107.128116  6.050129  1.535834
9885.098  9885.100  1.000  2.799593  107.145398  6.518174  1.655376
9885.356  9885.350  1.000  2.729260  107.147512  6.993255  1.777473
9885.597  9885.600  1.000  2.666475  107.131779  7.445311  1.892506
9885.851  9885.850  1.000  2.606652  107.109741  7.902682  2.009489
9886.100  9886.100  1.000  2.552587  107.111808  8.341859  2.123056
9886.337  9886.350  1.000  2.504105  107.103968  8.755612  2.227743
9886.594  9886.600  1.000  2.454973  107.083438  9.194778  2.340755
9886.848  9886.850  1.000  2.411408  107.030831  9.599483  2.445776
9887.102  9887.100  1.000  2.372662  107.004760  9.976287  2.542871
9887.343  9887.350  1.000  2.337915  106.996183  10.328198  2.633596
9887.588  9887.600  1.000  2.305735  107.015658  10.667908  2.720900
9887.833  9887.850  1.000  2.278183  107.006185  10.964944  2.797419
9888.095  9888.100  1.000  2.250188  106.984601  11.273980  2.878830
9888.353  9888.350  1.000  2.226625  106.965266  11.540693  2.947359
9888.594  9888.600  1.000  2.206228  106.965922  11.778575  3.008834
9888.856  9888.850  1.000  2.186300  106.935281  12.012213  3.070417
9889.102  9889.100  1.000  2.169192  106.904060  12.215912  3.122485
9889.347  9889.350  1.000  2.152934  106.893316  12.414898  3.173459
9889.613  9889.600  1.000  2.137212  106.901511  12.612593  3.224613
9889.855  9889.850  1.000  2.123258  106.877555  12.786963  3.271443
9890.100  9890.100  1.000  2.109885  106.857962  12.956726  3.314898
9890.358  9890.350  1.000  2.096033  106.843762  13.135709  3.361148
9890.607  9890.600  1.000  2.083716  106.842045  13.298294  3.403780
9890.849  9890.850  1.000  2.071359  106.837477  13.463068  3.446979
9891.111  9891.100  1.000  2.058023  106.828085  13.642609  3.493630
9891.352  9891.350  1.000  2.045801  106.820503  13.809394  3.535181
9891.602  9891.600  1.000  2.033118  106.801643  13.983185  3.581326
9891.860  9891.850  1.000  2.019869  106.825099  14.172786  3.630359
9892.105  9892.100  1.000  2.007306  106.819699  14.351235  3.677134
9892.351  9892.350  1.000  1.993994  106.815935  14.543054  3.725247
9892.605  9892.600  1.000  1.980213  106.783025  14.740306  3.777120
9892.854  9892.850  1.000  1.967033  106.776369  14.934950  3.829024
9893.096  9893.100  1.000  1.954308  106.767898  15.125002  3.877356
9893.354  9893.350  1.000  1.940974  106.747762  15.325135  3.929894
9893.599  9893.600  1.000  1.928147  106.724429  15.519584  3.979504
9893.845  9893.850  1.000  1.915653  106.732251  15.715860  4.029262
9894.103  9894.100  1.000  1.902897  106.707275  15.913893  4.080239
9894.344  9894.350  1.000  1.891118  106.702351  16.101712  4.129056
9894.590  9894.600  1.000  1.879258  106.677819  16.290057  4.177813
9894.857  9894.850  1.000  1.867260  106.674024  16.486101  4.228704
9895.090  9895.100  1.000  1.856304  106.648317  16.663697  4.274168
9895.339  9895.350  1.000  1.845572  106.587183  16.833837  4.317244
9895.602  9895.600  1.000  1.834599  106.573272  17.017363  4.365322
9895.839  9895.850  1.000  1.825022  106.578760  17.181997  4.406921
9896.093  9896.100  1.000  1.815425  106.623806  17.355015  4.451968
9896.356  9896.350  1.000  1.806109  106.593293  17.512450  4.492133
9896.593  9896.600  1.000  1.797997  106.552899  17.648397  4.527622
9896.847  9896.850  1.000  1.789972  106.587990  17.796440  4.564828
9897.106  9897.100  1.000  1.782328  106.595838  17.934332  4.601099
9897.351  9897.350  1.000  1.775990  106.583413  18.046242  4.629922
9897.605  9897.600  1.000  1.769472  106.596252  18.166448  4.659986
9897.851  9897.850  1.000  1.763563  106.587420  18.272594  4.687169
9898.101  9898.100  1.000  1.757744  106.540674  18.371169  4.712603
9898.360  9898.350  1.000  1.752184  106.508416  18.468013  4.738717
9898.614  9898.600  1.000  1.746497  106.474194  18.567363  4.762814
9898.855  9898.850  1.000  1.740880  106.460293  18.669518  4.787738
9899.105  9899.100  1.000  1.735355  106.463538  18.773532  4.814730
9899.360  9899.350  1.000  1.729681  106.747778  18.930748  4.853146
9899.593  9899.600  1.000  1.724298  106.762381  19.035546  4.881799
9899.856  9899.850  1.000  1.718366  106.734051  19.143719  4.909743
9900.106  9900.100  1.000  1.712685  106.735735  19.253072  4.934913
9900.351  9900.350  1.000  1.707318  106.710051  19.352040  4.960264
9900.602  9900.600  1.000  1.702260  106.708164  19.449815  4.985037
9900.856  9900.850  1.000  1.696830  106.678926  19.550358  5.010567
9901.093  9901.100  1.000  1.692173  106.660918  19.638306  5.034212
9901.352  9901.350  1.000  1.687589  106.641954  19.725030  5.054809
9901.606  9901.600  1.000  1.683446  106.624158  19.803601  5.075282
9901.852  9901.850  1.000  1.679646  106.609656  19.876308  5.092637
9902.107  9902.100  1.000  1.676200  106.597826  19.942694  5.109274
9902.348  9902.350  1.000  1.673130  106.562715  19.997423  5.123350
9902.586  9902.600  1.000  1.670640  106.572358  20.049101  5.136098
9902.849  9902.850  1.000  1.668035  106.587062  20.104177  5.150256
9903.099  9903.100  1.000  1.665920  106.570728  20.143643  5.160617
9903.337  9903.350  1.000  1.664320  106.535149  20.169165  5.167405
9903.591  9903.600  1.000  1.662665  106.499194  20.195765  5.171808
9903.837  9903.850  1.000  1.661349  106.485738  20.219787  5.177834
9904.083  9904.100  1.000  1.660257  106.462534  20.237477  5.183911
9904.355  9904.350  1.000  1.659133  106.440389  20.256028  5.187627
9904.605  9904.600  1.000  1.658321  106.463906  20.276957  5.191335
9904.843  9904.850  1.000  1.657579  106.459859  20.291235  5.193453
9905.110  9905.100  1.000  1.656692  106.436783  20.304841  5.195688
9905.347  9905.350  1.000  1.655945  106.440281  20.320683  5.201388
9905.602  9905.600  1.000  1.655011  106.399644  20.331909  5.202293
9905.861  9905.850  1.000  1.653995  106.370702  20.347042  5.206056
9906.099  9906.100  1.000  1.652822  106.368736  20.370544  5.210814
9906.353  9906.350  1.000  1.651747  106.336414  20.386260  5.215692
9906.616  9906.600  1.000  1.650108  106.337368  20.419871  5.225771
9906.850  9906.850  1.000  1.648641  106.347189  20.451748  5.230709
9907.105  9907.100  1.000  1.646829  106.352046  20.489778  5.240181
9907.355  9907.350  1.000  1.645064  106.334156  20.522522  5.249760
9907.597  9907.600  1.000  1.643206  106.293403  20.552796  5.256363
9907.856  9907.850  1.000  1.641109  106.269470  20.591313  5.263981
9908.102  9908.100  1.000  1.639373  106.282744  20.629667  5.274469
9908.361  9908.350  1.000  1.637202  106.238191  20.665831  5.283144
9908.595  9908.600  1.000  1.635571  106.241154  20.700149  5.290982
9908.845  9908.850  1.000  1.633794  106.245063  20.737718  5.300774
9909.087  9909.100  1.000  1.632231  106.219300  20.765133  5.307429
9909.346  9909.350  1.000  1.630801  106.193392  20.789770  5.313025
9909.593  9909.600  1.000  1.629476  106.182456  20.815190  5.320321
9909.852  9909.850  1.000  1.628509  106.171835  20.833249  5.325076
9910.090  9910.100  1.000  1.627726  106.155509  20.846344  5.328380
9910.349  9910.350  1.000  1.627077  106.154904  20.859762  5.332871
9910.591  9910.600  1.000  1.626690  106.132360  20.863411  5.334317
9910.846  9910.850  1.000  1.626497  106.132936  20.867557  5.333647
9911.096  9911.100  1.000  1.626253  106.164944  20.878934  5.336466
9912.201  9912.180  1.000  1.626957  106.121597  20.855728  5.329069
9913.310  9913.280  1.000  1.628009  106.072138  20.824092  5.320514
9914.420  9914.390  1.000  1.627828  106.042523  20.822047  5.321940
9915.551  9915.530  1.000  1.623998  106.004055  20.894355  5.340183
9916.695  9916.680  1.000  1.616224  105.949607  21.046615  5.378891
9917.877  9917.860  1.000  1.604642  105.915137  21.284853  5.440318
9919.077  9919.050  1.000  1.591795  105.839788  21.544739  5.508648
9920.277  9920.260  1.000  1.580211  105.770374  21.781461  5.569475
9921.503  9921.490  1.000  1.572886  105.712922  21.929685  5.608274
9922.751  9922.740  1.000  1.572154  105.665769  21.935961  5.613210
9924.024  9924.010  1.000  1.577328  105.602490  21.809683  5.583320
9925.311  9925.300  1.000  1.586837  105.529822  21.588415  5.527539
9926.619  9926.610  1.000  1.598164  105.447435  21.328586  5.461807
9927.936  9927.930  1.000  1.609137  105.375663  21.081485  5.400130
9929.283  9929.280  1.000  1.619113  105.212879  20.839977  5.339024
9930.652  9930.640  1.000  1.627141  103.469492  20.330776  5.212688
9932.047  9932.030  1.000  1.631254  103.567251  20.266450  5.191573
9933.447  9933.430  1.000  1.631534  105.206481  20.581456  5.276969
9934.860  9934.850  1.000  1.628530  105.176715  20.637551  5.293761
9936.307  9936.290  1.000  1.624220  105.140385  20.719520  5.316776
9937.755  9937.750  1.000  1.620054  105.113076  20.800620  5.341323
9939.246  9939.230  1.000  1.616052  105.061101  20.873693  5.362166
9940.759  9940.730  1.000  1.612539  105.006433  20.936250  5.383247
9942.251  9942.240  1.000  1.609700  104.959333  20.986364  5.398457
9943.791  9943.780  1.000  1.608160  104.880707  21.002968  5.406456
9945.348  9945.340  1.000  1.608402  104.784366  20.978584  5.403994
9946.935  9946.910  1.000  1.610915  104.739150  20.916913  5.392820
9948.515  9948.500  1.000  1.615555  104.708054  20.813900  5.371613
9950.125  9950.110  1.000  1.621369  104.632929  20.678391  5.341646
9951.761  9951.750  1.000  1.627037  104.532784  20.541844  5.311638
9953.419  9953.400  1.000  1.630746  104.413502  20.442443  5.293578
9955.086  9955.070  1.000  1.631184  103.957616  20.344273  5.274436
9956.750  9956.750  1.000  1.626546  101.807402  20.016107  5.195979
9958.466  9958.460  1.000  1.618002  104.052607  20.633066  5.365236
9960.212  9960.190  1.000  1.607001  104.188993  20.888641  5.440584
9961.950  9961.930  1.000  1.596590  104.126676  21.094626  5.503151
9963.711  9963.700  1.000  1.588773  104.061088  21.246767  5.554009
9965.485  9965.480  1.000  1.584270  103.965224  21.323002  5.585185
9967.298  9967.280  1.000  1.583375  103.766825  21.301359  5.589735
9969.112  9969.100  1.000  1.585423  101.944277  20.884421  5.491511
9970.952  9970.940  1.000  1.587919  102.899244  21.027504  5.534818
9972.811  9972.800  1.000  1.590348  103.868874  21.174159  5.582998
9974.700  9974.680  1.000  1.590956  103.899126  21.167447  5.584693
9976.598  9976.580  1.000  1.590854  104.118601  21.214327  5.602977
9978.506  9978.500  1.000  1.590935  104.055082  21.199673  5.604487
9980.445  9980.430  1.000  1.591989  103.960803  21.158141  5.596451
9982.410  9982.390  1.000  1.594610  103.238805  20.956197  5.547606
9984.359  9984.360  1.000  1.597923  100.279642  20.288196  5.373758
9986.365  9986.360  1.000  1.601983  103.627468  20.880587  5.535990
9988.393  9988.370  1.000  1.605718  103.606456  20.798514  5.518719
9990.414  9990.400  1.000  1.610020  103.523383  20.692634  5.495673
9992.461  9992.450  1.000  1.614317  103.408489  20.581038  5.470560
9994.531  9994.520  1.000  1.618502  103.177739  20.449341  5.438975
9996.623  9996.610  1.000  1.622436  100.602394  19.860652  5.283802
9998.724  9998.710  1.000  1.625270  103.204940  20.316762  5.406590
10000.848  10000.840  1.000  1.626356  103.251306  20.303830  5.406313
10003.013  10002.990  1.000  1.625294  103.124632  20.300485  5.407503
10005.165  10005.150  1.000  1.622977  103.007231  20.324408  5.415843
10007.331  10007.330  1.000  1.618999  102.893683  20.382926  5.434700
10009.558  10009.540  1.000  1.611515  102.165196  20.390649  5.440665
10011.774  10011.760  1.000  1.600812  100.868290  20.348434  5.432411
10014.017  10014.000  1.000  1.588995  102.555130  20.934647  5.591950
10016.273  10016.260  1.000  1.579393  102.519333  21.129261  5.648045
10018.557  10018.540  1.000  1.572817  102.435141  21.251184  5.683449
10020.842  10020.840  1.000  1.568935  102.365760  21.319390  5.702857
10023.167  10023.150  1.000  1.567008  102.296875  21.346139  5.714783
10025.511  10025.490  1.000  1.566329  102.176321  21.335468  5.715933
10027.847  10027.840  1.000  1.566967  102.043723  21.294186  5.707838
10030.227  10030.220  1.000  1.567404  101.929523  21.261067  5.703305
10032.622  10032.610  1.000  1.567262  101.806293  21.238377  5.702305
10035.027  10035.020  1.000  1.567251  101.485440  21.171685  5.691863
10037.459  10037.450  1.000  1.567651  99.893155  20.831162  5.603696
10039.923  10039.900  1.000  1.568417  101.593240  21.169463  5.703694
10042.379  10042.370  1.000  1.569385  101.495645  21.128671  5.700167
10044.880  10044.860  1.000  1.570337  101.391119  21.086820  5.695884
10047.374  10047.370  1.000  1.573298  101.281498  21.001754  5.683049
10049.899  10049.890  1.000  1.579965  101.207612  20.846981  5.650602
10052.461  10052.440  1.000  1.590807  101.125642  20.605479  5.593530
10055.007  10055.000  1.000  1.602922  101.008471  20.333762  5.529657
10057.611  10057.590  1.000  1.614516  100.914280  20.080626  5.468725
