# XDI/1.0 BlueSky/1.10.0 BMM/2023-1.0-py310-tiled
# Beamline.name: BMM (06BM) -- Beamline for Materials Measurement (NIST)
# Beamline.xray_source: NSLS-II three-pole wiggler
# Beamline.collimation: paraboloid mirror, 5 nm Rh on 30 nm Pt
# Beamline.focusing: not in use
# Beamline.harmonic_rejection: flat mirror, Pt stripe, pitch = 7.0 mrad relative to beam
# Beamline.software: Bluesky 1.10.0, Ophyd 1.7.0, DataBroker 2.0.0b13, Python 3.10.8, 2023-1.0-py310-tiled
# Detector.I0: 10 cm N2
# Detector.I1: 25 cm N2
# Detector.I2: 25 cm N2
# Element.symbol: Ta
# Element.edge: L1
# Element.reference: Ta
# Element.reference_material: Ta2O5
# Facility.name: NSLS-II
# Facility.energy: 3.0
# Facility.current: 399.9
# Facility.mode: top-off
# Facility.GUP: 301027
# Facility.SAF: 310583
# Facility.cycle: 2023-2
# Mono.name: Si(111)
# Mono.d_spacing: 3.1351860
# Mono.encoder_resolution: 0.0000050 deg/ct
# Mono.angle_offset: 16.0754326 deg
# Mono.scan_mode: pseudo channel cut
# Mono.scan_type: step
# Mono.direction: forward in energy
# Sample.name: Ta2O5
# Sample.prep: PEG pellet
# Sample.x: 109.138 mm
# Sample.y: 153.150 mm
# Sample.SDD_position: 205.000 mm
# Scan.experimenters: Bruce Ravel
# Scan.edge_energy: 11681.5
# Scan.start_time: 2023-05-28T19:08:01
# Scan.end_time: 2023-05-28T19:16:03
# Scan.transient_id: 78938
# Scan.uid: 44f7c9a6-fd67-4f65-bfdf-29df0958bcaf
# Scan.plot_hint: ln(It/Ir)  --  ln($6/$7)
# Column.1: energy eV
# Column.2: requested_energy eV
# Column.3: measurement_time seconds
# Column.4: xmu 
# Column.5: I0 nA
# Column.6: It nA
# Column.7: Ir nA
# ///////////
# sample courtesy Martin Stennett, University of Sheffield
# -----------
# energy  requested_energy  measurement_time  xmu  I0  It  Ir
  11481.482  11481.500  0.500  1.871179  69.353427  115.445950  17.771990
  11491.543  11491.500  0.500  1.868326  69.150955  115.160042  17.778621
  11501.553  11501.500  0.500  1.865419  68.987326  114.935095  17.795545
  11511.598  11511.500  0.500  1.862399  68.818626  114.695351  17.812139
  11521.499  11521.500  0.500  1.859072  68.638194  114.445965  17.832651
  11531.510  11531.500  0.500  1.855866  68.463156  114.203608  17.852029
  11541.533  11541.500  0.500  1.852731  68.263684  113.915598  17.862908
  11551.510  11551.500  0.500  1.850056  68.018768  113.551082  17.853448
  11561.522  11561.500  0.500  1.847569  67.317862  112.426241  17.720617
  11571.522  11571.500  0.500  1.844932  66.512353  111.125975  17.561907
  11581.534  11581.500  0.500  1.842044  66.429212  111.025505  17.596776
  11591.535  11591.500  0.500  1.838805  66.312662  110.880052  17.630736
  11601.553  11601.500  0.500  1.835747  66.228172  110.773913  17.667803
  11611.548  11611.500  0.500  1.832974  66.097459  110.605273  17.689905
  11621.548  11621.500  0.500  1.830473  65.882146  110.292636  17.684066
  11631.536  11631.500  0.500  1.828144  65.793069  110.181708  17.707476
  11641.536  11641.500  0.500  1.826103  65.696613  110.070617  17.725771
  11651.536  11651.500  0.500  1.823980  65.383289  109.584831  17.685035
  11653.479  11653.500  0.500  1.823622  65.501803  109.784376  17.723579
  11655.464  11655.500  0.500  1.823300  65.479048  109.757326  17.724919
  11657.473  11657.500  0.500  1.822922  65.439689  109.703967  17.723004
  11659.471  11659.500  0.500  1.822611  65.322853  109.522018  17.699119
  11661.464  11661.500  0.500  1.822369  65.247618  109.410351  17.685348
  11663.476  11663.500  0.500  1.822143  65.326266  109.546880  17.711414
  11665.494  11665.500  0.500  1.821918  65.294918  109.502924  17.708294
  11667.477  11667.500  0.500  1.821935  65.214322  109.376294  17.687516
  11669.467  11669.500  0.500  1.821988  65.111191  109.200373  17.658129
  11671.481  11671.500  0.500  1.822198  65.209572  109.373183  17.682360
  11671.759  11671.800  0.500  1.822132  65.210230  109.371961  17.683331
  11672.050  11672.100  0.500  1.822376  65.203447  109.363615  17.677676
  11672.358  11672.400  0.500  1.822265  65.200556  109.353037  17.677918
  11672.660  11672.700  0.500  1.822480  65.197328  109.355532  17.674519
  11672.957  11673.000  0.500  1.822457  65.196606  109.357338  17.675220
  11673.247  11673.300  0.500  1.822547  65.187729  109.350700  17.672559
  11673.573  11673.600  0.500  1.822655  65.184801  109.347032  17.670054
  11673.869  11673.900  0.500  1.822785  65.180044  109.337195  17.666164
  11674.172  11674.200  0.500  1.822918  65.172848  109.333635  17.663251
  11674.456  11674.500  0.500  1.822940  65.168040  109.327827  17.661929
  11674.770  11674.800  0.500  1.823130  65.169311  109.321592  17.657567
  11675.061  11675.100  0.500  1.823284  65.161845  109.315821  17.653903
  11675.369  11675.400  0.500  1.823511  65.156192  109.299315  17.647235
  11675.683  11675.700  0.500  1.823630  65.151175  109.296023  17.644612
  11675.980  11676.000  0.500  1.823860  65.147689  109.297565  17.640793
  11676.259  11676.300  0.500  1.823987  65.142009  109.284610  17.636461
  11676.567  11676.600  0.500  1.824358  65.129198  109.276505  17.628623
  11676.875  11676.900  0.500  1.824556  65.122267  109.251761  17.621130
  11677.166  11677.200  0.500  1.824908  65.090325  109.196695  17.606049
  11677.474  11677.500  0.500  1.825225  65.047861  109.128891  17.589537
  11677.777  11677.800  0.500  1.825518  65.004849  109.066777  17.574385
  11678.074  11678.100  0.500  1.825856  64.961237  109.002196  17.558045
  11678.376  11678.400  0.500  1.826304  64.931302  108.942422  17.540561
  11678.673  11678.700  0.500  1.826703  64.970805  108.988798  17.541017
  11678.957  11679.000  0.500  1.827209  65.087309  109.199732  17.566085
  11679.284  11679.300  0.500  1.827838  65.112462  109.246092  17.562491
  11679.586  11679.600  0.500  1.828735  65.148696  109.308802  17.556802
  11679.877  11679.900  0.500  1.829325  65.188074  109.376475  17.557323
  11680.180  11680.200  0.500  1.830222  65.218215  109.425476  17.549439
  11680.482  11680.500  0.500  1.831339  65.232840  109.451937  17.534080
  11680.779  11680.800  0.500  1.832237  65.239609  109.462754  17.520072
  11681.094  11681.100  0.500  1.833453  65.239221  109.465469  17.499212
  11681.402  11681.400  0.500  1.834783  65.239966  109.462555  17.475489
  11681.687  11681.700  0.500  1.836159  65.235661  109.463283  17.451581
  11682.002  11682.000  0.500  1.837718  65.235393  109.467044  17.424987
  11682.287  11682.300  0.500  1.839389  65.226794  109.459595  17.394715
  11682.595  11682.600  0.500  1.841170  65.219683  109.453856  17.362851
  11682.898  11682.900  0.500  1.842765  65.215104  109.443256  17.333509
  11683.189  11683.200  0.500  1.844401  65.211027  109.448962  17.306077
  11683.504  11683.500  0.500  1.846236  65.207235  109.420007  17.269778
  11683.801  11683.800  0.500  1.847799  65.202240  109.415817  17.242139
  11684.104  11684.100  0.500  1.849411  65.196817  109.414569  17.214178
  11684.389  11684.400  0.500  1.850841  65.191168  109.404371  17.187972
  11684.697  11684.700  0.500  1.852203  65.184582  109.396834  17.163398
  11684.988  11685.000  0.500  1.853439  65.173498  109.381705  17.139818
  11685.303  11685.300  0.500  1.854788  65.171704  109.374484  17.115580
  11685.600  11685.600  0.500  1.855867  65.163254  109.362427  17.095248
  11685.879  11685.900  0.500  1.857000  65.155089  109.349001  17.073795
  11686.188  11686.200  0.500  1.858171  65.149710  109.336790  17.051911
  11686.485  11686.500  0.500  1.859237  65.144003  109.327326  17.032258
  11686.782  11686.800  0.500  1.860174  65.140137  109.319737  17.015126
  11687.091  11687.100  0.500  1.861168  65.137344  109.320165  16.998299
  11687.388  11687.400  0.500  1.862145  65.131363  109.318311  16.981410
  11687.685  11687.700  0.500  1.862925  65.125271  109.305764  16.966215
  11687.994  11688.000  0.500  1.863792  65.120144  109.299431  16.950534
  11688.286  11688.300  0.500  1.864367  65.111250  109.282269  16.938133
  11688.601  11688.600  0.500  1.865305  65.112410  109.285647  16.922776
  11688.892  11688.900  0.500  1.866151  65.101872  109.274037  16.906669
  11689.207  11689.200  0.500  1.866962  65.098569  109.265985  16.891716
  11689.498  11689.500  0.500  1.867846  65.087903  109.262547  16.876259
  11689.807  11689.800  0.500  1.868921  65.082385  109.260346  16.857785
  11690.098  11690.100  0.500  1.870042  65.084220  109.257022  16.838392
  11690.413  11690.400  0.500  1.871360  65.073251  109.241752  16.813863
  11690.693  11690.700  0.500  1.872755  65.069099  109.234975  16.789381
  11691.008  11691.000  0.500  1.874335  65.065383  109.219800  16.760546
  11691.293  11691.300  0.500  1.876021  65.059927  109.216242  16.731763
  11691.620  11691.600  0.500  1.878029  65.052216  109.196582  16.695192
  11691.894  11691.900  0.500  1.879828  65.046624  109.196951  16.665247
  11692.197  11692.200  0.500  1.882119  65.043374  109.192082  16.626361
  11692.471  11692.500  0.500  1.884362  65.035201  109.187258  16.588376
  11692.798  11692.800  0.500  1.886949  65.026462  109.164153  16.542025
  11693.089  11693.100  0.500  1.889615  65.022286  109.158279  16.497087
  11693.381  11693.400  0.500  1.892559  65.012002  109.138522  16.445610
  11693.678  11693.700  0.500  1.895565  65.014272  109.140814  16.396591
  11693.993  11694.000  0.500  1.899174  65.003339  109.135081  16.336674
  11694.291  11694.300  0.500  1.902453  65.000009  109.120770  16.281060
  11694.588  11694.600  0.500  1.906268  64.997413  109.117767  16.218609
  11694.886  11694.900  0.500  1.910095  64.994546  109.113603  16.156050
  11695.201  11695.200  0.500  1.914331  64.983657  109.096964  16.085305
  11695.498  11695.500  0.500  1.918524  64.983193  109.089768  16.016940
  11695.796  11695.800  0.500  1.922834  64.975733  109.089710  15.948052
  11696.087  11696.100  0.500  1.927072  64.967536  109.084107  15.879797
  11696.409  11696.400  0.500  1.931851  64.963147  109.075305  15.802806
  11696.712  11696.700  0.500  1.936111  64.958244  109.074494  15.735509
  11697.010  11697.000  0.500  1.940322  64.955021  109.066016  15.668174
  11697.296  11697.300  0.500  1.944605  64.951097  109.051609  15.599148
  11697.617  11697.600  0.500  1.948834  64.945551  109.045372  15.532427
  11697.909  11697.900  0.500  1.952357  64.937055  109.037601  15.476699
  11698.200  11698.200  0.500  1.955787  64.938146  109.034045  15.423206
  11698.492  11698.500  0.500  1.958644  64.930358  109.024933  15.377917
  11698.808  11698.800  0.500  1.961719  64.927364  109.022152  15.330307
  11699.087  11699.100  0.500  1.964078  64.919329  109.007913  15.292189
  11699.391  11699.400  0.500  1.966015  64.911901  108.998027  15.261223
  11699.677  11699.700  0.500  1.967683  64.908536  108.990290  15.234697
  11699.992  11700.000  0.500  1.969037  64.905468  108.985541  15.213417
  11700.284  11700.300  0.500  1.969838  64.888101  108.971576  15.199290
  11700.588  11700.600  0.500  1.970467  64.886407  108.953607  15.187233
  11700.886  11700.900  0.500  1.970832  64.874279  108.939883  15.179781
  11701.201  11701.200  0.500  1.970985  64.854604  108.902991  15.172315
  11701.505  11701.500  0.500  1.970872  64.812868  108.833559  15.164356
  11701.803  11701.800  0.500  1.970700  64.750957  108.726305  15.152017
  11702.101  11702.100  0.500  1.970622  64.668786  108.591972  15.134478
  11702.404  11702.400  0.500  1.970216  64.584856  108.460631  15.122306
  11702.702  11702.700  0.500  1.970166  64.517829  108.353749  15.108163
  11703.000  11703.000  0.500  1.969913  64.479840  108.287754  15.102779
  11703.298  11703.300  0.500  1.969764  64.471848  108.267492  15.102215
  11703.608  11703.600  0.500  1.969837  64.498759  108.317989  15.108144
  11703.912  11703.900  0.500  1.969774  64.542774  108.391477  15.119345
  11704.198  11704.200  0.500  1.970045  64.610490  108.521827  15.133439
  11704.490  11704.500  0.500  1.970264  64.677527  108.633853  15.145742
  11704.806  11704.800  0.500  1.970547  64.737281  108.733071  15.155278
  11705.104  11705.100  0.500  1.970739  64.763209  108.776510  15.158422
  11705.390  11705.400  0.500  1.970982  64.776332  108.793826  15.157157
  11705.688  11705.700  0.500  1.971243  64.780137  108.805278  15.154800
  11705.980  11706.000  0.500  1.971458  64.784141  108.811789  15.152448
  11706.296  11706.300  0.500  1.971452  64.779886  108.814383  15.152895
  11706.481  11706.500  0.500  1.971526  64.780203  108.807221  15.150781
  11707.476  11707.490  0.500  1.971059  64.768980  108.795143  15.156166
  11708.478  11708.490  0.500  1.969755  64.757828  108.775511  15.173209
  11709.516  11709.510  0.500  1.968367  64.734353  108.747935  15.190426
  11710.679  11710.560  0.500  1.967227  64.711320  108.711509  15.202667
  11711.562  11711.620  0.500  1.967263  64.688253  108.681565  15.197930
  11712.767  11712.700  0.500  1.968228  64.662273  108.642695  15.177846
  11713.794  11713.800  0.500  1.969243  64.640302  108.603011  15.156896
  11714.928  11714.920  0.500  1.970054  64.621128  108.576610  15.140933
  11716.050  11716.060  0.500  1.970156  64.609270  108.554557  15.136316
  11717.197  11717.210  0.500  1.968699  64.587969  108.533168  15.155393
  11718.368  11718.390  0.500  1.966084  64.570723  108.510705  15.191936
  11719.575  11719.580  0.500  1.961960  64.553637  108.488837  15.251645
  11720.788  11720.800  0.500  1.957123  64.533973  108.461226  15.321696
  11722.049  11722.030  0.500  1.951714  64.514987  108.425386  15.399705
  11723.268  11723.280  0.500  1.946586  64.494055  108.403640  15.475768
  11724.548  11724.550  0.500  1.941910  64.475094  108.374210  15.544083
  11725.822  11725.840  0.500  1.937413  64.460135  108.347361  15.610274
  11727.132  11727.150  0.500  1.933614  64.436739  108.324862  15.666439
  11728.478  11728.480  0.500  1.930246  64.415395  108.286691  15.713751
  11729.825  11729.830  0.500  1.927954  64.392439  108.259100  15.745789
  11731.207  11731.200  0.500  1.926310  64.375222  108.231722  15.767711
  11732.596  11732.580  0.500  1.924959  64.346361  108.188460  15.782725
  11733.998  11733.990  0.500  1.924318  64.197962  107.942639  15.756953
  11735.418  11735.410  0.500  1.923791  64.061442  107.720172  15.732776
  11736.862  11736.850  0.500  1.923216  64.241149  108.029621  15.787047
  11738.288  11738.310  0.500  1.922648  64.253545  108.062251  15.800785
  11739.781  11739.790  0.500  1.921968  64.230622  108.031285  15.807006
  11741.286  11741.290  0.500  1.921319  64.218815  108.010340  15.814193
  11742.816  11742.810  0.500  1.920964  64.193036  107.975525  15.814714
  11744.358  11744.350  0.500  1.920728  64.161762  107.928302  15.811518
  11745.918  11745.910  0.500  1.920735  63.988529  107.640728  15.769291
  11747.491  11747.480  0.500  1.920973  63.930551  107.555199  15.753006
  11749.082  11749.080  0.500  1.921099  64.084289  107.805727  15.787711
  11750.673  11750.690  0.500  1.921406  64.072411  107.791680  15.780800
  11752.338  11752.330  0.500  1.921982  64.049023  107.773079  15.768991
  11754.002  11753.980  0.500  1.922486  64.024153  107.742033  15.756506
  11755.668  11755.650  0.500  1.922917  63.980013  107.666252  15.738641
  11757.351  11757.340  0.500  1.923243  63.744018  107.276378  15.676543
  11759.059  11759.050  0.500  1.923489  63.888775  107.525874  15.709138
  11760.774  11760.780  0.500  1.923848  64.120270  107.917814  15.760735
  11762.526  11762.530  0.500  1.924274  64.108654  107.917495  15.753978
  11764.289  11764.290  0.500  1.925007  64.101458  107.907523  15.740979
  11766.090  11766.080  0.500  1.925781  64.085314  107.886185  15.725697
  11767.873  11767.880  0.500  1.926707  64.057049  107.840749  15.704526
  11769.717  11769.710  0.500  1.927726  63.809059  107.432184  15.629095
  11771.550  11771.550  0.500  1.928342  63.939478  107.655551  15.651937
  11773.401  11773.410  0.500  1.929176  63.981084  107.732158  15.650018
  11775.289  11775.290  0.500  1.929687  63.933966  107.668794  15.632821
  11777.201  11777.190  0.500  1.930024  63.580695  107.083926  15.542667
  11779.133  11779.110  0.500  1.929820  63.852636  107.544065  15.612632
  11781.071  11781.050  0.500  1.929004  63.866913  107.584674  15.631285
  11783.022  11783.010  0.500  1.927736  63.843561  107.541550  15.644841
  11784.985  11784.980  0.500  1.926189  63.820714  107.517485  15.665561
  11786.973  11786.980  0.500  1.924407  63.793590  107.471307  15.686751
  11788.999  11788.990  0.500  1.922905  63.762824  107.432270  15.704628
  11791.013  11791.020  0.500  1.921491  63.731893  107.394122  15.721272
  11793.082  11793.080  0.500  1.920145  63.699715  107.346174  15.735419
  11795.146  11795.150  0.500  1.918816  63.670002  107.304785  15.750258
  11797.228  11797.240  0.500  1.917726  63.633173  107.251352  15.759584
  11799.342  11799.350  0.500  1.916451  63.601530  107.197032  15.771702
  11801.481  11801.480  0.500  1.915251  63.562399  107.146274  15.783168
  11803.639  11803.620  0.500  1.914198  63.454366  106.977507  15.774908
  11805.791  11805.790  0.500  1.913228  63.202115  106.553440  15.727628
  11807.981  11807.980  0.500  1.912136  63.444131  106.973294  15.806846
  11810.183  11810.180  0.500  1.911314  63.413807  106.933745  15.814003
  11812.423  11812.400  0.500  1.910283  63.381599  106.881573  15.822581
  11814.658  11814.650  0.500  1.909504  63.345029  106.817494  15.825428
  11816.924  11816.910  0.500  1.908713  63.306746  106.774494  15.831563
  11819.215  11819.190  0.500  1.907791  63.270422  106.727162  15.839155
  11821.507  11821.490  0.500  1.907410  63.237175  106.680192  15.838218
  11823.818  11823.810  0.500  1.906636  63.199628  106.630572  15.843097
  11826.148  11826.150  0.500  1.905870  63.167428  106.572538  15.846618
  11828.516  11828.500  0.500  1.905170  63.097261  106.462494  15.841335
  11830.891  11830.880  0.500  1.904585  62.808724  105.997520  15.781381
  11833.267  11833.270  0.500  1.903814  63.062018  106.422198  15.856826
  11835.680  11835.690  0.500  1.902797  63.038078  106.397743  15.869322
  11838.131  11838.120  0.500  1.902128  63.010271  106.362927  15.874734
  11840.601  11840.570  0.500  1.901171  62.974724  106.305482  15.881350
  11843.048  11843.050  0.500  1.900666  62.942696  106.266222  15.883504
  11845.545  11845.540  0.500  1.899820  62.900627  106.204212  15.887679
  11848.061  11848.050  0.500  1.899445  62.683748  105.845530  15.839959
  11850.578  11850.570  0.500  1.898675  62.827310  106.096449  15.889744
  11853.133  11853.120  0.500  1.898305  62.784278  106.039065  15.887028
  11855.708  11855.690  0.500  1.898147  62.562603  105.675647  15.835072
  11858.296  11858.270  0.500  1.897648  62.558651  105.673994  15.842738
  11860.897  11860.880  0.500  1.897363  62.545337  105.657327  15.844746
  11863.505  11863.500  0.500  1.896970  62.529102  105.650091  15.849886
  11866.158  11866.150  0.500  1.896578  62.597015  105.765438  15.873417
  11868.830  11868.810  0.500  1.895937  62.549533  105.701402  15.873976
  11871.498  11871.490  0.500  1.895044  62.403204  105.464557  15.852561
  11874.197  11874.190  0.500  1.894208  62.481116  105.612629  15.888089
  11876.928  11876.910  0.500  1.893367  62.439039  105.547371  15.891635
  11879.666  11879.650  0.500  1.892300  62.389657  105.475347  15.897746
  11882.394  11882.400  0.500  1.891412  62.331894  105.387771  15.898662
  11885.184  11885.180  0.500  1.890397  61.613883  104.187072  15.733476
  11887.976  11887.970  0.500  1.889320  62.225200  105.228097  15.907811
  11890.793  11890.790  0.500  1.888287  62.210467  105.211186  15.921693
  11893.637  11893.620  0.500  1.887256  62.170085  105.154279  15.929499
  11896.482  11896.470  0.500  1.886187  62.120407  105.085293  15.936075
  11899.371  11899.350  0.500  1.885182  62.051516  104.971330  15.934794
  11902.249  11902.240  0.500  1.884140  61.404145  103.891362  15.787304
