# XDI/1.0 BlueSky/1.10.0 BMM/2023-1.0-py310-tiled
# Beamline.name: BMM (06BM) -- Beamline for Materials Measurement (NIST)
# Beamline.xray_source: NSLS-II three-pole wiggler
# Beamline.collimation: paraboloid mirror, 5 nm Rh on 30 nm Pt
# Beamline.focusing: not in use
# Beamline.harmonic_rejection: flat mirror, Pt stripe, pitch = 7.0 mrad relative to beam
# Beamline.software: Bluesky 1.10.0, Ophyd 1.7.0, DataBroker 2.0.0b13, Python 3.10.8, 2023-1.0-py310-tiled
# Detector.I0: 10 cm N2
# Detector.I1: 25 cm N2
# Detector.I2: 25 cm N2
# Element.symbol: Mo
# Element.edge: K
# Element.reference: Mo
# Element.reference_material: Mo foil
# Facility.name: NSLS-II
# Facility.energy: 3.0
# Facility.current: 399.9
# Facility.mode: top-off
# Facility.GUP: 301027
# Facility.SAF: 310583
# Facility.cycle: 2023-2
# Mono.name: Si(111)
# Mono.d_spacing: 3.1351860
# Mono.encoder_resolution: 0.0000050 deg/ct
# Mono.angle_offset: 16.0754326 deg
# Mono.scan_mode: pseudo channel cut
# Mono.scan_type: step
# Mono.direction: forward in energy
# Sample.name: MoO3
# Sample.prep: powder in PEG pellet
# Sample.x: 117.785 mm
# Sample.y: 114.695 mm
# Sample.SDD_position: 205.000 mm
# Scan.experimenters: Bruce Ravel
# Scan.edge_energy: 19999.5
# Scan.start_time: 2023-06-23T20:58:22
# Scan.end_time: 2023-06-23T21:05:48
# Scan.transient_id: 85028
# Scan.uid: 8b68f990-eea7-4e4f-95c1-113e12e6abe0
# Scan.plot_hint: ln(I0/It)  --  ln($5/$6)
# Column.1: energy eV
# Column.2: requested_energy eV
# Column.3: measurement_time seconds
# Column.4: xmu 
# Column.5: I0 nA
# Column.6: It nA
# Column.7: Ir nA
# ///////////
# sample courtesy Martin Stennett, University of Sheffield
# -----------
# energy  requested_energy  measurement_time  xmu  I0  It  Ir
  19799.565  19799.500  0.500  -0.351126  7.646903  10.863693  8.346995
  19809.555  19809.500  0.500  -0.351260  7.626852  10.836670  8.326719
  19819.607  19819.500  0.500  -0.351879  7.600879  10.806448  8.304151
  19829.600  19829.500  0.500  -0.351858  7.577790  10.773397  8.285340
  19839.620  19839.500  0.500  -0.352624  7.551485  10.744227  8.260371
  19849.599  19849.500  0.500  -0.352641  7.525059  10.706803  8.233936
  19859.570  19859.500  0.500  -0.352899  7.500419  10.674506  8.211312
  19869.586  19869.500  0.500  -0.352845  7.476864  10.640402  8.187444
  19879.612  19879.500  0.500  -0.353098  7.450840  10.606049  8.160664
  19889.579  19889.500  0.500  -0.353396  7.347570  10.462170  8.048374
  19899.609  19899.500  0.500  -0.353261  7.401112  10.536987  8.105860
  19909.526  19909.500  0.500  -0.353273  7.374528  10.499256  8.075057
  19919.558  19919.500  0.500  -0.353193  7.349509  10.462806  8.044199
  19929.530  19929.500  0.500  -0.352430  7.325591  10.420804  8.008926
  19939.617  19939.500  0.500  -0.352221  7.293521  10.373008  7.963051
  19949.628  19949.500  0.500  -0.350975  7.273482  10.331635  7.923505
  19959.525  19959.500  0.500  -0.350136  7.246461  10.284613  7.870554
  19969.520  19969.500  0.500  -0.347474  7.223505  10.224779  7.800222
  19971.464  19971.500  0.500  -0.346720  7.218247  10.209638  7.784492
  19973.427  19973.500  0.500  -0.345910  7.213434  10.194572  7.764123
  19975.442  19975.500  0.500  -0.345371  7.206087  10.178696  7.744857
  19977.439  19977.500  0.500  -0.344356  7.201433  10.161807  7.722578
  19979.438  19979.500  0.500  -0.343390  7.196815  10.145487  7.696898
  19981.454  19981.500  0.500  -0.342038  7.190698  10.123164  7.672197
  19983.453  19983.500  0.500  -0.340718  7.186071  10.103309  7.642085
  19985.453  19985.500  0.500  -0.339243  7.180368  10.080408  7.609307
  19987.418  19987.500  0.500  -0.337469  7.175500  10.055717  7.571543
  19989.418  19989.500  0.500  -0.335323  7.171194  10.028140  7.522908
  19989.681  19989.800  0.500  -0.334816  7.170635  10.022272  7.516629
  19989.979  19990.100  0.500  -0.334570  7.170159  10.019147  7.509022
  19990.260  19990.400  0.500  -0.334044  7.169101  10.012396  7.500105
  19990.576  19990.700  0.500  -0.333791  7.168060  10.008410  7.492727
  19990.892  19991.000  0.500  -0.333776  7.164423  10.003190  7.484466
  19991.208  19991.300  0.500  -0.333141  7.164459  9.996889  7.474119
  19991.541  19991.600  0.500  -0.332789  7.164361  9.993227  7.465150
  19991.840  19991.900  0.500  -0.332318  7.163484  9.987305  7.456502
  19992.103  19992.200  0.500  -0.331943  7.162442  9.982107  7.447281
  19992.384  19992.500  0.500  -0.331477  7.159940  9.973965  7.436839
  19992.682  19992.800  0.500  -0.331067  7.158916  9.968455  7.425262
  19992.998  19993.100  0.500  -0.330286  7.159280  9.961176  7.413815
  19993.297  19993.400  0.500  -0.330069  7.157502  9.956542  7.404463
  19993.630  19993.700  0.500  -0.329655  7.155539  9.949689  7.394828
  19993.929  19994.000  0.500  -0.328589  7.157577  9.941920  7.381265
  19994.245  19994.300  0.500  -0.328287  7.155038  9.935393  7.369663
  19994.543  19994.600  0.500  -0.327632  7.154395  9.927995  7.358419
  19994.859  19994.900  0.500  -0.327024  7.153165  9.920254  7.346187
  19995.158  19995.200  0.500  -0.326368  7.153637  9.914409  7.330870
  19995.421  19995.500  0.500  -0.325954  7.151742  9.907675  7.319377
  19995.737  19995.800  0.500  -0.324825  7.152967  9.898196  7.305344
  19996.053  19996.100  0.500  -0.324523  7.150068  9.891193  7.291289
  19996.352  19996.400  0.500  -0.323944  7.148143  9.882806  7.274399
  19996.668  19996.700  0.500  -0.322866  7.149626  9.874205  7.259177
  19996.967  19997.000  0.500  -0.321993  7.149113  9.864879  7.242182
  19997.265  19997.300  0.500  -0.321493  7.145215  9.854572  7.223734
  19997.581  19997.600  0.500  -0.320649  7.144854  9.845763  7.206270
  19997.880  19997.900  0.500  -0.319834  7.144087  9.836686  7.187015
  19998.161  19998.200  0.500  -0.319125  7.143632  9.829093  7.167655
  19998.442  19998.500  0.500  -0.317982  7.143557  9.817760  7.148590
  19998.740  19998.800  0.500  -0.317090  7.141298  9.805901  7.128425
  19999.057  19999.100  0.500  -0.316062  7.167690  9.832034  7.129560
  19999.355  19999.400  0.500  -0.314905  7.166370  9.818858  7.105092
  19999.671  19999.700  0.500  -0.313825  7.164657  9.805910  7.077040
  20000.005  20000.000  0.500  -0.312485  7.163707  9.791483  7.048477
  20000.304  20000.300  0.500  -0.310984  7.161814  9.774214  7.013876
  20000.638  20000.600  0.500  -0.309834  7.161201  9.762137  6.982886
  20000.901  20000.900  0.500  -0.308241  7.161696  9.747275  6.947888
  20001.200  20001.200  0.500  -0.306904  7.160194  9.732210  6.912144
  20001.499  20001.500  0.500  -0.305262  7.160566  9.716749  6.874040
  20001.780  20001.800  0.500  -0.303784  7.157638  9.698429  6.833983
  20002.078  20002.100  0.500  -0.302038  7.157107  9.680793  6.788109
  20002.412  20002.400  0.500  -0.299890  7.156633  9.659381  6.732975
  20002.693  20002.700  0.500  -0.297542  7.156502  9.636549  6.677464
  20003.010  20003.000  0.500  -0.295532  7.153705  9.613447  6.615101
  20003.326  20003.300  0.500  -0.292714  7.152709  9.585057  6.544861
  20003.642  20003.600  0.500  -0.290048  7.151743  9.558242  6.472644
  20003.906  20003.900  0.500  -0.287027  7.151558  9.529170  6.396335
  20004.205  20004.200  0.500  -0.284311  7.150548  9.501980  6.317922
  20004.468  20004.500  0.500  -0.280543  7.151030  9.466878  6.228637
  20004.820  20004.800  0.500  -0.277055  7.148497  9.430577  6.134699
  20005.101  20005.100  0.500  -0.272627  7.147974  9.388224  6.028128
  20005.400  20005.400  0.500  -0.268079  7.146615  9.343849  5.917188
  20005.699  20005.700  0.500  -0.263060  7.146278  9.296631  5.805698
  20006.033  20006.000  0.500  -0.257275  7.145334  9.241779  5.681391
  20006.331  20006.300  0.500  -0.251024  7.143748  9.182151  5.557969
  20006.630  20006.600  0.500  -0.243996  7.141801  9.115360  5.428481
  20006.947  20006.900  0.500  -0.236599  7.142909  9.049584  5.304479
  20007.210  20007.200  0.500  -0.228476  7.139980  8.972695  5.175261
  20007.509  20007.500  0.500  -0.219912  7.139401  8.895457  5.049751
  20007.773  20007.800  0.500  -0.210084  7.137620  8.806268  4.919065
  20008.089  20008.100  0.500  -0.198938  7.137138  8.708063  4.784413
  20008.406  20008.400  0.500  -0.186430  7.135355  8.597675  4.643772
  20008.705  20008.700  0.500  -0.173453  7.136026  8.487627  4.511684
  20009.004  20009.000  0.500  -0.159323  7.133968  8.366124  4.376264
  20009.355  20009.300  0.500  -0.143730  7.132121  8.234548  4.237878
  20009.619  20009.600  0.500  -0.128335  7.131692  8.108261  4.113399
  20009.883  20009.900  0.500  -0.112935  7.132285  7.985012  3.994754
  20010.199  20010.200  0.500  -0.097517  7.130205  7.860554  3.880099
  20010.516  20010.500  0.500  -0.079729  7.129977  7.721721  3.757202
  20010.780  20010.800  0.500  -0.062154  7.126862  7.583882  3.636063
  20011.096  20011.100  0.500  -0.043352  7.127223  7.442994  3.514703
  20011.395  20011.400  0.500  -0.024949  7.125267  7.305273  3.397247
  20011.729  20011.700  0.500  -0.007308  7.125308  7.177568  3.287321
  20012.046  20012.000  0.500  0.008803  7.123743  7.061311  3.184231
  20012.345  20012.300  0.500  0.023317  7.123708  6.959525  3.090555
  20012.626  20012.600  0.500  0.036238  7.122069  6.868600  3.004661
  20012.925  20012.900  0.500  0.046559  7.122000  6.798005  2.931779
  20013.189  20013.200  0.500  0.055531  7.121222  6.736549  2.859109
  20013.488  20013.500  0.500  0.062341  7.120462  6.690119  2.798029
  20013.805  20013.800  0.500  0.067023  7.119365  6.657846  2.741400
  20014.104  20014.100  0.500  0.069920  7.118571  6.637843  2.687762
  20014.403  20014.400  0.500  0.070240  7.116269  6.633571  2.642228
  20014.685  20014.700  0.500  0.069456  7.116157  6.638672  2.601155
  20015.001  20015.000  0.500  0.066608  7.114334  6.655901  2.565067
  20015.353  20015.300  0.500  0.062464  7.112749  6.682052  2.527740
  20015.600  20015.600  0.500  0.058365  7.112950  6.709686  2.495289
  20015.916  20015.900  0.500  0.053705  7.111248  6.739415  2.464724
  20016.180  20016.200  0.500  0.049393  7.109956  6.767308  2.432389
  20016.497  20016.500  0.500  0.044867  7.109599  6.797662  2.399593
  20016.761  20016.800  0.500  0.041351  7.108081  6.820151  2.362207
  20017.095  20017.100  0.500  0.038140  7.105581  6.839680  2.323151
  20017.394  20017.400  0.500  0.036273  7.104800  6.851709  2.278727
  20017.694  20017.700  0.500  0.035769  7.103814  6.854207  2.231062
  20018.010  20018.000  0.500  0.037044  7.102508  6.844213  2.179374
  20018.309  20018.300  0.500  0.039759  7.102471  6.825627  2.128946
  20018.626  20018.600  0.500  0.043757  7.100264  6.796277  2.077320
  20018.908  20018.900  0.500  0.049364  7.098277  6.756388  2.021972
  20019.207  20019.200  0.500  0.056218  7.097525  6.709526  1.969351
  20019.489  20019.500  0.500  0.064673  7.097610  6.653115  1.914625
  20019.788  20019.800  0.500  0.074745  7.094427  6.583487  1.858100
  20020.070  20020.100  0.500  0.086468  7.094476  6.506805  1.802503
  20020.369  20020.400  0.500  0.099476  7.092743  6.421142  1.748012
  20020.668  20020.700  0.500  0.114450  7.091496  6.324595  1.691392
  20020.985  20021.000  0.500  0.130010  7.091257  6.226737  1.640739
  20021.302  20021.300  0.500  0.147828  7.091239  6.116758  1.586992
  20021.566  20021.600  0.500  0.165040  7.089084  6.010548  1.541171
  20021.883  20021.900  0.500  0.182901  7.088896  5.903990  1.496769
  20022.164  20022.200  0.500  0.202153  7.087240  5.790065  1.454912
  20022.446  20022.500  0.500  0.221381  7.087320  5.679861  1.416606
  20022.746  20022.800  0.500  0.242183  7.085910  5.561819  1.378420
  20023.045  20023.100  0.500  0.264307  7.085648  5.439921  1.342361
  20023.397  20023.400  0.500  0.286770  7.084442  5.318182  1.307746
  20023.679  20023.700  0.500  0.307511  7.083003  5.207952  1.280098
  20023.996  20024.000  0.500  0.328545  7.081005  5.098112  1.253660
  20024.313  20024.300  0.500  0.349860  7.081188  4.990729  1.229015
  20024.506  20024.500  0.500  0.362425  7.081752  4.928806  1.216775
  20025.457  20025.490  0.500  0.424455  7.080240  4.631372  1.162675
  20026.479  20026.490  0.500  0.475310  7.075572  4.398831  1.129273
  20027.501  20027.510  0.500  0.514294  7.074568  4.230043  1.108951
  20028.558  20028.560  0.500  0.540068  7.071469  4.120607  1.093877
  20029.650  20029.620  0.500  0.559271  7.070208  4.041510  1.074508
  20030.707  20030.700  0.500  0.573419  7.067859  3.983413  1.051840
  20031.800  20031.800  0.500  0.584939  7.064430  3.935876  1.027975
  20032.945  20032.920  0.500  0.594665  7.063454  3.897242  1.006501
  20034.073  20034.060  0.500  0.599054  7.061590  3.879149  0.992657
  20035.237  20035.210  0.500  0.598496  7.058205  3.879455  0.988476
  20036.436  20036.390  0.500  0.592045  7.055376  3.903000  0.993268
  20037.617  20037.580  0.500  0.583795  7.052963  3.933986  1.001457
  20038.834  20038.800  0.500  0.575749  7.049683  3.963920  1.007514
  20040.033  20040.030  0.500  0.572258  7.048169  3.976927  1.005611
  20041.339  20041.280  0.500  0.573551  7.041117  3.967817  0.994416
  20042.609  20042.550  0.500  0.579774  7.038935  3.941978  0.975901
  20043.879  20043.840  0.500  0.587583  7.035161  3.909217  0.953742
  20045.203  20045.150  0.500  0.594248  7.030820  3.880855  0.932715
  20046.509  20046.480  0.500  0.597004  7.028573  3.868937  0.915457
  20047.885  20047.830  0.500  0.596849  7.024741  3.867426  0.899498
  20049.209  20049.200  0.500  0.594259  7.021141  3.875469  0.888764
  20050.622  20050.580  0.500  0.590617  7.016506  3.887043  0.882646
  20051.999  20051.990  0.500  0.588201  7.014085  3.895100  0.885514
  20053.429  20053.410  0.500  0.586290  7.009703  3.900114  0.898445
  20054.825  20054.850  0.500  0.585931  7.006627  3.899800  0.919714
  20056.273  20056.310  0.500  0.586276  7.002760  3.896304  0.944076
  20057.740  20057.790  0.500  0.587025  7.000463  3.892110  0.968709
  20059.277  20059.290  0.500  0.587664  6.997055  3.887729  0.988148
  20060.815  20060.810  0.500  0.587586  6.992743  3.885636  1.000730
  20062.370  20062.350  0.500  0.584568  6.988564  3.895054  1.009687
  20063.979  20063.910  0.500  0.579580  6.984203  3.912087  1.014403
  20065.500  20065.480  0.500  0.571663  6.979455  3.940500  1.015585
  20067.091  20067.080  0.500  0.562168  6.976177  3.976227  1.016857
  20068.701  20068.690  0.500  0.551718  6.971663  4.015397  1.019094
  20070.364  20070.330  0.500  0.540478  6.968283  4.058813  1.023211
  20072.027  20071.980  0.500  0.528693  6.963740  4.104254  1.031708
  20073.672  20073.650  0.500  0.518705  6.955937  4.140806  1.043314
  20075.318  20075.340  0.500  0.510478  6.954391  4.174087  1.056166
  20077.036  20077.050  0.500  0.504083  6.951189  4.198928  1.069543
  20078.753  20078.780  0.500  0.500400  6.944161  4.210161  1.078686
  20080.541  20080.530  0.500  0.500635  6.942016  4.207871  1.084584
  20082.295  20082.290  0.500  0.502447  6.938259  4.197981  1.085799
  20084.102  20084.080  0.500  0.505332  6.931894  4.182048  1.080668
  20085.891  20085.880  0.500  0.509443  6.928492  4.162845  1.068798
  20087.752  20087.710  0.500  0.513413  6.922669  4.142869  1.049839
  20089.613  20089.550  0.500  0.516774  6.918313  4.126369  1.028595
  20091.439  20091.410  0.500  0.518301  6.913816  4.117395  1.009535
  20093.318  20093.290  0.500  0.517515  6.909190  4.117877  0.997605
  20095.198  20095.190  0.500  0.514679  6.903596  4.126228  0.996882
  20097.114  20097.110  0.500  0.510995  6.897667  4.137897  1.006609
  20099.065  20099.050  0.500  0.507151  6.894195  4.151747  1.025138
  20101.017  20101.010  0.500  0.503578  6.888630  4.163243  1.047655
  20103.005  20102.980  0.500  0.501527  6.884252  4.169141  1.068180
  20104.993  20104.980  0.500  0.500137  6.878113  4.171215  1.082598
  20106.999  20106.990  0.500  0.500013  6.874213  4.169366  1.088592
  20109.041  20109.020  0.500  0.500811  6.869174  4.162989  1.086553
  20111.102  20111.080  0.500  0.502148  6.863333  4.153890  1.080361
  20113.163  20113.150  0.500  0.504256  6.859393  4.142765  1.072862
  20115.242  20115.240  0.500  0.506531  6.853580  4.129847  1.066412
  20117.374  20117.350  0.500  0.509290  6.848570  4.115457  1.061052
  20119.543  20119.480  0.500  0.512712  6.844145  4.098747  1.056350
  20121.677  20121.620  0.500  0.515564  6.836563  4.082549  1.051096
  20123.811  20123.790  0.500  0.518900  6.831868  4.066158  1.043494
  20126.035  20125.980  0.500  0.521998  6.826560  4.050429  1.035234
  20128.170  20128.180  0.500  0.524847  6.821269  4.035774  1.023618
  20130.448  20130.400  0.500  0.527435  6.815398  4.021879  1.011605
  20132.673  20132.650  0.500  0.529352  6.808509  4.010122  0.999064
  20134.951  20134.910  0.500  0.529988  6.803268  4.004485  0.992273
  20137.249  20137.190  0.500  0.529760  6.797777  4.002165  0.990964
  20139.564  20139.490  0.500  0.527286  6.791682  4.008481  0.998196
  20141.827  20141.810  0.500  0.524456  6.785691  4.016297  1.008937
  20144.215  20144.150  0.500  0.520519  6.781148  4.029439  1.024575
  20146.532  20146.500  0.500  0.516406  6.774884  4.042311  1.040740
  20148.886  20148.880  0.500  0.512888  6.768853  4.052946  1.058982
  20151.240  20151.270  0.500  0.510788  6.763348  4.058162  1.073864
  20153.665  20153.690  0.500  0.509768  6.757347  4.058699  1.084831
  20156.092  20156.120  0.500  0.509505  6.751020  4.055966  1.089093
  20158.555  20158.570  0.500  0.509571  6.743320  4.051072  1.090676
  20161.072  20161.050  0.500  0.509918  6.738705  4.046896  1.092435
  20163.571  20163.540  0.500  0.509463  6.731148  4.044195  1.093047
  20166.107  20166.050  0.500  0.508563  6.726239  4.044886  1.091097
  20168.626  20168.570  0.500  0.507527  6.719621  4.045095  1.086070
  20171.181  20171.120  0.500  0.506273  6.712659  4.045975  1.079512
  20173.701  20173.690  0.500  0.505134  6.706223  4.046700  1.072537
  20176.276  20176.270  0.500  0.504273  6.700406  4.046674  1.068789
  20178.851  20178.880  0.500  0.503389  6.692782  4.045642  1.065234
  20181.462  20181.500  0.500  0.501797  6.686299  4.048163  1.065114
  20184.164  20184.150  0.500  0.499653  6.680184  4.053142  1.067375
  20186.848  20186.810  0.500  0.497445  6.671313  4.056706  1.069066
  20189.551  20189.490  0.500  0.495667  6.662811  4.058748  1.064369
  20192.237  20192.190  0.500  0.493645  6.657552  4.063752  1.052465
  20194.942  20194.910  0.500  0.491797  6.652998  4.068484  1.036840
  20197.683  20197.650  0.500  0.490960  6.646924  4.068175  1.020340
  20200.371  20200.400  0.500  0.489851  6.651501  4.075491  1.012456
  20203.221  20203.180  0.500  0.489075  6.656592  4.081776  1.011977
  20205.946  20205.970  0.500  0.487753  6.648518  4.082219  1.020335
  20208.798  20208.790  0.500  0.486333  6.639032  4.082187  1.037302
  20211.686  20211.620  0.500  0.485903  6.634306  4.081037  1.061253
  20214.540  20214.470  0.500  0.485369  6.627082  4.078770  1.089238
  20217.394  20217.350  0.500  0.485590  6.618045  4.072307  1.117314
  20220.267  20220.240  0.500  0.486368  6.610096  4.064252  1.140132
  20223.212  20223.150  0.500  0.487312  6.604240  4.056821  1.153665
  20226.087  20226.070  0.500  0.488272  6.596991  4.048482  1.151780
  20229.016  20229.020  0.500  0.489444  6.590919  4.040015  1.142303
  20232.000  20231.990  0.500  0.489153  6.583239  4.036483  1.129645
  20235.021  20234.970  0.500  0.488171  6.576438  4.036276  1.123209
  20238.007  20237.980  0.500  0.485875  6.567029  4.039766  1.121401
  20241.066  20241.000  0.500  0.483687  6.558604  4.043418  1.120631
  20244.089  20244.050  0.500  0.481442  6.551214  4.047942  1.116974
  20247.150  20247.110  0.500  0.479620  6.541238  4.049149  1.109312
  20250.229  20250.190  0.500  0.477618  6.536495  4.054321  1.099483
  20253.274  20253.290  0.500  0.476022  6.530332  4.056969  1.088286
  20256.463  20256.410  0.500  0.474095  6.521010  4.058989  1.076281
