# XDI/1.0 BlueSky/1.10.0 BMM/2023-1.0-py310-tiled
# Beamline.name: BMM (06BM) -- Beamline for Materials Measurement (NIST)
# Beamline.xray_source: NSLS-II three-pole wiggler
# Beamline.collimation: paraboloid mirror, 5 nm Rh on 30 nm Pt
# Beamline.focusing: not in use
# Beamline.harmonic_rejection: flat mirror, Pt stripe, pitch = 7.0 mrad relative to beam
# Beamline.software: Bluesky 1.10.0, Ophyd 1.7.0, DataBroker 2.0.0b13, Python 3.10.8, 2023-1.0-py310-tiled
# Detector.I0: 10 cm N2
# Detector.I1: 25 cm N2
# Detector.I2: 25 cm N2
# Element.symbol: Mo
# Element.edge: K
# Element.reference: Mo
# Element.reference_material: Mo foil
# Facility.name: NSLS-II
# Facility.energy: 3.0
# Facility.current: 400.2
# Facility.mode: top-off
# Facility.GUP: 301027
# Facility.SAF: 310583
# Facility.cycle: 2023-2
# Mono.name: Si(111)
# Mono.d_spacing: 3.1351860
# Mono.encoder_resolution: 0.0000050 deg/ct
# Mono.angle_offset: 16.0754326 deg
# Mono.scan_mode: pseudo channel cut
# Mono.scan_type: step
# Mono.direction: forward in energy
# Sample.name: Mo foil
# Sample.prep: reference foil
# Sample.x: 109.138 mm
# Sample.y: 153.150 mm
# Sample.SDD_position: 205.000 mm
# Scan.experimenters: Bruce Ravel
# Scan.edge_energy: 19999.5
# Scan.start_time: 2023-05-28T22:39:28
# Scan.end_time: 2023-05-28T22:46:53
# Scan.transient_id: 79078
# Scan.uid: 1e5cfc4a-a739-4433-bf42-e1fb60af53aa
# Scan.plot_hint: ln(It/Ir)  --  ln($6/$7)
# Column.1: energy eV
# Column.2: requested_energy eV
# Column.3: measurement_time seconds
# Column.4: xmu 
# Column.5: I0 nA
# Column.6: It nA
# Column.7: Ir nA
# ///////////
# standard reference foil
# -----------
# energy  requested_energy  measurement_time  xmu  I0  It  Ir
  19799.462  19799.500  0.500  0.272870  7.215482  13.643529  10.385336
  19809.573  19809.500  0.500  0.272709  7.200087  13.615271  10.365504
  19819.555  19819.500  0.500  0.272289  7.175082  13.567573  10.333525
  19829.617  19829.500  0.500  0.272171  7.160785  13.541149  10.314619
  19839.568  19839.500  0.500  0.271915  7.134521  13.491753  10.279622
  19849.633  19849.500  0.500  0.271768  7.109659  13.444163  10.244874
  19859.570  19859.500  0.500  0.271553  7.086421  13.401556  10.214597
  19869.586  19869.500  0.500  0.271536  7.072239  13.376258  10.195486
  19879.526  19879.500  0.500  0.271560  7.040689  13.318673  10.151353
  19889.597  19889.500  0.500  0.271343  6.952972  13.153907  10.027949
  19899.556  19899.500  0.500  0.271508  7.003972  13.252545  10.101476
  19909.613  19909.500  0.500  0.271545  6.970225  13.186437  10.050713
  19919.610  19919.500  0.500  0.271991  6.953039  13.155591  10.022735
  19929.600  19929.500  0.500  0.272293  6.931377  13.112022  9.986527
  19939.583  19939.500  0.500  0.273355  6.906654  13.072977  9.946216
  19949.593  19949.500  0.500  0.274409  6.885486  13.027752  9.901366
  19959.578  19959.500  0.500  0.276513  6.862384  12.987803  9.850254
  19969.538  19969.500  0.500  0.279570  6.843028  12.952787  9.793719
  19971.447  19971.500  0.500  0.280028  6.838007  12.941763  9.780904
  19973.497  19973.500  0.500  0.281122  6.826921  12.920381  9.754063
  19975.477  19975.500  0.500  0.282394  6.823527  12.920052  9.741417
  19977.475  19977.500  0.500  0.283394  6.827769  12.922645  9.733638
  19979.490  19979.500  0.500  0.284839  6.809922  12.888594  9.693965
  19981.524  19981.500  0.500  0.286410  6.806457  12.884103  9.675373
  19983.541  19983.500  0.500  0.288236  6.803043  12.877287  9.652615
  19985.488  19985.500  0.500  0.290180  6.808589  12.885592  9.640082
  19987.470  19987.500  0.500  0.293162  6.796666  12.865313  9.596251
  19989.471  19989.500  0.500  0.296280  6.789168  12.848699  9.554023
  19989.751  19989.800  0.500  0.296660  6.792374  12.856460  9.556168
  19990.050  19990.100  0.500  0.297091  6.789662  12.850879  9.547896
  19990.348  19990.400  0.500  0.297686  6.789505  12.849449  9.541159
  19990.664  19990.700  0.500  0.298629  6.788793  12.847425  9.530659
  19990.962  19991.000  0.500  0.299152  6.783514  12.839976  9.520162
  19991.296  19991.300  0.500  0.299837  6.781199  12.836767  9.511258
  19991.594  19991.600  0.500  0.300582  6.784125  12.839188  9.505967
  19991.875  19991.900  0.500  0.301081  6.783907  12.840945  9.502533
  19992.173  19992.200  0.500  0.301769  6.782858  12.840892  9.495952
  19992.472  19992.500  0.500  0.302433  6.780700  12.835227  9.485460
  19992.753  19992.800  0.500  0.303001  6.782197  12.836388  9.480934
  19993.051  19993.100  0.500  0.304187  6.778376  12.830132  9.465087
  19993.350  19993.400  0.500  0.304789  6.777579  12.828500  9.458183
  19993.666  19993.700  0.500  0.305645  6.780111  12.834246  9.454321
  19993.964  19994.000  0.500  0.306563  6.781517  12.837359  9.447943
  19994.298  19994.300  0.500  0.307476  6.773222  12.822278  9.428232
  19994.578  19994.600  0.500  0.308798  6.771264  12.820585  9.414533
  19994.877  19994.900  0.500  0.309188  6.771683  12.820045  9.410459
  19995.158  19995.200  0.500  0.310236  6.772130  12.818485  9.399456
  19995.439  19995.500  0.500  0.311218  6.779759  12.832205  9.400289
  19995.737  19995.800  0.500  0.312399  6.775981  12.824627  9.383645
  19996.053  19996.100  0.500  0.313454  6.770455  12.815441  9.367041
  19996.369  19996.400  0.500  0.315098  6.765969  12.806282  9.344968
  19996.703  19996.700  0.500  0.316217  6.759890  12.795606  9.326738
  19997.002  19997.000  0.500  0.318095  6.771179  12.818419  9.325827
  19997.283  19997.300  0.500  0.319075  6.760341  12.798146  9.301958
  19997.581  19997.600  0.500  0.320496  6.766792  12.810643  9.297825
  19997.862  19997.900  0.500  0.322007  6.767510  12.811029  9.284060
  19998.161  19998.200  0.500  0.324031  6.758535  12.798881  9.256508
  19998.424  19998.500  0.500  0.325507  6.758479  12.795068  9.240103
  19998.758  19998.800  0.500  0.327341  6.755681  12.788997  9.218792
  19999.039  19999.100  0.500  0.329624  6.756764  12.791299  9.199423
  19999.373  19999.400  0.500  0.331656  6.757210  12.790190  9.179958
  19999.671  19999.700  0.500  0.334092  6.755401  12.785357  9.154165
  20000.005  20000.000  0.500  0.336964  6.752120  12.781535  9.125177
  20000.269  20000.300  0.500  0.339424  6.753625  12.786310  9.106161
  20000.567  20000.600  0.500  0.342515  6.753977  12.784828  9.077002
  20000.866  20000.900  0.500  0.345819  6.754676  12.785180  9.047316
  20001.165  20001.200  0.500  0.349423  6.751409  12.781425  9.012120
  20001.446  20001.500  0.500  0.352647  6.757165  12.791407  8.990121
  20001.780  20001.800  0.500  0.357581  6.754194  12.785712  8.941896
  20002.096  20002.100  0.500  0.362667  6.747943  12.774975  8.889055
  20002.412  20002.400  0.500  0.368216  6.745270  12.772421  8.838099
  20002.711  20002.700  0.500  0.374144  6.745009  12.771305  8.785094
  20002.975  20003.000  0.500  0.380116  6.744473  12.763233  8.727266
  20003.273  20003.300  0.500  0.387258  6.743969  12.767121  8.667805
  20003.572  20003.600  0.500  0.394829  6.745006  12.767976  8.603003
  20003.871  20003.900  0.500  0.403491  6.743295  12.762428  8.525095
  20004.170  20004.200  0.500  0.413231  6.738969  12.760918  8.441469
  20004.503  20004.500  0.500  0.424470  6.739002  12.758707  8.345678
  20004.785  20004.800  0.500  0.435543  6.748148  12.772693  8.262823
  20005.119  20005.100  0.500  0.449157  6.756818  12.793856  8.164599
  20005.417  20005.400  0.500  0.461773  6.750147  12.780637  8.053911
  20005.699  20005.700  0.500  0.475290  6.750504  12.777887  7.944073
  20006.015  20006.000  0.500  0.490321  6.747905  12.778049  7.825659
  20006.296  20006.300  0.500  0.505529  6.750740  12.783772  7.710999
  20006.595  20006.600  0.500  0.521447  6.751519  12.783317  7.588953
  20006.912  20006.900  0.500  0.538865  6.750918  12.782526  7.457457
  20007.210  20007.200  0.500  0.556004  6.752479  12.785954  7.332696
  20007.527  20007.500  0.500  0.574137  6.746910  12.772583  7.193401
  20007.826  20007.800  0.500  0.590928  6.746046  12.772840  7.073763
  20008.125  20008.100  0.500  0.607098  6.747381  12.774563  6.961240
  20008.423  20008.400  0.500  0.623266  6.744671  12.771331  6.847868
  20008.722  20008.700  0.500  0.639828  6.744596  12.767959  6.733609
  20009.004  20009.000  0.500  0.655504  6.745160  12.768918  6.629374
  20009.303  20009.300  0.500  0.671776  6.744579  12.775664  6.525814
  20009.619  20009.600  0.500  0.687149  6.743392  12.766676  6.421740
  20009.918  20009.900  0.500  0.703243  6.739529  12.760433  6.316127
  20010.217  20010.200  0.500  0.719100  6.738462  12.759697  6.216405
  20010.534  20010.500  0.500  0.733799  6.739004  12.758075  6.124919
  20010.815  20010.800  0.500  0.747039  6.735702  12.754327  6.042582
  20011.079  20011.100  0.500  0.761170  6.732313  12.749794  5.955676
  20011.413  20011.400  0.500  0.776406  6.733099  12.751926  5.866605
  20011.712  20011.700  0.500  0.791419  6.732809  12.748151  5.777477
  20012.028  20012.000  0.500  0.805930  6.725678  12.742132  5.691556
  20012.345  20012.300  0.500  0.821044  6.735711  12.755807  5.612198
  20012.662  20012.600  0.500  0.836316  6.725682  12.740238  5.520393
  20012.943  20012.900  0.500  0.850012  6.728452  12.741180  5.445704
  20013.225  20013.200  0.500  0.865072  6.726780  12.735774  5.362030
  20013.524  20013.500  0.500  0.878351  6.722147  12.727384  5.287813
  20013.787  20013.800  0.500  0.893120  6.724422  12.733138  5.212649
  20014.086  20014.100  0.500  0.907857  6.727971  12.745179  5.141249
  20014.386  20014.400  0.500  0.922794  6.723220  12.736783  5.061688
  20014.702  20014.700  0.500  0.938293  6.720965  12.728335  4.980535
  20015.001  20015.000  0.500  0.953689  6.723154  12.732586  4.906082
  20015.336  20015.300  0.500  0.971823  6.722640  12.731095  4.817354
  20015.600  20015.600  0.500  0.988234  6.722820  12.730492  4.738718
  20015.916  20015.900  0.500  1.004012  6.722089  12.727677  4.663501
  20016.198  20016.200  0.500  1.022092  6.720829  12.728589  4.580272
  20016.497  20016.500  0.500  1.041102  6.720482  12.730759  4.494789
  20016.814  20016.800  0.500  1.060513  6.716732  12.723519  4.405874
  20017.095  20017.100  0.500  1.080045  6.715093  12.715913  4.318072
  20017.430  20017.400  0.500  1.101975  6.710606  12.712375  4.223233
  20017.729  20017.700  0.500  1.123420  6.714101  12.717593  4.135328
  20018.010  20018.000  0.500  1.144846  6.712263  12.715384  4.046961
  20018.309  20018.300  0.500  1.166740  6.707567  12.707611  3.956902
  20018.591  20018.600  0.500  1.187046  6.709138  12.705688  3.876777
  20018.908  20018.900  0.500  1.208382  6.713410  12.717926  3.798592
  20019.207  20019.200  0.500  1.230638  6.702222  12.696948  3.708857
  20019.506  20019.500  0.500  1.251756  6.704779  12.700864  3.632473
  20019.788  20019.800  0.500  1.272666  6.704498  12.696352  3.556043
  20020.105  20020.100  0.500  1.291842  6.704007  12.694652  3.488034
  20020.404  20020.400  0.500  1.310646  6.710007  12.711712  3.427658
  20020.686  20020.700  0.500  1.326600  6.699443  12.691800  3.368125
  20020.985  20021.000  0.500  1.341901  6.700740  12.696748  3.318275
  20021.267  20021.300  0.500  1.356451  6.700953  12.694324  3.269719
  20021.584  20021.600  0.500  1.369194  6.699027  12.692629  3.227887
  20021.865  20021.900  0.500  1.380263  6.700367  12.691411  3.192046
  20022.200  20022.200  0.500  1.390386  6.697904  12.684951  3.158288
  20022.499  20022.500  0.500  1.397593  6.695366  12.682628  3.135033
  20022.798  20022.800  0.500  1.403937  6.703223  12.697972  3.118977
  20023.062  20023.100  0.500  1.407731  6.697148  12.689283  3.105041
  20023.397  20023.400  0.500  1.409909  6.697916  12.687738  3.097906
  20023.679  20023.700  0.500  1.410512  6.693652  12.678139  3.093698
  20023.961  20024.000  0.500  1.410111  6.693827  12.681051  3.095651
  20024.260  20024.300  0.500  1.407862  6.692172  12.679292  3.102190
  20024.489  20024.500  0.500  1.406070  6.692604  12.680835  3.108130
  20025.493  20025.490  0.500  1.388815  6.699121  12.691515  3.164892
  20026.479  20026.490  0.500  1.366357  6.690239  12.671016  3.231544
  20027.553  20027.510  0.500  1.346094  6.693059  12.680026  3.300039
  20028.505  20028.560  0.500  1.334323  6.687389  12.668044  3.335956
  20029.632  20029.620  0.500  1.331705  6.679435  12.651122  3.340233
  20030.672  20030.700  0.500  1.337875  6.682100  12.657837  3.321449
  20031.835  20031.800  0.500  1.348441  6.675463  12.648676  3.284163
  20032.945  20032.920  0.500  1.360096  6.677570  12.650011  3.246451
  20034.091  20034.060  0.500  1.368649  6.674520  12.642113  3.216793
  20035.219  20035.210  0.500  1.373245  6.676341  12.646644  3.203189
  20036.436  20036.390  0.500  1.375231  6.673740  12.639322  3.194983
  20037.600  20037.580  0.500  1.375150  6.671898  12.640435  3.195524
  20038.869  20038.800  0.500  1.376691  6.668530  12.635264  3.189296
  20040.051  20040.030  0.500  1.381097  6.663315  12.622539  3.172080
  20041.339  20041.280  0.500  1.390036  6.662446  12.620233  3.143277
  20042.573  20042.550  0.500  1.402109  6.654198  12.609147  3.102826
  20043.826  20043.840  0.500  1.415610  6.654614  12.609413  3.061280
  20045.203  20045.150  0.500  1.431358  6.645847  12.591441  3.009156
  20046.491  20046.480  0.500  1.446842  6.651188  12.602133  2.965437
  20047.832  20047.830  0.500  1.463620  6.640655  12.581595  2.911345
  20049.209  20049.200  0.500  1.478781  6.638238  12.576941  2.866477
  20050.551  20050.580  0.500  1.488083  6.636644  12.572648  2.838968
  20051.999  20051.990  0.500  1.488144  6.632179  12.566786  2.837472
  20053.429  20053.410  0.500  1.475322  6.627620  12.555122  2.871422
  20054.842  20054.850  0.500  1.452953  6.623374  12.551193  2.935456
  20056.326  20056.310  0.500  1.425012  6.625567  12.553667  3.019228
  20057.846  20057.790  0.500  1.397629  6.626818  12.554306  3.103202
  20059.312  20059.290  0.500  1.377448  6.620354  12.543137  3.163649
  20060.832  20060.810  0.500  1.363224  6.618767  12.541504  3.208553
  20062.370  20062.350  0.500  1.357320  6.613638  12.531094  3.224870
  20063.979  20063.910  0.500  1.357392  6.613228  12.531467  3.224736
  20065.517  20065.480  0.500  1.362095  6.607777  12.518511  3.206286
  20067.109  20067.080  0.500  1.370285  6.603327  12.513511  3.178865
  20068.683  20068.690  0.500  1.378090  6.600023  12.502747  3.151436
  20070.346  20070.330  0.500  1.384641  6.597293  12.504675  3.131340
  20071.991  20071.980  0.500  1.387220  6.589556  12.486806  3.118813
  20073.655  20073.650  0.500  1.385890  6.579768  12.469005  3.118512
  20075.318  20075.340  0.500  1.381350  6.579848  12.469171  3.132745
  20077.053  20077.050  0.500  1.375316  6.583824  12.477987  3.153931
  20078.806  20078.780  0.500  1.368699  6.572346  12.450870  3.167973
  20080.559  20080.530  0.500  1.362480  6.570257  12.449012  3.187260
  20082.383  20082.290  0.500  1.359175  6.569281  12.449046  3.197819
  20084.155  20084.080  0.500  1.359840  6.563148  12.436442  3.192459
  20085.909  20085.880  0.500  1.366312  6.560365  12.431670  3.170646
  20087.734  20087.710  0.500  1.379021  6.558295  12.426286  3.129251
  20089.595  20089.550  0.500  1.395456  6.557842  12.427828  3.078622
  20091.457  20091.410  0.500  1.412091  6.546945  12.410293  3.023560
  20093.283  20093.290  0.500  1.423092  6.543174  12.398045  2.987530
  20095.198  20095.190  0.500  1.427096  6.545682  12.405225  2.977315
  20097.096  20097.110  0.500  1.421600  6.530459  12.376327  2.986748
  20099.101  20099.050  0.500  1.406428  6.527295  12.371872  3.031318
  20101.017  20101.010  0.500  1.387479  6.525370  12.367809  3.088290
  20103.040  20102.980  0.500  1.368939  6.518037  12.356019  3.143083
  20105.011  20104.980  0.500  1.356302  6.515427  12.347101  3.180756
  20107.070  20106.990  0.500  1.350310  6.517576  12.349802  3.200573
  20109.041  20109.020  0.500  1.350603  6.506705  12.333042  3.195294
  20111.137  20111.080  0.500  1.353908  6.503536  12.327230  3.183251
  20113.198  20113.150  0.500  1.357726  6.499967  12.319384  3.169100
  20115.295  20115.240  0.500  1.360216  6.491414  12.303396  3.157116
  20117.374  20117.350  0.500  1.361534  6.488563  12.295567  3.150953
  20119.508  20119.480  0.500  1.363213  6.482862  12.284586  3.142856
  20121.641  20121.620  0.500  1.364256  6.477510  12.275118  3.137160
  20123.811  20123.790  0.500  1.366626  6.474514  12.273628  3.129355
  20126.017  20125.980  0.500  1.371163  6.465500  12.258755  3.111414
  20128.223  20128.180  0.500  1.378698  6.462350  12.247408  3.085200
  20130.430  20130.400  0.500  1.387147  6.461265  12.244633  3.058549
  20132.655  20132.650  0.500  1.396354  6.454776  12.234467  3.028003
  20134.934  20134.910  0.500  1.401724  6.449460  12.224722  3.009388
  20137.213  20137.190  0.500  1.402207  6.446731  12.219497  3.006647
  20139.529  20139.490  0.500  1.397073  6.441562  12.211109  3.020050
  20141.774  20141.810  0.500  1.388531  6.429179  12.186695  3.039866
  20144.162  20144.150  0.500  1.377030  6.424299  12.179391  3.073188
  20146.514  20146.500  0.500  1.364148  6.421404  12.172833  3.111357
  20148.886  20148.880  0.500  1.350040  6.421144  12.172682  3.155524
  20151.364  20151.270  0.500  1.335709  6.410997  12.151231  3.195428
  20153.772  20153.690  0.500  1.326134  6.409643  12.148045  3.225328
  20156.145  20156.120  0.500  1.321004  6.401703  12.137911  3.239210
  20158.608  20158.570  0.500  1.318545  6.390717  12.117911  3.241836
  20161.054  20161.050  0.500  1.316850  6.395724  12.123437  3.248816
  20163.553  20163.540  0.500  1.315788  6.381226  12.099554  3.245860
  20166.036  20166.050  0.500  1.316752  6.377220  12.091754  3.240643
  20168.590  20168.570  0.500  1.321620  6.372465  12.082075  3.222326
  20171.199  20171.120  0.500  1.328165  6.367295  12.072083  3.198657
  20173.701  20173.690  0.500  1.333448  6.360234  12.058003  3.178089
  20176.347  20176.270  0.500  1.338494  6.355249  12.049349  3.159824
  20178.922  20178.880  0.500  1.341880  6.353491  12.043956  3.147735
  20181.480  20181.500  0.500  1.342319  6.339800  12.018901  3.139806
  20184.164  20184.150  0.500  1.341116  6.333314  12.007602  3.140633
  20186.812  20186.810  0.500  1.340112  6.329206  11.998922  3.141514
  20189.515  20189.490  0.500  1.345534  6.327120  11.999453  3.124664
  20192.255  20192.190  0.500  1.357330  6.312511  11.970254  3.080510
  20194.942  20194.910  0.500  1.373331  6.309353  11.963217  3.029827
  20197.718  20197.650  0.500  1.389673  6.305693  11.956269  2.978986
  20200.407  20200.400  0.500  1.399366  6.298846  11.946833  2.947922
  20203.203  20203.180  0.500  1.401172  6.298186  11.944452  2.942016
  20205.946  20205.970  0.500  1.393145  6.285222  11.919715  2.959585
  20208.816  20208.790  0.500  1.376706  6.280293  11.910419  3.006293
  20211.650  20211.620  0.500  1.354100  6.273860  11.897651  3.071732
  20214.540  20214.470  0.500  1.326703  6.289129  11.924864  3.164271
  20217.394  20217.350  0.500  1.300025  6.284499  11.918470  3.248082
  20220.285  20220.240  0.500  1.277448  6.273088  11.897164  3.316307
  20223.104  20223.150  0.500  1.263993  6.273125  11.895591  3.360787
  20226.069  20226.070  0.500  1.262823  6.266753  11.886937  3.362273
  20229.052  20229.020  0.500  1.270011  6.260152  11.871548  3.333870
  20232.000  20231.990  0.500  1.279450  6.253767  11.855862  3.298187
  20235.057  20234.970  0.500  1.285348  6.246563  11.847343  3.276434
  20238.007  20237.980  0.500  1.288063  6.241169  11.835801  3.264368
  20241.012  20241.000  0.500  1.289831  6.232206  11.819192  3.254029
  20244.089  20244.050  0.500  1.294351  6.224775  11.807319  3.236099
  20247.096  20247.110  0.500  1.300878  6.214888  11.788221  3.209845
  20250.229  20250.190  0.500  1.311186  6.212444  11.782732  3.175449
  20253.346  20253.290  0.500  1.322861  6.204848  11.769075  3.134954
