# XDI/1.0 BlueSky/1.10.0 BMM/2023-1.0-py310-tiled
# Beamline.name: BMM (06BM) -- Beamline for Materials Measurement (NIST)
# Beamline.xray_source: NSLS-II three-pole wiggler
# Beamline.collimation: paraboloid mirror, 5 nm Rh on 30 nm Pt
# Beamline.focusing: not in use
# Beamline.harmonic_rejection: flat mirror, Pt stripe, pitch = 7.0 mrad relative to beam
# Beamline.software: Bluesky 1.10.0, Ophyd 1.7.0, DataBroker 2.0.0b13, Python 3.10.8, 2023-1.0-py310-tiled
# Detector.I0: 10 cm N2
# Detector.I1: 25 cm N2
# Detector.I2: 25 cm N2
# Element.symbol: Mo
# Element.edge: K
# Element.reference: Mo
# Element.reference_material: Mo foil
# Facility.name: NSLS-II
# Facility.energy: 3.0
# Facility.current: 400.2
# Facility.mode: top-off
# Facility.GUP: 301027
# Facility.SAF: 310583
# Facility.cycle: 2023-2
# Mono.name: Si(111)
# Mono.d_spacing: 3.1351860
# Mono.encoder_resolution: 0.0000050 deg/ct
# Mono.angle_offset: 16.0754326 deg
# Mono.scan_mode: pseudo channel cut
# Mono.scan_type: step
# Mono.direction: forward in energy
# Sample.name: MoO2
# Sample.prep: powder in PEG pellet
# Sample.x: 117.785 mm
# Sample.y: 114.695 mm
# Sample.SDD_position: 205.000 mm
# Scan.experimenters: Bruce Ravel
# Scan.edge_energy: 19999.5
# Scan.start_time: 2023-06-23T20:50:36
# Scan.end_time: 2023-06-23T20:57:53
# Scan.transient_id: 85023
# Scan.uid: 3f9b17f1-514a-420a-82e8-8de0b92a60b6
# Scan.plot_hint: ln(I0/It)  --  ln($5/$6)
# Column.1: energy eV
# Column.2: requested_energy eV
# Column.3: measurement_time seconds
# Column.4: xmu 
# Column.5: I0 nA
# Column.6: It nA
# Column.7: Ir nA
# ///////////
# sample courtesy Martin Stennett, University of Sheffield
# -----------
# energy  requested_energy  measurement_time  xmu  I0  It  Ir
  19799.514  19799.500  0.500  -0.334460  7.635485  10.668191  8.196870
  19809.590  19809.500  0.500  -0.334942  7.610144  10.637910  8.174460
  19819.624  19819.500  0.500  -0.335125  7.588062  10.608979  8.153110
  19829.600  19829.500  0.500  -0.335471  7.563174  10.577850  8.130434
  19839.637  19839.500  0.500  -0.335666  7.539430  10.546695  8.110458
  19849.616  19849.500  0.500  -0.335981  7.511534  10.510986  8.084844
  19859.639  19859.500  0.500  -0.336294  7.486345  10.479014  8.060178
  19869.586  19869.500  0.500  -0.336599  7.461210  10.447021  8.036719
  19879.595  19879.500  0.500  -0.336452  7.437441  10.412201  8.012400
  19889.597  19889.500  0.500  -0.336903  7.341704  10.282812  7.911076
  19899.591  19899.500  0.500  -0.336762  7.390174  10.349242  7.960720
  19909.596  19909.500  0.500  -0.336684  7.365187  10.313448  7.932702
  19919.575  19919.500  0.500  -0.336971  7.338663  10.279255  7.902752
  19929.635  19929.500  0.500  -0.336626  7.313631  10.240658  7.870835
  19939.565  19939.500  0.500  -0.336332  7.286318  10.199412  7.832352
  19949.662  19949.500  0.500  -0.335478  7.261941  10.156618  7.790022
  19959.578  19959.500  0.500  -0.334191  7.237647  10.109619  7.739069
  19969.625  19969.500  0.500  -0.331849  7.214848  10.054199  7.670839
  19971.499  19971.500  0.500  -0.331650  7.208390  10.043200  7.656982
  19973.479  19973.500  0.500  -0.330970  7.202666  10.028401  7.640075
  19975.529  19975.500  0.500  -0.330275  7.197650  10.014458  7.621646
  19977.510  19977.500  0.500  -0.329636  7.192804  10.001321  7.600141
  19979.508  19979.500  0.500  -0.328733  7.187431  9.984824  7.578569
  19981.507  19981.500  0.500  -0.327940  7.182263  9.969742  7.553232
  19983.488  19983.500  0.500  -0.326535  7.176199  9.947336  7.525434
  19985.488  19985.500  0.500  -0.325307  7.172228  9.929628  7.494973
  19987.470  19987.500  0.500  -0.323863  7.166999  9.908072  7.462104
  19989.418  19989.500  0.500  -0.322291  7.161696  9.885197  7.419090
  19989.716  19989.800  0.500  -0.321876  7.161608  9.880971  7.410886
  19989.997  19990.100  0.500  -0.321481  7.162029  9.877645  7.404144
  19990.330  19990.400  0.500  -0.321390  7.157351  9.870301  7.396112
  19990.629  19990.700  0.500  -0.320912  7.160215  9.869524  7.390202
  19990.962  19991.000  0.500  -0.320772  7.157208  9.864003  7.382038
  19991.243  19991.300  0.500  -0.320397  7.156906  9.859888  7.374150
  19991.541  19991.600  0.500  -0.320061  7.154564  9.853348  7.364860
  19991.840  19991.900  0.500  -0.319498  7.154041  9.847079  7.356005
  19992.138  19992.200  0.500  -0.319272  7.152431  9.842640  7.346827
  19992.419  19992.500  0.500  -0.318869  7.152207  9.838370  7.339166
  19992.735  19992.800  0.500  -0.318562  7.150886  9.833530  7.329937
  19993.051  19993.100  0.500  -0.318169  7.150863  9.829638  7.318978
  19993.385  19993.400  0.500  -0.317733  7.149471  9.823435  7.310787
  19993.648  19993.700  0.500  -0.317651  7.147073  9.819336  7.299797
  19993.946  19994.000  0.500  -0.317170  7.146053  9.813218  7.289202
  19994.280  19994.300  0.500  -0.316582  7.145846  9.807161  7.279583
  19994.543  19994.600  0.500  -0.315924  7.146541  9.801668  7.269136
  19994.859  19994.900  0.500  -0.315844  7.145612  9.799606  7.256592
  19995.158  19995.200  0.500  -0.315126  7.144862  9.791548  7.246859
  19995.474  19995.500  0.500  -0.314695  7.142589  9.784211  7.232131
  19995.790  19995.800  0.500  -0.314164  7.140943  9.776762  7.219696
  19996.141  19996.100  0.500  -0.313588  7.140590  9.770652  7.205283
  19996.405  19996.400  0.500  -0.312925  7.140713  9.764350  7.192809
  19996.703  19996.700  0.500  -0.312698  7.139418  9.760364  7.179047
  19997.002  19997.000  0.500  -0.311968  7.139529  9.753387  7.166573
  19997.300  19997.300  0.500  -0.311449  7.137144  9.745070  7.151287
  19997.616  19997.600  0.500  -0.310769  7.136653  9.737776  7.135475
  19997.897  19997.900  0.500  -0.310358  7.134396  9.730702  7.117912
  19998.178  19998.200  0.500  -0.309548  7.135232  9.723961  7.101327
  19998.495  19998.500  0.500  -0.308814  7.134556  9.715901  7.082121
  19998.828  19998.800  0.500  -0.308325  7.131827  9.707438  7.061660
  19999.109  19999.100  0.500  -0.307347  7.132197  9.698453  7.041012
  19999.426  19999.400  0.500  -0.306601  7.130464  9.688866  7.018167
  19999.689  19999.700  0.500  -0.305622  7.131165  9.680335  6.997026
  19999.988  20000.000  0.500  -0.305102  7.127386  9.670175  6.971419
  20000.286  20000.300  0.500  -0.304248  7.127133  9.661579  6.946306
  20000.585  20000.600  0.500  -0.303048  7.128235  9.651486  6.919547
  20000.884  20000.900  0.500  -0.301952  7.127502  9.639921  6.890072
  20001.200  20001.200  0.500  -0.300726  7.126576  9.626854  6.854847
  20001.551  20001.500  0.500  -0.299229  7.126230  9.611989  6.818408
  20001.815  20001.800  0.500  -0.298526  7.123691  9.601818  6.780558
  20002.114  20002.100  0.500  -0.297366  7.122790  9.589469  6.741998
  20002.412  20002.400  0.500  -0.295967  7.121361  9.574143  6.695981
  20002.693  20002.700  0.500  -0.294610  7.120555  9.560074  6.648491
  20003.010  20003.000  0.500  -0.292995  7.119051  9.542634  6.599828
  20003.308  20003.300  0.500  -0.291228  7.119923  9.526954  6.541211
  20003.590  20003.600  0.500  -0.289047  7.118377  9.504131  6.475664
  20003.906  20003.900  0.500  -0.287422  7.115335  9.484643  6.407497
  20004.205  20004.200  0.500  -0.285163  7.116526  9.464826  6.333925
  20004.521  20004.500  0.500  -0.282678  7.115183  9.439559  6.249842
  20004.785  20004.800  0.500  -0.280427  7.113477  9.416072  6.171354
  20005.101  20005.100  0.500  -0.277652  7.111754  9.387707  6.078234
  20005.400  20005.400  0.500  -0.274990  7.111952  9.363009  5.986133
  20005.716  20005.700  0.500  -0.271505  7.109762  9.327565  5.883526
  20005.997  20006.000  0.500  -0.267940  7.109854  9.294491  5.779998
  20006.296  20006.300  0.500  -0.264059  7.109136  9.257552  5.666715
  20006.613  20006.600  0.500  -0.259633  7.106698  9.213505  5.543510
  20006.929  20006.900  0.500  -0.255414  7.104572  9.171975  5.431331
  20007.210  20007.200  0.500  -0.250665  7.103974  9.127754  5.317725
  20007.527  20007.500  0.500  -0.245761  7.103696  9.082742  5.202447
  20007.808  20007.800  0.500  -0.240505  7.103027  9.034276  5.091220
  20008.089  20008.100  0.500  -0.235230  7.103765  8.987683  4.988958
  20008.388  20008.400  0.500  -0.229734  7.101296  8.935319  4.873799
  20008.687  20008.700  0.500  -0.223980  7.098852  8.880992  4.765764
  20008.986  20009.000  0.500  -0.216995  7.099670  8.820190  4.649685
  20009.303  20009.300  0.500  -0.210801  7.099182  8.765126  4.553719
  20009.602  20009.600  0.500  -0.203926  7.097163  8.702592  4.442688
  20009.883  20009.900  0.500  -0.197609  7.094735  8.644834  4.349128
  20010.199  20010.200  0.500  -0.190847  7.093617  8.585219  4.258272
  20010.463  20010.500  0.500  -0.184577  7.093713  8.531674  4.173095
  20010.762  20010.800  0.500  -0.177849  7.093684  8.474433  4.088096
  20011.061  20011.100  0.500  -0.170663  7.091325  8.410960  3.992195
  20011.378  20011.400  0.500  -0.163511  7.089554  8.348930  3.905125
  20011.694  20011.700  0.500  -0.155957  7.090108  8.286749  3.817179
  20012.046  20012.000  0.500  -0.148256  7.088164  8.220918  3.728886
  20012.327  20012.300  0.500  -0.141665  7.085719  8.164102  3.654214
  20012.591  20012.600  0.500  -0.134496  7.086505  8.106679  3.577215
  20012.908  20012.900  0.500  -0.127100  7.084855  8.045066  3.500184
  20013.154  20013.200  0.500  -0.119744  7.084997  7.986267  3.427487
  20013.471  20013.500  0.500  -0.112031  7.083405  7.923126  3.352043
  20013.770  20013.800  0.500  -0.103709  7.082786  7.856774  3.274569
  20014.069  20014.100  0.500  -0.094946  7.081922  7.787278  3.197481
  20014.403  20014.400  0.500  -0.085834  7.081546  7.716233  3.123644
  20014.685  20014.700  0.500  -0.075858  7.077846  7.635646  3.040730
  20014.984  20015.000  0.500  -0.066204  7.078834  7.563344  2.969825
  20015.265  20015.300  0.500  -0.056416  7.078580  7.489407  2.897967
  20015.547  20015.600  0.500  -0.045060  7.076146  7.402286  2.819751
  20015.846  20015.900  0.500  -0.033405  7.076079  7.316447  2.742946
  20016.163  20016.200  0.500  -0.019553  7.076497  7.216223  2.659419
  20016.462  20016.500  0.500  -0.005759  7.073803  7.114659  2.575221
  20016.778  20016.800  0.500  0.010360  7.072653  6.999760  2.484275
  20017.113  20017.100  0.500  0.026767  7.071006  6.884248  2.396271
  20017.412  20017.400  0.500  0.043434  7.070577  6.770048  2.308854
  20017.711  20017.700  0.500  0.059974  7.070411  6.658838  2.228948
  20017.975  20018.000  0.500  0.076564  7.068931  6.547906  2.148902
  20018.257  20018.300  0.500  0.094764  7.066983  6.428042  2.065781
  20018.573  20018.600  0.500  0.114129  7.066538  6.304362  1.982095
  20018.890  20018.900  0.500  0.134671  7.065253  6.175058  1.898848
  20019.189  20019.200  0.500  0.154954  7.064595  6.050506  1.820707
  20019.489  20019.500  0.500  0.175653  7.062545  5.924832  1.743850
  20019.806  20019.800  0.500  0.198355  7.090750  5.814972  1.673294
  20020.105  20020.100  0.500  0.218543  7.089962  5.698124  1.608156
  20020.404  20020.400  0.500  0.237473  7.088922  5.590455  1.549899
  20020.686  20020.700  0.500  0.257935  7.088664  5.477026  1.491759
  20020.967  20021.000  0.500  0.279364  7.086456  5.359236  1.433796
  20021.267  20021.300  0.500  0.300589  7.083981  5.244850  1.380113
  20021.619  20021.600  0.500  0.323590  7.083455  5.125213  1.327723
  20021.936  20021.900  0.500  0.345523  7.084964  5.015093  1.282252
  20022.235  20022.200  0.500  0.366899  7.081736  4.906793  1.240716
  20022.534  20022.500  0.500  0.386655  7.081302  4.810511  1.204954
  20022.816  20022.800  0.500  0.406400  7.079737  4.715414  1.172455
  20023.115  20023.100  0.500  0.425118  7.080044  4.628174  1.144956
  20023.362  20023.400  0.500  0.441450  7.077194  4.551368  1.121534
  20023.679  20023.700  0.500  0.460807  7.076615  4.463748  1.097327
  20024.031  20024.000  0.500  0.478998  7.079114  4.384828  1.076541
  20024.330  20024.300  0.500  0.496913  7.076982  4.305680  1.059132
  20024.524  20024.500  0.500  0.508466  7.074948  4.254998  1.048276
  20025.510  20025.490  0.500  0.558135  7.073331  4.047892  1.012084
  20026.567  20026.490  0.500  0.602822  7.070720  3.869559  0.989138
  20027.624  20027.510  0.500  0.643373  7.067654  3.714172  0.969805
  20028.593  20028.560  0.500  0.677558  7.066293  3.588656  0.949388
  20029.685  20029.620  0.500  0.709033  7.064428  3.476545  0.923113
  20030.725  20030.700  0.500  0.729992  7.062143  3.403339  0.898670
  20031.870  20031.800  0.500  0.741144  7.061434  3.365256  0.879004
  20032.998  20032.920  0.500  0.741381  7.059126  3.363358  0.868166
  20034.109  20034.060  0.500  0.734439  7.056602  3.385578  0.865882
  20035.237  20035.210  0.500  0.726315  7.052638  3.411276  0.868503
  20036.436  20036.390  0.500  0.722094  7.051905  3.425350  0.870600
  20037.635  20037.580  0.500  0.723277  7.049110  3.419946  0.868513
  20038.816  20038.800  0.500  0.729024  7.044503  3.398124  0.862261
  20040.016  20040.030  0.500  0.735845  7.041391  3.373534  0.852569
  20041.321  20041.280  0.500  0.739183  7.035817  3.359631  0.841475
  20042.538  20042.550  0.500  0.734642  7.032634  3.373394  0.835463
  20043.861  20043.840  0.500  0.717177  7.030424  3.431747  0.837414
  20045.167  20045.150  0.500  0.689132  7.027004  3.527636  0.847703
  20046.509  20046.480  0.500  0.653190  7.022262  3.654267  0.864552
  20047.850  20047.830  0.500  0.616235  7.018182  3.789631  0.881179
  20049.227  20049.200  0.500  0.582837  7.015039  3.916581  0.898255
  20050.622  20050.580  0.500  0.553305  7.009591  4.030840  0.915025
  20052.052  20051.990  0.500  0.529711  7.006866  4.125468  0.936615
  20053.429  20053.410  0.500  0.512304  7.003044  4.195618  0.963721
  20054.895  20054.850  0.500  0.499513  7.001130  4.248469  0.998824
  20056.362  20056.310  0.500  0.491975  6.996211  4.277607  1.033642
  20057.846  20057.790  0.500  0.489668  6.993912  4.286076  1.063764
  20059.348  20059.290  0.500  0.490399  6.990467  4.280836  1.084865
  20060.850  20060.810  0.500  0.493561  6.986605  4.264963  1.096685
  20062.388  20062.350  0.500  0.497247  6.981753  4.246321  1.099171
  20063.908  20063.910  0.500  0.500777  6.978264  4.229245  1.095535
  20065.482  20065.480  0.500  0.502065  6.975369  4.222049  1.088441
  20067.109  20067.080  0.500  0.501439  6.971750  4.222500  1.080023
  20068.683  20068.690  0.500  0.498399  6.967483  4.232765  1.073975
  20070.311  20070.330  0.500  0.492970  6.962326  4.252656  1.071997
  20072.009  20071.980  0.500  0.487604  6.958495  4.273183  1.073821
  20073.708  20073.650  0.500  0.484226  6.954589  4.285235  1.078634
  20075.354  20075.340  0.500  0.483710  6.947747  4.283231  1.082160
  20077.089  20077.050  0.500  0.486982  6.942949  4.266291  1.084505
  20078.806  20078.780  0.500  0.492809  6.940770  4.240172  1.084854
  20080.577  20080.530  0.500  0.501799  6.936686  4.199749  1.081503
  20082.366  20082.290  0.500  0.511972  6.933327  4.155228  1.073739
  20084.155  20084.080  0.500  0.524037  6.927885  4.102177  1.058842
  20085.891  20085.880  0.500  0.537193  6.923385  4.045931  1.038487
  20087.699  20087.710  0.500  0.552038  6.918548  3.983529  1.010157
  20089.507  20089.550  0.500  0.566817  6.914212  3.922628  0.979057
  20091.386  20091.410  0.500  0.579926  6.909784  3.869063  0.950270
  20093.336  20093.290  0.500  0.590637  6.904672  3.825011  0.927152
  20095.198  20095.190  0.500  0.597340  6.898983  3.796326  0.915661
  20097.149  20097.110  0.500  0.601326  6.895874  3.779522  0.917056
  20099.118  20099.050  0.500  0.601734  6.890599  3.775090  0.929388
  20101.070  20101.010  0.500  0.600351  6.885315  3.777415  0.947587
  20103.058  20102.980  0.500  0.598182  6.880766  3.783115  0.966588
  20105.064  20104.980  0.500  0.594980  6.873359  3.791165  0.981467
  20107.017  20106.990  0.500  0.592213  6.870443  3.800057  0.989934
  20109.077  20109.020  0.500  0.588815  6.865885  3.810460  0.992737
  20111.120  20111.080  0.500  0.583760  6.860800  3.826935  0.993771
  20113.145  20113.150  0.500  0.576738  6.856029  3.851223  0.996281
  20115.277  20115.240  0.500  0.567136  6.849461  3.884653  1.002019
  20117.410  20117.350  0.500  0.557647  6.845751  3.919568  1.009458
  20119.525  20119.480  0.500  0.549182  6.840268  3.949721  1.016461
  20121.659  20121.620  0.500  0.541741  6.834982  3.976145  1.022325
  20123.847  20123.790  0.500  0.535403  6.828815  3.997815  1.025010
  20126.035  20125.980  0.500  0.529925  6.823698  4.016762  1.025904
  20128.223  20128.180  0.500  0.525150  6.817217  4.032156  1.022509
  20130.412  20130.400  0.500  0.521376  6.812565  4.044639  1.016606
  20132.637  20132.650  0.500  0.518227  6.806442  4.053750  1.009602
  20134.898  20134.910  0.500  0.516037  6.799784  4.058664  1.004943
  20137.213  20137.190  0.500  0.514420  6.795718  4.062803  1.005488
  20139.547  20139.490  0.500  0.512801  6.789582  4.065710  1.010371
  20141.845  20141.810  0.500  0.511636  6.784629  4.067479  1.020340
  20144.179  20144.150  0.500  0.510225  6.777733  4.069084  1.031331
  20146.532  20146.500  0.500  0.509631  6.771705  4.067879  1.045426
  20148.975  20148.880  0.500  0.508859  6.765447  4.067260  1.060868
  20151.311  20151.270  0.500  0.507675  6.759286  4.068370  1.075229
  20153.701  20153.690  0.500  0.506961  6.753132  4.067569  1.085479
  20156.110  20156.120  0.500  0.507231  6.749679  4.064391  1.090374
  20158.555  20158.570  0.500  0.507171  6.741311  4.059595  1.092103
  20161.072  20161.050  0.500  0.508788  6.736475  4.050128  1.092061
  20163.589  20163.540  0.500  0.510357  6.729079  4.039338  1.089742
  20166.089  20166.050  0.500  0.512427  6.723979  4.027932  1.086269
  20168.626  20168.570  0.500  0.513351  6.716563  4.019775  1.078867
  20171.181  20171.120  0.500  0.515066  6.710344  4.009171  1.068846
  20173.719  20173.690  0.500  0.517298  6.703067  3.995893  1.058928
  20176.258  20176.270  0.500  0.519869  6.697041  3.982052  1.051013
  20178.922  20178.880  0.500  0.523842  6.690329  3.962285  1.041730
  20181.480  20181.500  0.500  0.527872  6.685802  3.943680  1.035759
  20184.235  20184.150  0.500  0.531304  6.677565  3.925326  1.032620
  20186.866  20186.810  0.500  0.533833  6.670448  3.911239  1.029893
  20189.605  20189.490  0.500  0.534066  6.661052  3.904820  1.023668
  20192.219  20192.190  0.500  0.532445  6.656423  3.908435  1.013393
  20194.959  20194.910  0.500  0.528256  6.650692  3.921462  0.999397
  20197.647  20197.650  0.500  0.523626  6.644495  3.935991  0.988032
  20200.424  20200.400  0.500  0.518432  6.639319  3.953405  0.981351
  20203.239  20203.180  0.500  0.513314  6.629679  3.967920  0.983193
  20205.982  20205.970  0.500  0.510628  6.623768  3.975045  0.991864
  20208.870  20208.790  0.500  0.509438  6.618181  3.976421  1.008061
  20211.632  20211.620  0.500  0.508681  6.608340  3.973518  1.029930
  20214.522  20214.470  0.500  0.509299  6.602045  3.967278  1.056373
  20217.322  20217.350  0.500  0.509761  6.594809  3.961100  1.082792
  20220.249  20220.240  0.500  0.509748  6.584999  3.955260  1.106589
  20223.212  20223.150  0.500  0.508534  6.579759  3.956911  1.124167
  20226.123  20226.070  0.500  0.507104  6.570826  3.957194  1.126062
  20229.106  20229.020  0.500  0.505644  6.565510  3.959771  1.119236
  20232.018  20231.990  0.500  0.504317  6.558886  3.961029  1.108389
  20234.949  20234.970  0.500  0.503415  6.552077  3.960489  1.101592
  20238.007  20237.980  0.500  0.502139  6.544022  3.960667  1.098796
  20241.030  20241.000  0.500  0.499344  6.535265  3.966439  1.097906
  20244.071  20244.050  0.500  0.496338  6.524960  3.972109  1.095402
  20247.204  20247.110  0.500  0.493230  6.517447  3.979884  1.090381
  20250.229  20250.190  0.500  0.491060  6.510467  3.984258  1.080981
  20253.256  20253.290  0.500  0.489102  6.505720  3.989156  1.070504
  20256.427  20256.410  0.500  0.486880  6.496560  3.992401  1.058808
