# XDI/1.0 BlueSky/1.5.3
# Beamline.name: 6BM
# Beamline.xray_source: NSLS-II three-pole wiggler
# Beamline.collimation: paraboloid mirror, 5 nm Rh on 30 nm Pt
# Beamline.focusing: not in use
# Beamline.harmonic_rejection: flat mirror, Si stripe, pitch = 7.0 mrad relative to beam
# Detector.i0: 10 cm N2
# Detector.i1: 25 cm N2
# Detector.i2: 25 cm N2
# Element.symbol: Mn
# Element.edge: K
# Facility.name: NSLS-II
# Facility.energy: 3.0
# Facility.current: 400.5
# Facility.mode: top-off
# Facility.gup: 305081
# Facility.saf: 305123
# Mono.name: Si(111)
# Mono.d_spacing: 3.1353241
# Mono.encoder_resolution: 0.0000050 deg/ct
# Mono.angle_offset: 16.0581090 deg
# Mono.scan_mode: fixed exit
# Mono.scan_type: step
# Mono.direction: forward in energy
# Sample.name: (Fe,Mn)WO4
# Sample.prep: Powder in polyethylene glycol pellet
# Sample.x_position: -120.140 mm
# Sample.y_position: 112.312 mm
# Scan.experimenters: Neil Hyatt, Martin Stennett, Lucy Mottram
# Scan.edge_energy: 6539.0
# Scan.start_time: 2019-11-11T16:36:13
# Scan.end_time: 2019-11-12T02:01:41
# Scan.transient_id: 17903
# Scan.uid: b79577cf-ac8c-48fa-a540-17be9d04a3cc
# Scan.plot_hint: ln(I0/It)  --  ln($5/$6)
# Scan.sequence: merge of 3 scans
# Column.1: energy eV
# Column.2: requested_energy eV
# Column.3: measurement_time seconds
# Column.4: mutrans
# Column.5: i0
# Column.6: itrans
# Column.7: irefer
# /////
#  Cumberland, Amber â€“ ID
# -----
# energy   requested_energy   measurement_time   mutrans   i0   itrans   irefer
6338.998000 6339.000000 0.500000 4.286224 89.701020 1.234002 0.282870
6349.013000 6349.000000 0.500000 4.269278 89.877769 1.257570 0.290679
6359.013000 6359.000000 0.500000 4.252490 90.043455 1.281209 0.297973
6369.016000 6369.000000 0.500000 4.235490 90.215092 1.305647 0.305159
6379.017000 6379.000000 0.500000 4.219399 90.403686 1.329607 0.313500
6389.014000 6389.000000 0.500000 4.202659 90.685430 1.356259 0.322174
6399.012000 6399.000000 0.500000 4.186222 90.852900 1.381286 0.329883
6409.011000 6409.000000 0.500000 4.169746 91.001466 1.406529 0.338453
6419.009000 6419.000000 0.500000 4.153477 91.153108 1.431976 0.346573
6429.006000 6429.000000 0.500000 4.137153 91.299324 1.457878 0.355774
6439.005000 6439.000000 0.500000 4.120718 91.520583 1.485627 0.364654
6449.006000 6449.000000 0.500000 4.104944 91.525154 1.509330 0.372618
6459.009000 6459.000000 0.500000 4.089213 91.511873 1.533043 0.380708
6469.004000 6469.000000 0.500000 4.073402 91.932256 1.564620 0.391454
6479.004000 6479.000000 0.500000 4.057586 92.080320 1.592132 0.400763
6489.001000 6489.000000 0.500000 4.041778 92.242581 1.620336 0.410600
6499.001000 6499.000000 0.500000 4.026037 92.414578 1.649114 0.420060
6509.435000 6509.000000 0.500000 4.010821 92.590803 1.678340 0.429893
6510.989000 6511.000000 0.500000 4.007859 92.601525 1.682756 0.431468
6512.990000 6513.000000 0.500000 4.004986 92.623792 1.688020 0.433544
6514.991000 6515.000000 0.500000 4.002031 92.654717 1.693575 0.434947
6516.981000 6517.000000 0.500000 3.998778 92.683328 1.699601 0.437087
6518.986000 6519.000000 0.500000 3.995555 92.711852 1.705607 0.438874
6521.246000 6521.000000 0.500000 3.992400 92.758962 1.712352 0.441305
6523.263000 6523.000000 0.500000 3.989090 92.792203 1.718331 0.442678
6524.992000 6525.000000 0.500000 3.985782 92.812127 1.723826 0.444620
6526.984000 6527.000000 0.500000 3.982726 92.841140 1.730055 0.446117
6528.983000 6529.000000 0.500000 3.979702 92.871994 1.735875 0.447851
6529.085000 6529.100000 0.500000 3.979557 92.879234 1.736278 0.448317
6529.183000 6529.200000 0.500000 3.979392 92.882433 1.736423 0.447699
6529.284000 6529.300000 0.500000 3.979281 92.882179 1.736802 0.447432
6529.384000 6529.400000 0.500000 3.979004 92.870396 1.737072 0.448067
6529.486000 6529.500000 0.500000 3.978891 92.857643 1.737015 0.448131
6529.585000 6529.600000 0.500000 3.978817 92.867201 1.737343 0.447751
6529.687000 6529.700000 0.500000 3.978641 92.853833 1.737391 0.448049
6529.788000 6529.800000 0.500000 3.978314 92.853740 1.737966 0.448406
6529.886000 6529.900000 0.500000 3.978286 92.859385 1.738108 0.448232
6529.985000 6530.000000 0.500000 3.978229 92.854724 1.738134 0.448356
6530.084000 6530.100000 0.500000 3.978031 92.846396 1.738313 0.447691
6530.186000 6530.200000 0.500000 3.977842 92.857716 1.738852 0.448388
6530.285000 6530.300000 0.500000 3.977463 92.863875 1.739623 0.448774
6530.385000 6530.400000 0.500000 3.977666 92.846697 1.738946 0.448087
6530.487000 6530.500000 0.500000 3.977450 92.850849 1.739401 0.448311
6530.588000 6530.600000 0.500000 3.977222 92.843003 1.739665 0.448489
6530.686000 6530.700000 0.500000 3.976920 92.857440 1.740440 0.448926
6530.785000 6530.800000 0.500000 3.976916 92.850881 1.740337 0.448701
6530.887000 6530.900000 0.500000 3.976698 92.854058 1.740775 0.448545
6530.988000 6531.000000 0.500000 3.976407 92.847284 1.741119 0.448629
6531.087000 6531.100000 0.500000 3.976293 92.855693 1.741503 0.448390
6531.191000 6531.200000 0.500000 3.976175 92.862731 1.741845 0.448852
6531.287000 6531.300000 0.500000 3.976209 92.853038 1.741593 0.448695
6531.388000 6531.400000 0.500000 3.976033 92.855274 1.741959 0.448976
6531.494000 6531.500000 0.500000 3.975612 92.865116 1.742882 0.448591
6531.591000 6531.600000 0.500000 3.975168 92.928054 1.744808 0.449362
6531.693000 6531.700000 0.500000 3.975278 92.972804 1.745456 0.449614
6531.795000 6531.800000 0.500000 3.975344 92.961414 1.745147 0.449476
6531.894000 6531.900000 0.500000 3.975010 92.963552 1.745759 0.449527
6531.995000 6532.000000 0.500000 3.975006 92.974552 1.745991 0.449894
6532.097000 6532.100000 0.500000 3.974750 92.973521 1.746392 0.450017
6532.197000 6532.200000 0.500000 3.974597 92.969299 1.746578 0.449677
6532.298000 6532.300000 0.500000 3.974496 92.965647 1.746718 0.449559
6532.397000 6532.400000 0.500000 3.974123 92.968557 1.747371 0.449421
6532.499000 6532.500000 0.500000 3.974026 92.968712 1.747578 0.449586
6532.598000 6532.600000 0.500000 3.974171 92.955905 1.747094 0.449482
6532.700000 6532.700000 0.500000 3.973826 92.956740 1.747693 0.449408
6532.802000 6532.800000 0.500000 3.973697 92.959240 1.748000 0.449829
6532.899000 6532.900000 0.500000 3.973414 92.952677 1.748324 0.449733
6532.998000 6533.000000 0.500000 3.973488 92.946393 1.748114 0.449308
6533.097000 6533.100000 0.500000 3.973204 92.947424 1.748595 0.449557
6533.197000 6533.200000 0.500000 3.973272 92.954637 1.748642 0.448915
6533.296000 6533.300000 0.500000 3.972925 92.956301 1.749246 0.449527
6533.398000 6533.400000 0.500000 3.972521 92.950665 1.749851 0.449600
6533.499000 6533.500000 0.500000 3.972404 92.955760 1.750164 0.449349
6533.596000 6533.600000 0.500000 3.972533 92.937369 1.749617 0.449228
6533.700000 6533.700000 0.500000 3.972199 92.946119 1.750290 0.449468
6533.795000 6533.800000 0.500000 3.971924 92.937370 1.750642 0.449262
6533.896000 6533.900000 0.500000 3.972000 92.934543 1.750507 0.449137
6533.996000 6534.000000 0.500000 3.971938 92.936696 1.750617 0.448664
6534.095000 6534.100000 0.500000 3.971549 92.936144 1.751279 0.449208
6534.194000 6534.200000 0.500000 3.971573 92.930988 1.751160 0.448958
6534.296000 6534.300000 0.500000 3.971491 92.929269 1.751266 0.448673
6534.395000 6534.400000 0.500000 3.971224 92.926286 1.751672 0.448004
6534.496000 6534.500000 0.500000 3.971052 92.928073 1.752025 0.448759
6534.598000 6534.600000 0.500000 3.970868 92.937338 1.752526 0.448254
6534.697000 6534.700000 0.500000 3.970665 92.931408 1.752760 0.448211
6534.796000 6534.800000 0.500000 3.970733 92.926162 1.752535 0.447674
6534.896000 6534.900000 0.500000 3.970418 92.930585 1.753169 0.447757
6535.000000 6535.000000 0.500000 3.970339 92.919536 1.753110 0.447497
6535.098000 6535.100000 0.500000 3.970334 92.917062 1.753066 0.447101
6535.198000 6535.200000 0.500000 3.970007 92.914327 1.753585 0.447272
6535.301000 6535.300000 0.500000 3.969710 92.916385 1.754151 0.446829
6535.398000 6535.400000 0.500000 3.969538 92.915180 1.754427 0.446344
6535.498000 6535.500000 0.500000 3.969557 92.914326 1.754377 0.446241
6535.602000 6535.600000 0.500000 3.969435 92.910999 1.754531 0.445787
6535.701000 6535.700000 0.500000 3.969272 92.904526 1.754702 0.445330
6535.800000 6535.800000 0.500000 3.969221 92.897199 1.754643 0.445022
6535.902000 6535.900000 0.500000 3.968800 92.897731 1.755384 0.444612
6536.000000 6536.000000 0.500000 3.968900 92.897933 1.755232 0.443523
6536.100000 6536.100000 0.500000 3.968621 92.900654 1.755753 0.443128
6536.204000 6536.200000 0.500000 3.968458 92.897786 1.756003 0.442372
6536.300000 6536.300000 0.500000 3.968278 92.880252 1.755971 0.441480
6536.399000 6536.400000 0.500000 3.968136 92.888024 1.756370 0.440453
6536.501000 6536.500000 0.500000 3.967937 92.891604 1.756793 0.439149
6536.603000 6536.600000 0.500000 3.967778 92.995084 1.759036 0.438260
6536.699000 6536.700000 0.500000 3.967642 92.994691 1.759260 0.436910
6536.799000 6536.800000 0.500000 3.967267 93.001776 1.760056 0.435233
6536.902000 6536.900000 0.500000 3.967465 92.997781 1.759653 0.432627
6536.997000 6537.000000 0.500000 3.967175 92.997662 1.760128 0.430533
6537.098000 6537.100000 0.500000 3.967301 92.988789 1.759751 0.427668
6537.200000 6537.200000 0.500000 3.967114 92.992281 1.760150 0.424240
6537.297000 6537.300000 0.500000 3.966848 92.981737 1.760417 0.421170
6537.396000 6537.400000 0.500000 3.966567 92.978613 1.760856 0.417574
6537.499000 6537.500000 0.500000 3.966638 92.974858 1.760654 0.413545
6537.596000 6537.600000 0.500000 3.966547 92.973699 1.760798 0.410070
6537.696000 6537.700000 0.500000 3.966372 92.968265 1.760995 0.405790
6537.799000 6537.800000 0.500000 3.965925 92.976181 1.761938 0.402305
6537.898000 6537.900000 0.500000 3.966109 92.978386 1.761663 0.398377
6537.997000 6538.000000 0.500000 3.965754 92.976501 1.762242 0.395111
6538.101000 6538.100000 0.500000 3.965711 92.993385 1.762641 0.392433
6538.196000 6538.200000 0.500000 3.965535 93.063664 1.764287 0.389768
6538.297000 6538.300000 0.500000 3.965160 93.070451 1.765072 0.386939
6538.401000 6538.400000 0.500000 3.965203 93.071853 1.765028 0.384330
6538.500000 6538.500000 0.500000 3.965051 93.072915 1.765317 0.382468
6538.599000 6538.600000 0.500000 3.964901 93.065474 1.765439 0.380767
6538.702000 6538.700000 0.500000 3.964685 93.059198 1.765702 0.378375
6538.801000 6538.800000 0.500000 3.964516 93.076084 1.766320 0.376690
6538.898000 6538.900000 0.500000 3.964601 93.064531 1.765952 0.375082
6539.002000 6539.000000 0.500000 3.964469 93.061255 1.766129 0.373262
6539.103000 6539.100000 0.500000 3.964062 93.061718 1.766843 0.372322
6539.202000 6539.200000 0.500000 3.963963 93.055481 1.766906 0.370946
6539.303000 6539.300000 0.500000 3.963802 93.048054 1.767053 0.369199
6539.402000 6539.400000 0.500000 3.963651 93.061968 1.767581 0.367859
6539.500000 6539.500000 0.500000 3.963473 93.053599 1.767739 0.366956
6539.603000 6539.600000 0.500000 3.963465 93.052419 1.767724 0.365517
6539.706000 6539.700000 0.500000 3.963404 93.059168 1.767964 0.364373
6539.801000 6539.800000 0.500000 3.963136 93.055650 1.768366 0.363677
6539.898000 6539.900000 0.500000 3.963255 93.041779 1.767899 0.362277
6540.001000 6540.000000 0.500000 3.962788 93.045807 1.768795 0.361625
6540.098000 6540.100000 0.500000 3.962866 93.046211 1.768673 0.360116
6540.199000 6540.200000 0.500000 3.962396 93.047079 1.769518 0.359589
6540.301000 6540.300000 0.500000 3.962550 93.042271 1.769160 0.358358
6540.400000 6540.400000 0.500000 3.962039 93.036121 1.769938 0.358159
6540.499000 6540.500000 0.500000 3.961907 93.054563 1.770523 0.357368
6540.600000 6540.600000 0.500000 3.961776 93.045282 1.770578 0.356481
6540.697000 6540.700000 0.500000 3.961544 93.034013 1.770760 0.356178
6540.796000 6540.800000 0.500000 3.961745 93.036567 1.770480 0.355380
6540.901000 6540.900000 0.500000 3.961367 93.043277 1.771279 0.355289
6540.998000 6541.000000 0.500000 3.961405 93.032074 1.770984 0.354648
6541.097000 6541.100000 0.500000 3.961316 93.035302 1.771207 0.354367
6541.199000 6541.200000 0.500000 3.960994 93.023260 1.771547 0.354128
6541.295000 6541.300000 0.500000 3.960945 93.025048 1.771669 0.354096
6541.397000 6541.400000 0.500000 3.960545 93.030695 1.772488 0.354336
6541.500000 6541.500000 0.500000 3.960478 93.035481 1.772690 0.354130
6541.599000 6541.600000 0.500000 3.960442 93.026412 1.772586 0.354087
6541.698000 6541.700000 0.500000 3.960178 93.028544 1.773095 0.353975
6541.799000 6541.800000 0.500000 3.960092 93.023141 1.773151 0.354236
6541.901000 6541.900000 0.500000 3.959986 93.018982 1.773255 0.353604
6541.999000 6542.000000 0.500000 3.959939 93.025807 1.773463 0.353377
6542.100000 6542.100000 0.500000 3.959631 93.026142 1.774021 0.353323
6542.200000 6542.200000 0.500000 3.959570 93.028575 1.774176 0.352940
6542.299000 6542.300000 0.500000 3.959431 93.017517 1.774204 0.352626
6542.400000 6542.400000 0.500000 3.959360 93.012265 1.774240 0.351909
6542.503000 6542.500000 0.500000 3.959268 93.010280 1.774355 0.351631
6542.600000 6542.600000 0.500000 3.959446 93.008855 1.774026 0.350694
6542.703000 6542.700000 0.500000 3.959044 93.014654 1.774848 0.350517
6542.805000 6542.800000 0.500000 3.958984 93.010774 1.774876 0.349772
6542.903000 6542.900000 0.500000 3.958623 93.007242 1.775450 0.349344
6543.002000 6543.000000 0.500000 3.958289 93.001972 1.775934 0.348266
6543.104000 6543.100000 0.500000 3.958331 93.003072 1.775883 0.347269
6543.202000 6543.200000 0.500000 3.958336 92.997805 1.775776 0.347403
6543.301000 6543.300000 0.500000 3.958232 92.994669 1.775897 0.346393
6543.403000 6543.400000 0.500000 3.958107 93.002786 1.776278 0.345639
6543.503000 6543.500000 0.500000 3.958053 92.998841 1.776300 0.344562
6543.600000 6543.600000 0.500000 3.957907 92.991584 1.776419 0.344453
6543.701000 6543.700000 0.500000 3.957586 92.987746 1.776912 0.343970
6543.802000 6543.800000 0.500000 3.957756 92.990360 1.776674 0.343030
6543.901000 6543.900000 0.500000 3.957348 92.986238 1.777311 0.342586
6544.000000 6544.000000 0.500000 3.957257 92.993782 1.777608 0.341968
6544.099000 6544.100000 0.500000 3.957424 92.986629 1.777180 0.341176
6544.198000 6544.200000 0.500000 3.957318 92.988761 1.777417 0.340466
6544.297000 6544.300000 0.500000 3.957200 92.983600 1.777521 0.339845
6544.400000 6544.400000 0.500000 3.957152 92.975739 1.777461 0.338927
6544.495000 6544.500000 0.500000 3.957273 92.953575 1.776816 0.337939
6544.596000 6544.600000 0.500000 3.957036 92.978921 1.777726 0.337856
6544.699000 6544.700000 0.500000 3.956851 93.020556 1.778849 0.337468
6544.796000 6544.800000 0.500000 3.956865 93.008686 1.778607 0.336091
6544.897000 6544.900000 0.500000 3.956893 93.012362 1.778620 0.335585
6544.996000 6545.000000 0.500000 3.956869 93.044844 1.779274 0.335011
6545.095000 6545.100000 0.500000 3.956547 93.046034 1.779863 0.334607
6545.193000 6545.200000 0.500000 3.956397 93.047600 1.780173 0.333409
6545.301000 6545.300000 0.500000 3.956429 93.050482 1.780169 0.332335
6545.402000 6545.400000 0.500000 3.956302 93.043320 1.780259 0.332252
6545.501000 6545.500000 0.500000 3.956486 93.049689 1.780060 0.330601
6545.602000 6545.600000 0.500000 3.956323 93.049927 1.780345 0.330166
6545.703000 6545.700000 0.500000 3.956154 93.036230 1.780381 0.329399
6545.798000 6545.800000 0.500000 3.955882 93.037141 1.780882 0.328775
6545.899000 6545.900000 0.500000 3.955982 93.036930 1.780730 0.327362
6546.006000 6546.000000 0.500000 3.956194 93.033203 1.780272 0.326159
6546.103000 6546.100000 0.500000 3.956082 93.032763 1.780447 0.325745
6546.200000 6546.200000 0.500000 3.955805 93.030732 1.780899 0.324392
6546.303000 6546.300000 0.500000 3.955954 93.034020 1.780707 0.323534
6546.399000 6546.400000 0.500000 3.955743 93.027255 1.780938 0.322704
6546.500000 6546.500000 0.500000 3.955692 93.033604 1.781162 0.321462
6546.606000 6546.600000 0.500000 3.955484 93.031837 1.781490 0.320881
6546.702000 6546.700000 0.500000 3.955687 93.032510 1.781157 0.319319
6546.801000 6546.800000 0.500000 3.955595 93.021765 1.781096 0.318269
6546.900000 6546.900000 0.500000 3.955483 93.017800 1.781235 0.317426
6547.001000 6547.000000 0.500000 3.955436 93.013820 1.781243 0.316192
6547.099000 6547.100000 0.500000 3.955188 93.021745 1.781827 0.315069
6547.201000 6547.200000 0.500000 3.955245 93.017136 1.781633 0.314184
6547.301000 6547.300000 0.500000 3.955288 93.015781 1.781536 0.313037
6547.400000 6547.400000 0.500000 3.955122 93.007462 1.781666 0.312168
6547.499000 6547.500000 0.500000 3.955009 93.007797 1.781881 0.311166
6547.598000 6547.600000 0.500000 3.954939 93.012545 1.782097 0.309885
6547.696000 6547.700000 0.500000 3.954822 93.012473 1.782295 0.309100
6547.798000 6547.800000 0.500000 3.954558 93.007687 1.782664 0.308168
6547.899000 6547.900000 0.500000 3.954554 93.006860 1.782675 0.306642
6547.999000 6548.000000 0.500000 3.954389 93.001575 1.782872 0.305955
6548.098000 6548.100000 0.500000 3.954124 93.007104 1.783447 0.305305
6548.199000 6548.200000 0.500000 3.954508 93.003272 1.782706 0.303390
6548.296000 6548.300000 0.500000 3.954162 93.002136 1.783281 0.302988
6548.396000 6548.400000 0.500000 3.954324 92.993896 1.782844 0.301437
6548.498000 6548.500000 0.500000 3.954246 92.979858 1.782708 0.299809
6548.599000 6548.600000 0.500000 3.953833 92.979202 1.783432 0.299494
6548.697000 6548.700000 0.500000 3.953738 92.987397 1.783749 0.298759
6548.802000 6548.800000 0.500000 3.953708 92.997625 1.784012 0.297358
6548.901000 6548.900000 0.500000 3.953515 92.997110 1.784336 0.296232
6549.000000 6549.000000 0.500000 3.953586 92.981911 1.783920 0.294990
6549.103000 6549.100000 0.500000 3.953461 92.972025 1.783960 0.294226
6549.199000 6549.200000 0.500000 3.953441 92.969209 1.783936 0.293121
6549.301000 6549.300000 0.500000 3.953396 92.976507 1.784160 0.292327
6549.404000 6549.400000 0.500000 3.953037 92.975875 1.784779 0.291020
6549.504000 6549.500000 0.500000 3.953224 92.970576 1.784358 0.289912
6549.601000 6549.600000 0.500000 3.952989 93.035234 1.786003 0.289781
6549.706000 6549.700000 0.500000 3.953007 93.079879 1.786850 0.288626
6549.803000 6549.800000 0.500000 3.952906 93.075105 1.786924 0.287921
6549.902000 6549.900000 0.500000 3.952772 93.094520 1.787545 0.286720
6550.005000 6550.000000 0.500000 3.952803 93.079242 1.787189 0.285812
6550.106000 6550.100000 0.500000 3.952896 93.085247 1.787164 0.285031
6550.200000 6550.200000 0.500000 3.952614 93.085258 1.787640 0.284550
6550.303000 6550.300000 0.500000 3.952545 93.080941 1.787686 0.283486
6550.404000 6550.400000 0.500000 3.952287 93.076109 1.788049 0.282706
6550.502000 6550.500000 0.500000 3.952401 93.069521 1.787741 0.281766
6550.599000 6550.600000 0.500000 3.952129 93.064676 1.788098 0.280989
6550.700000 6550.700000 0.500000 3.952018 93.069697 1.788409 0.279830
6550.798000 6550.800000 0.500000 3.951928 93.070248 1.788577 0.279746
6550.899000 6550.900000 0.500000 3.951699 93.068426 1.788958 0.278887
6551.000000 6551.000000 0.500000 3.951543 93.058533 1.789041 0.278097
6551.100000 6551.100000 0.500000 3.951702 93.056833 1.788734 0.277105
6551.197000 6551.200000 0.500000 3.951579 93.107680 1.789927 0.276959
6551.300000 6551.300000 0.500000 3.951022 93.154021 1.791823 0.276511
6551.398000 6551.400000 0.500000 3.950927 93.146468 1.791831 0.275677
6551.495000 6551.500000 0.500000 3.950705 93.152597 1.792358 0.274955
6551.598000 6551.600000 0.500000 3.950712 93.136740 1.792040 0.274053
6551.697000 6551.700000 0.500000 3.950568 93.137201 1.792303 0.273690
6551.798000 6551.800000 0.500000 3.950291 93.138737 1.792833 0.272872
6551.898000 6551.900000 0.500000 3.950067 93.130102 1.793069 0.271998
6552.001000 6552.000000 0.500000 3.949917 93.137527 1.793499 0.271549
6552.097000 6552.100000 0.500000 3.949504 93.129097 1.794047 0.270672
6552.199000 6552.200000 0.500000 3.949230 93.134498 1.794655 0.270583
6552.302000 6552.300000 0.500000 3.949285 93.129571 1.794467 0.270076
6552.400000 6552.400000 0.500000 3.949081 93.125832 1.794738 0.268475
6552.501000 6552.500000 0.500000 3.948685 93.124372 1.795433 0.268651
6552.602000 6552.600000 0.500000 3.948598 93.114387 1.795401 0.267884
