# XDI/1.0 BlueSky/1.5.3
# Beamline.name: 6BM
# Beamline.xray_source: NSLS-II three-pole wiggler
# Beamline.collimation: paraboloid mirror, 5 nm Rh on 30 nm Pt
# Beamline.focusing: not in use
# Beamline.harmonic_rejection: flat mirror, Si stripe, pitch = 7.0 mrad relative to beam
# Detector.i0: 10 cm N2
# Detector.i1: 25 cm N2
# Detector.i2: 25 cm N2
# Element.symbol: Mn
# Element.edge: K
# Facility.name: NSLS-II
# Facility.energy: 3.0
# Facility.current: 400.4
# Facility.mode: top-off
# Facility.gup: 305081
# Facility.saf: 305123
# Mono.name: Si(111)
# Mono.d_spacing: 3.1353241
# Mono.encoder_resolution: 0.0000050 deg/ct
# Mono.angle_offset: 16.0581090 deg
# Mono.scan_mode: fixed exit
# Mono.scan_type: step
# Mono.direction: forward in energy
# Sample.name: Ca2(Al,Mn3+,Fe3+)3(SiO4)(Si2O7)O(OH)
# Sample.prep: Powder in polyethylene glycol pellet
# Sample.x_position: -120.140 mm
# Sample.y_position: 112.312 mm
# Scan.experimenters: Neil Hyatt, Martin Stennett, Lucy Mottram
# Scan.edge_energy: 6539.0
# Scan.start_time: 2019-11-11T19:53:30
# Scan.end_time: 2019-11-11T20:31:41
# Scan.transient_id: 17913
# Scan.uid: 48b966b6-211f-4913-8b46-9dd479bb4812
# Scan.plot_hint: ln(I0/It)  --  ln($5/$6)
# Scan.sequence: merge of 2 scans
# Column.1: energy eV
# Column.2: requested_energy eV
# Column.3: measurement_time seconds
# Column.4: mutrans
# Column.5: i0
# Column.6: itrans
# Column.7: irefer
# /////
#  nr Pilar, Taos Co., NM
# -----
# energy   requested_energy   measurement_time   mutrans   i0   itrans   irefer
6338.999000 6339.000000 0.500000 4.078109 90.028721 1.525075 0.350185
6349.010000 6349.000000 0.500000 4.062660 90.190056 1.551621 0.358932
6359.013000 6359.000000 0.500000 4.041790 90.362861 1.587335 0.369615
6369.024000 6369.000000 0.500000 4.021075 90.535734 1.623642 0.380682
6379.016000 6379.000000 0.500000 4.000742 90.717491 1.660320 0.392311
6389.019000 6389.000000 0.500000 3.980371 90.886157 1.697645 0.403744
6399.017000 6399.000000 0.500000 3.960109 91.019143 1.734922 0.414900
6409.018000 6409.000000 0.500000 3.940241 91.185897 1.772971 0.426769
6419.016000 6419.000000 0.500000 3.919675 91.361398 1.813308 0.439893
6429.013000 6429.000000 0.500000 3.899610 91.493135 1.852721 0.451922
6439.009000 6439.000000 0.500000 3.879854 91.633468 1.892578 0.464595
6449.009000 6449.000000 0.500000 3.860644 91.627132 1.929158 0.476379
6459.007000 6459.000000 0.500000 3.840980 91.615419 1.967205 0.489319
6469.004000 6469.000000 0.500000 3.821753 92.038851 2.014671 0.504027
6479.008000 6479.000000 0.500000 3.802355 92.178817 2.057264 0.517951
6489.005000 6489.000000 0.500000 3.783132 92.367401 2.101475 0.532195
6499.006000 6499.000000 0.500000 3.764358 92.541548 2.145341 0.546697
6508.958000 6509.000000 0.500000 3.744474 92.611883 2.190099 0.561460
6510.993000 6511.000000 0.500000 3.741374 92.714102 2.199316 0.564408
6512.988000 6513.000000 0.500000 3.737761 92.734254 2.207759 0.567118
6514.994000 6515.000000 0.500000 3.733884 92.765048 2.217070 0.570047
6516.989000 6517.000000 0.500000 3.730224 92.806562 2.226184 0.573241
6518.995000 6519.000000 0.500000 3.726006 92.819829 2.234946 0.575509
6521.414000 6521.000000 0.500000 3.722315 92.853285 2.245088 0.578821
6522.985000 6523.000000 0.500000 3.719005 92.856715 2.252470 0.580445
6525.237000 6525.000000 0.500000 3.715315 92.907575 2.262629 0.583564
6526.986000 6527.000000 0.500000 3.711567 92.939250 2.271361 0.585935
6528.988000 6529.000000 0.500000 3.707898 92.962935 2.280287 0.588357
6529.092000 6529.100000 0.500000 3.707559 92.945832 2.280650 0.588479
6529.269000 6529.200000 0.500000 3.707311 92.940641 2.281468 0.588928
6529.282000 6529.300000 0.500000 3.707289 92.920689 2.280633 0.588960
6529.382000 6529.400000 0.500000 3.707258 92.916779 2.280620 0.588138
6529.483000 6529.500000 0.500000 3.707104 92.927444 2.281233 0.588713
6529.581000 6529.600000 0.500000 3.706800 92.902494 2.281304 0.589223
6529.682000 6529.700000 0.500000 3.706726 92.885650 2.281065 0.588458
6529.786000 6529.800000 0.500000 3.706580 92.899430 2.281756 0.588635
6529.885000 6529.900000 0.500000 3.706399 92.900881 2.282178 0.588829
6529.985000 6530.000000 0.500000 3.706029 92.889674 2.282755 0.588588
6530.085000 6530.100000 0.500000 3.705883 92.883961 2.282949 0.589108
6530.184000 6530.200000 0.500000 3.705739 92.896280 2.283572 0.589179
6530.285000 6530.300000 0.500000 3.705715 92.865677 2.282882 0.588723
6530.387000 6530.400000 0.500000 3.705132 92.892369 2.284869 0.589205
6530.484000 6530.500000 0.500000 3.705338 92.882553 2.284159 0.589346
6530.588000 6530.600000 0.500000 3.704925 92.882914 2.285111 0.589277
6530.692000 6530.700000 0.500000 3.704721 92.896926 2.285934 0.589395
6530.787000 6530.800000 0.500000 3.704584 92.899250 2.286297 0.589709
6530.893000 6530.900000 0.500000 3.704194 92.885280 2.286845 0.589662
6530.995000 6531.000000 0.500000 3.704180 92.881639 2.286796 0.589536
6531.094000 6531.100000 0.500000 3.704112 92.870360 2.286673 0.589451
6531.194000 6531.200000 0.500000 3.703827 92.878506 2.287538 0.589739
6531.296000 6531.300000 0.500000 3.703609 92.878804 2.288021 0.589821
6531.395000 6531.400000 0.500000 3.703511 92.879822 2.288280 0.590048
6531.490000 6531.500000 0.500000 3.703272 92.873866 2.288667 0.590044
6531.598000 6531.600000 0.500000 3.703298 92.863921 2.288357 0.590064
6531.695000 6531.700000 0.500000 3.703023 92.869853 2.289154 0.589875
6531.795000 6531.800000 0.500000 3.702811 92.885638 2.290014 0.590223
6531.901000 6531.900000 0.500000 3.702412 92.870980 2.290566 0.590803
6531.998000 6532.000000 0.500000 3.702507 92.861812 2.290127 0.590087
6532.100000 6532.100000 0.500000 3.702403 92.867078 2.290512 0.590408
6532.205000 6532.200000 0.500000 3.702135 92.870580 2.291203 0.590355
6532.307000 6532.300000 0.500000 3.701855 92.871847 2.291836 0.590340
6532.402000 6532.400000 0.500000 3.701949 92.864512 2.291495 0.590053
6532.511000 6532.500000 0.500000 3.701620 92.851687 2.291853 0.589488
6532.605000 6532.600000 0.500000 3.701603 92.849466 2.291962 0.589759
6532.702000 6532.700000 0.500000 3.701172 92.856203 2.293056 0.589933
6532.797000 6532.800000 0.500000 3.701097 92.862024 2.293350 0.590379
6532.905000 6532.900000 0.500000 3.700860 92.868157 2.294057 0.590300
6533.009000 6533.000000 0.500000 3.700607 92.853576 2.294316 0.590227
6533.108000 6533.100000 0.500000 3.700169 92.843573 2.295016 0.589828
6533.206000 6533.200000 0.500000 3.700471 92.841508 2.294304 0.589682
6533.303000 6533.300000 0.500000 3.700044 92.857731 2.295687 0.590341
6533.404000 6533.400000 0.500000 3.699987 92.866454 2.296021 0.589943
6533.501000 6533.500000 0.500000 3.699883 92.859579 2.296114 0.589975
6533.605000 6533.600000 0.500000 3.699334 92.845435 2.296995 0.590254
6533.700000 6533.700000 0.500000 3.699078 92.848382 2.297649 0.590456
6533.801000 6533.800000 0.500000 3.699270 92.846139 2.297177 0.589681
6533.899000 6533.900000 0.500000 3.699220 92.860590 2.297645 0.589708
6534.002000 6534.000000 0.500000 3.698969 92.836093 2.297614 0.589729
6534.097000 6534.100000 0.500000 3.698616 92.835833 2.298401 0.589746
6534.199000 6534.200000 0.500000 3.698405 92.833576 2.298827 0.589988
6534.302000 6534.300000 0.500000 3.698342 93.031139 2.303894 0.590729
6534.399000 6534.400000 0.500000 3.698243 93.040501 2.304343 0.590398
6534.498000 6534.500000 0.500000 3.698016 93.036505 2.304763 0.590827
6534.598000 6534.600000 0.500000 3.697749 93.040168 2.305481 0.590589
6534.695000 6534.700000 0.500000 3.697452 93.029375 2.305853 0.590111
6534.799000 6534.800000 0.500000 3.697725 93.035710 2.305419 0.589605
6534.902000 6534.900000 0.500000 3.697310 93.028123 2.306190 0.589903
6535.000000 6535.000000 0.500000 3.697203 93.030215 2.306477 0.589288
6535.099000 6535.100000 0.500000 3.696988 93.032181 2.307020 0.588656
6535.202000 6535.200000 0.500000 3.696849 93.022671 2.307123 0.588760
6535.297000 6535.300000 0.500000 3.696512 93.013797 2.307643 0.588578
6535.399000 6535.400000 0.500000 3.696574 93.025739 2.307820 0.587762
6535.502000 6535.500000 0.500000 3.696127 93.031495 2.308993 0.587270
6535.602000 6535.600000 0.500000 3.696298 93.019182 2.308292 0.586573
6535.699000 6535.700000 0.500000 3.695704 93.016896 2.309606 0.586204
6535.804000 6535.800000 0.500000 3.695880 93.020029 2.309326 0.585465
6535.902000 6535.900000 0.500000 3.695306 93.027964 2.310799 0.585067
6536.003000 6536.000000 0.500000 3.695429 93.015680 2.310217 0.583737
6536.102000 6536.100000 0.500000 3.695285 93.014481 2.310513 0.583560
6536.203000 6536.200000 0.500000 3.695008 93.023650 2.311383 0.581852
6536.298000 6536.300000 0.500000 3.694887 93.025819 2.311708 0.580900
6536.404000 6536.400000 0.500000 3.694805 93.042807 2.312344 0.579963
6536.503000 6536.500000 0.500000 3.694387 93.169164 2.316437 0.579136
6536.600000 6536.600000 0.500000 3.694509 93.166634 2.316090 0.577595
6536.700000 6536.700000 0.500000 3.694277 93.176362 2.316877 0.575198
6536.803000 6536.800000 0.500000 3.694026 93.175141 2.317442 0.572408
6536.902000 6536.900000 0.500000 3.693669 93.187647 2.318559 0.570120
6537.001000 6537.000000 0.500000 3.693797 93.169055 2.317799 0.566601
6537.101000 6537.100000 0.500000 3.693726 93.158497 2.317724 0.562879
6537.197000 6537.200000 0.500000 3.693327 93.153160 2.318475 0.558837
6537.297000 6537.300000 0.500000 3.693201 93.170926 2.319233 0.554937
6537.400000 6537.400000 0.500000 3.693383 93.163009 2.318619 0.548865
6537.497000 6537.500000 0.500000 3.693167 93.165755 2.319163 0.544484
6537.598000 6537.600000 0.500000 3.692868 93.160359 2.319735 0.539530
6537.698000 6537.700000 0.500000 3.692903 93.154385 2.319500 0.534277
6537.795000 6537.800000 0.500000 3.693129 93.152281 2.318950 0.529285
6537.898000 6537.900000 0.500000 3.693045 93.152810 2.319149 0.523835
6538.000000 6538.000000 0.500000 3.692827 93.160020 2.319818 0.519379
6538.097000 6538.100000 0.500000 3.692802 93.170723 2.320155 0.516068
6538.195000 6538.200000 0.500000 3.692756 93.159253 2.319972 0.512136
6538.299000 6538.300000 0.500000 3.692858 93.151324 2.319537 0.508757
6538.396000 6538.400000 0.500000 3.692845 93.151413 2.319573 0.505054
6538.497000 6538.500000 0.500000 3.693170 93.142415 2.318597 0.501938
6538.601000 6538.600000 0.500000 3.692841 93.133084 2.319127 0.499178
6538.702000 6538.700000 0.500000 3.692862 93.133509 2.319085 0.496941
6538.801000 6538.800000 0.500000 3.692749 93.138786 2.319477 0.494385
6538.901000 6538.900000 0.500000 3.692515 93.135773 2.319942 0.492566
6538.999000 6539.000000 0.500000 3.692648 93.135367 2.319628 0.490358
6539.098000 6539.100000 0.500000 3.692680 93.147967 2.319866 0.488298
6539.202000 6539.200000 0.500000 3.692407 93.138091 2.320246 0.486579
6539.303000 6539.300000 0.500000 3.692217 93.124312 2.320348 0.484681
6539.400000 6539.400000 0.500000 3.691995 93.129640 2.320987 0.483248
6539.504000 6539.500000 0.500000 3.691767 93.128526 2.321481 0.481982
6539.603000 6539.600000 0.500000 3.692018 93.123097 2.320792 0.479731
6539.700000 6539.700000 0.500000 3.691432 93.117490 2.321974 0.478714
6539.805000 6539.800000 0.500000 3.691171 93.111075 2.322472 0.477090
6539.904000 6539.900000 0.500000 3.690844 93.130896 2.323702 0.476184
6540.001000 6540.000000 0.500000 3.690762 93.134704 2.323988 0.474538
6540.101000 6540.100000 0.500000 3.690341 93.133837 2.324945 0.474066
6540.202000 6540.200000 0.500000 3.690359 93.123347 2.324655 0.472781
6540.299000 6540.300000 0.500000 3.689936 93.101962 2.325078 0.471576
6540.398000 6540.400000 0.500000 3.689939 93.110424 2.325300 0.470068
6540.503000 6540.500000 0.500000 3.689815 93.141110 2.326341 0.468915
6540.600000 6540.600000 0.500000 3.689713 93.140934 2.326582 0.468236
6540.699000 6540.700000 0.500000 3.689626 93.110343 2.326028 0.467411
6540.802000 6540.800000 0.500000 3.689353 93.110297 2.326661 0.466757
6540.897000 6540.900000 0.500000 3.689138 93.117966 2.327343 0.466826
6540.996000 6541.000000 0.500000 3.689084 93.129361 2.327753 0.466672
6541.100000 6541.100000 0.500000 3.688874 93.117685 2.327975 0.466283
6541.198000 6541.200000 0.500000 3.688681 93.109266 2.328189 0.465543
6541.297000 6541.300000 0.500000 3.688509 93.105880 2.328507 0.465278
6541.401000 6541.400000 0.500000 3.688664 93.119555 2.328528 0.465543
6541.496000 6541.500000 0.500000 3.688211 93.117149 2.329453 0.465605
6541.597000 6541.600000 0.500000 3.688349 93.126421 2.329403 0.465380
6541.700000 6541.700000 0.500000 3.688090 93.132809 2.330159 0.465814
6541.799000 6541.800000 0.500000 3.687924 93.124343 2.330334 0.465630
6541.898000 6541.900000 0.500000 3.687717 93.107057 2.330377 0.464921
6541.999000 6542.000000 0.500000 3.687487 93.099704 2.330728 0.464717
6542.100000 6542.100000 0.500000 3.687455 93.112829 2.331140 0.464126
6542.199000 6542.200000 0.500000 3.687427 93.106960 2.331058 0.463678
6542.303000 6542.300000 0.500000 3.687364 93.113886 2.331392 0.463378
6542.402000 6542.400000 0.500000 3.687064 93.130942 2.332504 0.463257
6542.499000 6542.500000 0.500000 3.687052 93.127626 2.332450 0.462190
6542.602000 6542.600000 0.500000 3.687060 93.114919 2.332112 0.461294
6542.705000 6542.700000 0.500000 3.686826 93.106970 2.332460 0.460472
6542.800000 6542.800000 0.500000 3.686840 93.102020 2.332315 0.459763
6542.903000 6542.900000 0.500000 3.686885 93.118824 2.332617 0.458618
6543.004000 6543.000000 0.500000 3.686671 93.110698 2.332917 0.457779
6543.101000 6543.100000 0.500000 3.686723 93.115960 2.332926 0.456874
6543.204000 6543.200000 0.500000 3.686511 93.112626 2.333331 0.455990
6543.304000 6543.300000 0.500000 3.686594 93.102250 2.332881 0.455201
6543.400000 6543.400000 0.500000 3.686531 93.099707 2.332967 0.453504
6543.503000 6543.500000 0.500000 3.686480 93.099890 2.333081 0.452267
6543.602000 6543.600000 0.500000 3.686647 93.106144 2.332856 0.451741
6543.701000 6543.700000 0.500000 3.686830 93.106979 2.332451 0.450913
6543.800000 6543.800000 0.500000 3.686849 93.101849 2.332276 0.449694
6543.899000 6543.900000 0.500000 3.686751 93.104329 2.332568 0.449451
6543.998000 6544.000000 0.500000 3.686852 93.100355 2.332232 0.448134
6544.097000 6544.100000 0.500000 3.687189 93.096777 2.331358 0.447678
6544.202000 6544.200000 0.500000 3.687024 93.095623 2.331666 0.446305
6544.299000 6544.300000 0.500000 3.687175 93.099802 2.331465 0.445816
6544.394000 6544.400000 0.500000 3.687197 93.110220 2.331677 0.444233
6544.497000 6544.500000 0.500000 3.687423 93.108393 2.331089 0.443855
6544.598000 6544.600000 0.500000 3.687931 93.091639 2.329513 0.442100
6544.694000 6544.700000 0.500000 3.688109 93.097741 2.329248 0.441461
6544.798000 6544.800000 0.500000 3.688442 93.090984 2.328291 0.440140
6544.897000 6544.900000 0.500000 3.688402 93.084050 2.328213 0.439348
6544.998000 6545.000000 0.500000 3.689086 93.096344 2.326948 0.437942
6545.097000 6545.100000 0.500000 3.689358 93.106732 2.326548 0.436864
6545.200000 6545.200000 0.500000 3.689736 93.104307 2.325614 0.435163
6545.294000 6545.300000 0.500000 3.689926 93.083667 2.324678 0.434572
6545.396000 6545.400000 0.500000 3.690284 93.073289 2.323589 0.432530
6545.501000 6545.500000 0.500000 3.690611 93.077534 2.322915 0.431254
6545.600000 6545.600000 0.500000 3.691050 93.095913 2.322351 0.430194
6545.697000 6545.700000 0.500000 3.691460 93.113561 2.321840 0.428944
6545.802000 6545.800000 0.500000 3.692210 93.083214 2.319342 0.427429
6545.901000 6545.900000 0.500000 3.692373 93.084794 2.319004 0.425984
6545.999000 6546.000000 0.500000 3.692690 93.075975 2.318076 0.424797
6546.103000 6546.100000 0.500000 3.693613 93.078343 2.315957 0.423060
6546.200000 6546.200000 0.500000 3.693993 93.093564 2.315494 0.421624
6546.300000 6546.300000 0.500000 3.694488 93.083715 2.314110 0.420101
6546.402000 6546.400000 0.500000 3.694853 93.065714 2.312787 0.418869
6546.503000 6546.500000 0.500000 3.695839 93.072672 2.310698 0.416468
6546.601000 6546.600000 0.500000 3.696220 93.071820 2.309793 0.415180
6546.705000 6546.700000 0.500000 3.697026 93.076987 2.308038 0.413364
6546.803000 6546.800000 0.500000 3.697672 93.079221 2.306586 0.411612
6546.902000 6546.900000 0.500000 3.698307 93.071609 2.304956 0.410029
6547.001000 6547.000000 0.500000 3.698944 93.067928 2.303369 0.408758
6547.102000 6547.100000 0.500000 3.699842 93.065602 2.301271 0.406770
6547.200000 6547.200000 0.500000 3.700662 93.068859 2.299475 0.405348
6547.301000 6547.300000 0.500000 3.701323 93.069696 2.297969 0.403308
6547.402000 6547.400000 0.500000 3.702203 93.257818 2.300565 0.402463
6547.499000 6547.500000 0.500000 3.703038 93.229010 2.298004 0.400848
6547.600000 6547.600000 0.500000 3.704174 93.226713 2.295274 0.399055
6547.701000 6547.700000 0.500000 3.704789 93.235812 2.294071 0.397241
6547.797000 6547.800000 0.500000 3.705899 93.255548 2.292129 0.395452
6547.896000 6547.900000 0.500000 3.706807 93.243166 2.289661 0.393950
6547.999000 6548.000000 0.500000 3.707769 93.233025 2.287211 0.392518
6548.096000 6548.100000 0.500000 3.708363 93.206952 2.285236 0.390713
6548.197000 6548.200000 0.500000 3.709512 93.217866 2.282809 0.388452
6548.298000 6548.300000 0.500000 3.710460 93.233974 2.281072 0.386620
6548.396000 6548.400000 0.500000 3.711105 93.243091 2.279863 0.384917
6548.497000 6548.500000 0.500000 3.712057 93.253469 2.277933 0.383018
6548.599000 6548.600000 0.500000 3.712440 93.221662 2.276274 0.381358
6548.699000 6548.700000 0.500000 3.713148 93.218848 2.274617 0.380235
6548.798000 6548.800000 0.500000 3.713621 93.213766 2.273394 0.378321
6548.899000 6548.900000 0.500000 3.714228 93.234956 2.272548 0.377671
6549.000000 6549.000000 0.500000 3.714830 93.244078 2.271399 0.375486
6549.099000 6549.100000 0.500000 3.715009 93.238760 2.270849 0.374860
6549.200000 6549.200000 0.500000 3.715706 93.223514 2.268898 0.372655
6549.300000 6549.300000 0.500000 3.716652 93.205448 2.266332 0.370846
6549.401000 6549.400000 0.500000 3.716992 93.210829 2.265673 0.369685
6549.502000 6549.500000 0.500000 3.717403 93.332874 2.267706 0.368568
6549.605000 6549.600000 0.500000 3.718056 93.340486 2.266412 0.367109
6549.700000 6549.700000 0.500000 3.718615 93.333054 2.264989 0.365339
6549.803000 6549.800000 0.500000 3.719079 93.332346 2.263878 0.364644
6549.902000 6549.900000 0.500000 3.720058 93.334376 2.261751 0.363083
6550.002000 6550.000000 0.500000 3.720540 93.341125 2.260821 0.360857
6550.103000 6550.100000 0.500000 3.721083 93.337194 2.259462 0.360312
6550.202000 6550.200000 0.500000 3.721647 93.331334 2.258074 0.358892
6550.300000 6550.300000 0.500000 3.722356 93.318123 2.256167 0.357249
6550.403000 6550.400000 0.500000 3.723105 93.343221 2.255052 0.355890
6550.504000 6550.500000 0.500000 3.723680 93.338477 2.253620 0.354332
6550.601000 6550.600000 0.500000 3.724580 93.323185 2.251274 0.353782
6550.699000 6550.700000 0.500000 3.724832 93.323326 2.250696 0.352475
6550.800000 6550.800000 0.500000 3.725735 93.318267 2.248518 0.351244
6550.899000 6550.900000 0.500000 3.726564 93.332110 2.247031 0.349809
6550.997000 6551.000000 0.500000 3.727100 93.335771 2.245897 0.348786
6551.101000 6551.100000 0.500000 3.728016 93.335775 2.243831 0.346844
6551.197000 6551.200000 0.500000 3.728471 93.324915 2.242565 0.345909
6551.296000 6551.300000 0.500000 3.729349 93.309511 2.240220 0.344503
6551.398000 6551.400000 0.500000 3.729869 93.313511 2.239151 0.343679
6551.497000 6551.500000 0.500000 3.730601 93.325062 2.237800 0.342695
6551.594000 6551.600000 0.500000 3.731275 93.321859 2.236250 0.341487
6551.701000 6551.700000 0.500000 3.731919 93.304259 2.234345 0.340030
6551.798000 6551.800000 0.500000 3.732191 93.293209 2.233469 0.339460
6551.898000 6551.900000 0.500000 3.732901 93.303695 2.232163 0.338826
6551.999000 6552.000000 0.500000 3.733486 93.325925 2.231344 0.337319
6552.100000 6552.100000 0.500000 3.733957 93.324817 2.230285 0.336456
6552.192000 6552.200000 0.500000 3.734184 93.304454 2.229325 0.335588
6552.297000 6552.300000 0.500000 3.734635 93.293652 2.228036 0.334218
6552.402000 6552.400000 0.500000 3.735199 93.289900 2.226679 0.333216
6552.501000 6552.500000 0.500000 3.735307 93.299294 2.226675 0.332683
