# XDI/1.0 BlueSky/1.5.3
# Beamline.name: 6BM
# Beamline.xray_source: NSLS-II three-pole wiggler
# Beamline.collimation: paraboloid mirror, 5 nm Rh on 30 nm Pt
# Beamline.focusing: not in use
# Beamline.harmonic_rejection: flat mirror, Si stripe, pitch = 7.0 mrad relative to beam
# Detector.i0: 10 cm N2
# Detector.i1: 25 cm N2
# Detector.i2: 25 cm N2
# Element.symbol: Mn
# Element.edge: K
# Facility.name: NSLS-II
# Facility.energy: 3.0
# Facility.current: 399.4
# Facility.mode: top-off
# Facility.gup: 305081
# Facility.saf: 305123
# Mono.name: Si(111)
# Mono.d_spacing: 3.1353241
# Mono.encoder_resolution: 0.0000050 deg/ct
# Mono.angle_offset: 16.0581090 deg
# Mono.scan_mode: fixed exit
# Mono.scan_type: step
# Mono.direction: forward in energy
# Sample.name: CaMnSi2O6 - LT
# Sample.prep: Powder in polyethylene glycol pellet
# Sample.x_position: -120.140 mm
# Sample.y_position: 112.312 mm
# Scan.experimenters: Neil Hyatt, Martin Stennett, Lucy Mottram
# Scan.edge_energy: 6539.0
# Scan.start_time: 2019-11-11T13:22:12
# Scan.end_time: 2019-11-11T22:09:21
# Scan.transient_id: 17893
# Scan.uid: a6dae641-e6e0-43e5-a9c2-374a0dabe858
# Scan.plot_hint: ln(I0/It)  --  ln($5/$6)
# Scan.sequence: merge of 3 scans
# Column.1: energy eV
# Column.2: requested_energy eV
# Column.3: measurement_time seconds
# Column.4: mutrans
# Column.5: i0
# Column.6: itrans
# Column.7: irefer
# /////
#  B â€“ Iron Cap Mine; Graham Country, Arizona
# -----
# energy   requested_energy   measurement_time   mutrans   i0   itrans   irefer
6338.999000 6339.000000 0.500000 3.664017 44.907917 1.150974 0.267033
6349.013000 6349.000000 0.500000 3.644947 45.022819 1.176109 0.274630
6359.013000 6359.000000 0.500000 3.625350 45.139346 1.202504 0.283161
6369.024000 6369.000000 0.500000 3.606268 45.259541 1.228944 0.291047
6379.019000 6379.000000 0.500000 3.587255 45.385310 1.256012 0.299810
6389.009000 6389.000000 0.500000 3.568508 45.503583 1.283087 0.308022
6399.013000 6399.000000 0.500000 3.549472 45.606777 1.310732 0.316474
6409.009000 6409.000000 0.500000 3.530888 45.712014 1.338392 0.325485
6419.012000 6419.000000 0.500000 3.512454 45.880122 1.368311 0.334534
6429.011000 6429.000000 0.500000 3.493571 45.969485 1.397113 0.344584
6439.007000 6439.000000 0.500000 3.475243 46.058374 1.425704 0.353467
6449.007000 6449.000000 0.500000 3.457335 46.055253 1.451366 0.362054
6459.005000 6459.000000 0.500000 3.438862 46.066502 1.478789 0.371557
6469.008000 6469.000000 0.500000 3.420950 46.280612 1.512511 0.382288
6478.999000 6479.000000 0.500000 3.403088 46.348735 1.542027 0.392213
6489.001000 6489.000000 0.500000 3.385236 46.445369 1.573074 0.402389
6498.956000 6499.000000 0.500000 3.367727 46.528495 1.603644 0.412525
6508.992000 6509.000000 0.500000 3.350280 46.547688 1.632672 0.422337
6510.993000 6511.000000 0.500000 3.347098 46.629926 1.640734 0.425120
6512.988000 6513.000000 0.500000 3.343734 46.641923 1.646686 0.427278
6514.992000 6515.000000 0.500000 3.340200 46.659190 1.653130 0.429372
6516.987000 6517.000000 0.500000 3.336691 46.676112 1.659537 0.431455
6518.991000 6519.000000 0.500000 3.333502 46.688269 1.665254 0.432900
6520.990000 6521.000000 0.500000 3.330449 46.714190 1.671318 0.434959
6522.990000 6523.000000 0.500000 3.327094 46.728296 1.677305 0.436927
6524.994000 6525.000000 0.500000 3.324252 46.747395 1.682867 0.438521
6526.989000 6527.000000 0.500000 3.321260 46.759208 1.688353 0.439690
6528.997000 6529.000000 0.500000 3.318290 46.771383 1.693823 0.441552
6529.090000 6529.100000 0.500000 3.318333 46.766328 1.693563 0.441276
6529.187000 6529.200000 0.500000 3.318067 46.768076 1.694052 0.441538
6529.284000 6529.300000 0.500000 3.317835 46.765868 1.694335 0.441635
6529.386000 6529.400000 0.500000 3.317998 46.763591 1.694127 0.441350
6529.485000 6529.500000 0.500000 3.317883 46.755232 1.693930 0.441734
6529.581000 6529.600000 0.500000 3.317263 46.754775 1.694934 0.441813
6529.684000 6529.700000 0.500000 3.317393 46.754017 1.694712 0.441437
6529.786000 6529.800000 0.500000 3.317105 46.749461 1.695029 0.441439
6529.885000 6529.900000 0.500000 3.317183 46.747642 1.694827 0.441631
6529.983000 6530.000000 0.500000 3.317186 46.753122 1.695028 0.441384
6530.085000 6530.100000 0.500000 3.317002 46.748856 1.695181 0.441693
6530.186000 6530.200000 0.500000 3.316558 46.743829 1.695744 0.441919
6530.283000 6530.300000 0.500000 3.316579 46.747752 1.695862 0.441760
6530.385000 6530.400000 0.500000 3.316501 46.752904 1.696157 0.442169
6530.487000 6530.500000 0.500000 3.316016 46.750703 1.696871 0.441877
6530.584000 6530.600000 0.500000 3.316157 46.747937 1.696584 0.441587
6530.685000 6530.700000 0.500000 3.316262 46.743243 1.696237 0.441761
6530.789000 6530.800000 0.500000 3.315994 46.738037 1.696478 0.441610
6530.889000 6530.900000 0.500000 3.315757 46.736763 1.696842 0.441868
6530.986000 6531.000000 0.500000 3.315828 46.739530 1.696856 0.441772
6531.092000 6531.100000 0.500000 3.315749 46.744072 1.697130 0.441677
6531.189000 6531.200000 0.500000 3.315270 46.739180 1.697727 0.441975
6531.289000 6531.300000 0.500000 3.315211 46.739410 1.697874 0.441997
6531.392000 6531.400000 0.500000 3.315072 46.740159 1.698133 0.441995
6531.494000 6531.500000 0.500000 3.315103 46.734970 1.697912 0.441879
6531.591000 6531.600000 0.500000 3.315157 46.740466 1.698005 0.441933
6531.695000 6531.700000 0.500000 3.314751 46.742434 1.698750 0.442093
6531.795000 6531.800000 0.500000 3.314717 46.740777 1.698789 0.441901
6531.892000 6531.900000 0.500000 3.314701 46.733872 1.698523 0.442079
6531.996000 6532.000000 0.500000 3.314617 46.733803 1.698683 0.441642
6532.099000 6532.100000 0.500000 3.314072 46.734734 1.699634 0.442042
6532.197000 6532.200000 0.500000 3.314011 46.737202 1.699830 0.442154
6532.298000 6532.300000 0.500000 3.314214 46.787362 1.701315 0.442404
6532.398000 6532.400000 0.500000 3.314149 46.791408 1.701559 0.442320
6532.497000 6532.500000 0.500000 3.313864 46.789647 1.701990 0.442646
6532.598000 6532.600000 0.500000 3.313923 46.789220 1.701874 0.442369
6532.700000 6532.700000 0.500000 3.313617 46.794770 1.702598 0.442311
6532.799000 6532.800000 0.500000 3.313578 46.856607 1.704904 0.442953
6532.896000 6532.900000 0.500000 3.313697 46.854926 1.704654 0.442747
6532.998000 6533.000000 0.500000 3.313600 46.849818 1.704638 0.442877
6533.099000 6533.100000 0.500000 3.313290 46.848973 1.705119 0.442813
6533.197000 6533.200000 0.500000 3.312897 46.851221 1.705865 0.442642
6533.300000 6533.300000 0.500000 3.313045 46.849143 1.705554 0.442639
6533.398000 6533.400000 0.500000 3.313227 46.845515 1.705116 0.442490
6533.499000 6533.500000 0.500000 3.312958 46.851110 1.705777 0.442794
6533.598000 6533.600000 0.500000 3.313097 46.851914 1.705559 0.442372
6533.696000 6533.700000 0.500000 3.312769 46.850564 1.706055 0.442454
6533.795000 6533.800000 0.500000 3.312731 46.852088 1.706217 0.442191
6533.896000 6533.900000 0.500000 3.312508 46.848941 1.706421 0.441865
6533.996000 6534.000000 0.500000 3.312441 46.847723 1.706517 0.441983
6534.095000 6534.100000 0.500000 3.312409 46.846317 1.706532 0.441774
6534.194000 6534.200000 0.500000 3.312330 46.849917 1.706784 0.441979
6534.298000 6534.300000 0.500000 3.312401 46.848263 1.706627 0.441445
6534.395000 6534.400000 0.500000 3.312187 46.847006 1.706906 0.441796
6534.496000 6534.500000 0.500000 3.312165 46.846009 1.706966 0.441602
6534.600000 6534.600000 0.500000 3.312346 46.843881 1.706551 0.441320
6534.697000 6534.700000 0.500000 3.311993 46.845081 1.707180 0.440945
6534.796000 6534.800000 0.500000 3.311882 46.837726 1.707123 0.440845
6534.898000 6534.900000 0.500000 3.312011 46.840843 1.707009 0.440242
6534.999000 6535.000000 0.500000 3.311927 46.840128 1.707127 0.440175
6535.096000 6535.100000 0.500000 3.311821 46.842941 1.707410 0.440104
6535.200000 6535.200000 0.500000 3.311695 46.840512 1.707535 0.439749
6535.299000 6535.300000 0.500000 3.311424 46.836409 1.707846 0.439504
6535.399000 6535.400000 0.500000 3.311270 46.840268 1.708262 0.439653
6535.500000 6535.500000 0.500000 3.311277 46.833240 1.707985 0.438298
6535.601000 6535.600000 0.500000 3.311497 46.837361 1.707763 0.437942
6535.699000 6535.700000 0.500000 3.311527 46.836611 1.707700 0.437633
6535.802000 6535.800000 0.500000 3.311183 46.839370 1.708366 0.437647
6535.902000 6535.900000 0.500000 3.311367 46.835399 1.707912 0.436507
6535.998000 6536.000000 0.500000 3.311387 46.833684 1.707836 0.435892
6536.100000 6536.100000 0.500000 3.311338 46.835011 1.707942 0.435309
6536.204000 6536.200000 0.500000 3.311143 46.836172 1.708326 0.434096
6536.300000 6536.300000 0.500000 3.311375 46.841247 1.708111 0.433590
6536.399000 6536.400000 0.500000 3.311365 46.837054 1.707973 0.431865
6536.503000 6536.500000 0.500000 3.311463 46.832988 1.707661 0.431144
6536.602000 6536.600000 0.500000 3.311260 46.832453 1.707979 0.429785
6536.699000 6536.700000 0.500000 3.311569 46.833112 1.707504 0.427730
6536.799000 6536.800000 0.500000 3.311459 46.830280 1.707562 0.425947
6536.898000 6536.900000 0.500000 3.311597 46.830933 1.707362 0.423889
6536.995000 6537.000000 0.500000 3.311682 46.829661 1.707165 0.421379
6537.098000 6537.100000 0.500000 3.312100 46.828518 1.706421 0.418124
6537.198000 6537.200000 0.500000 3.312157 46.833491 1.706497 0.415494
6537.296000 6537.300000 0.500000 3.312314 46.833383 1.706217 0.411486
6537.396000 6537.400000 0.500000 3.312740 46.828818 1.705352 0.407512
6537.497000 6537.500000 0.500000 3.313045 46.829460 1.704843 0.403729
6537.594000 6537.600000 0.500000 3.313081 46.826995 1.704675 0.399873
6537.698000 6537.700000 0.500000 3.313814 46.828184 1.703477 0.395429
6537.797000 6537.800000 0.500000 3.314460 46.828847 1.702400 0.391913
6537.898000 6537.900000 0.500000 3.315135 46.823430 1.701060 0.388093
6537.997000 6538.000000 0.500000 3.315865 46.823437 1.699817 0.384761
6538.099000 6538.100000 0.500000 3.316483 46.821424 1.698659 0.381372
6538.196000 6538.200000 0.500000 3.317692 46.825026 1.696781 0.377702
6538.297000 6538.300000 0.500000 3.318606 46.824924 1.695225 0.374752
6538.401000 6538.400000 0.500000 3.319434 46.823327 1.693735 0.372667
6538.499000 6538.500000 0.500000 3.319978 46.823030 1.692796 0.369916
6538.597000 6538.600000 0.500000 3.320994 46.821144 1.691071 0.367720
6538.700000 6538.700000 0.500000 3.321538 46.823681 1.690209 0.365507
6538.801000 6538.800000 0.500000 3.321914 46.820751 1.689466 0.363576
6538.900000 6538.900000 0.500000 3.322160 46.822275 1.689109 0.361719
6539.000000 6539.000000 0.500000 3.322406 46.822292 1.688690 0.360667
6539.103000 6539.100000 0.500000 3.322640 46.825100 1.688400 0.358663
6539.198000 6539.200000 0.500000 3.322748 46.821571 1.688093 0.356927
6539.303000 6539.300000 0.500000 3.322733 46.876490 1.690098 0.356320
6539.402000 6539.400000 0.500000 3.322708 46.877400 1.690169 0.355426
6539.500000 6539.500000 0.500000 3.322756 46.875813 1.690037 0.353735
6539.601000 6539.600000 0.500000 3.322709 46.876270 1.690126 0.352770
6539.704000 6539.700000 0.500000 3.322182 46.875616 1.691015 0.351576
6539.799000 6539.800000 0.500000 3.321763 46.872852 1.691579 0.350709
6539.902000 6539.900000 0.500000 3.321217 46.873342 1.692546 0.350054
6540.001000 6540.000000 0.500000 3.320596 46.876184 1.693693 0.349290
6540.100000 6540.100000 0.500000 3.320186 46.876426 1.694387 0.348448
6540.200000 6540.200000 0.500000 3.319465 46.879881 1.695737 0.347603
6540.299000 6540.300000 0.500000 3.318922 46.880359 1.696692 0.346726
6540.402000 6540.400000 0.500000 3.318127 46.874538 1.697837 0.346577
6540.499000 6540.500000 0.500000 3.317906 46.873724 1.698169 0.345358
6540.600000 6540.600000 0.500000 3.317785 46.869901 1.698237 0.345036
6540.699000 6540.700000 0.500000 3.317728 46.873384 1.698460 0.344810
6540.798000 6540.800000 0.500000 3.317291 46.871418 1.699123 0.344387
6540.899000 6540.900000 0.500000 3.317720 46.872518 1.698448 0.343440
6540.998000 6541.000000 0.500000 3.317509 46.870797 1.698724 0.343345
6541.095000 6541.100000 0.500000 3.317834 46.867230 1.698077 0.343162
6541.198000 6541.200000 0.500000 3.318299 46.871340 1.697402 0.342752
6541.298000 6541.300000 0.500000 3.318908 46.872168 1.696415 0.341949
6541.396000 6541.400000 0.500000 3.318941 46.869809 1.696275 0.342482
6541.498000 6541.500000 0.500000 3.319746 46.871471 1.694957 0.341899
6541.601000 6541.600000 0.500000 3.320224 46.869320 1.694076 0.341767
6541.698000 6541.700000 0.500000 3.320657 46.865485 1.693209 0.341446
6541.797000 6541.800000 0.500000 3.321631 46.863481 1.691508 0.340778
6541.901000 6541.900000 0.500000 3.322544 46.864838 1.689957 0.340383
6541.999000 6542.000000 0.500000 3.323521 46.861028 1.688200 0.339587
6542.100000 6542.100000 0.500000 3.324514 46.858245 1.686425 0.338877
6542.204000 6542.200000 0.500000 3.325388 46.859982 1.684934 0.338536
6542.301000 6542.300000 0.500000 3.326745 46.864142 1.682868 0.337624
6542.400000 6542.400000 0.500000 3.328202 46.864998 1.680458 0.336827
6542.503000 6542.500000 0.500000 3.329992 46.858074 1.677128 0.335286
6542.600000 6542.600000 0.500000 3.331601 46.861864 1.674686 0.333957
6542.701000 6542.700000 0.500000 3.333794 46.865622 1.671194 0.333264
6542.802000 6542.800000 0.500000 3.335899 46.862661 1.667415 0.331348
6542.903000 6542.900000 0.500000 3.338430 46.864595 1.663318 0.330138
6543.000000 6543.000000 0.500000 3.341336 46.861297 1.658487 0.328685
6543.104000 6543.100000 0.500000 3.344308 46.860141 1.653374 0.326879
6543.204000 6543.200000 0.500000 3.347592 46.858614 1.647927 0.325253
6543.301000 6543.300000 0.500000 3.351397 46.860268 1.641875 0.323560
6543.402000 6543.400000 0.500000 3.355515 46.854736 1.634828 0.320764
6543.504000 6543.500000 0.500000 3.359879 46.848187 1.627394 0.318811
6543.600000 6543.600000 0.500000 3.364919 46.850468 1.619515 0.316481
6543.699000 6543.700000 0.500000 3.370124 46.857087 1.611359 0.314372
6543.803000 6543.800000 0.500000 3.376242 46.861305 1.601301 0.311782
6543.897000 6543.900000 0.500000 3.382699 46.855750 1.591304 0.309599
6543.996000 6544.000000 0.500000 3.389822 46.849687 1.579953 0.306718
6544.101000 6544.100000 0.500000 3.397430 46.847476 1.567385 0.303321
6544.196000 6544.200000 0.500000 3.406066 46.850010 1.554534 0.300663
6544.297000 6544.300000 0.500000 3.415178 46.848244 1.540026 0.297060
6544.400000 6544.400000 0.500000 3.425458 46.844811 1.523875 0.293448
6544.497000 6544.500000 0.500000 3.435586 46.840588 1.508574 0.289651
6544.596000 6544.600000 0.500000 3.446926 46.841981 1.491722 0.286225
6544.697000 6544.700000 0.500000 3.458952 46.839890 1.473583 0.281895
6544.798000 6544.800000 0.500000 3.471734 46.837407 1.455037 0.277594
6544.895000 6544.900000 0.500000 3.484635 46.835865 1.436592 0.273768
6544.998000 6545.000000 0.500000 3.498029 46.831600 1.416851 0.269317
6545.099000 6545.100000 0.500000 3.511910 46.884282 1.399016 0.265029
6545.195000 6545.200000 0.500000 3.526233 46.885248 1.379683 0.260747
6545.297000 6545.300000 0.500000 3.540578 46.881084 1.359255 0.256329
6545.400000 6545.400000 0.500000 3.555788 46.874333 1.338251 0.251875
6545.499000 6545.500000 0.500000 3.570232 46.870577 1.319482 0.247806
6545.598000 6545.600000 0.500000 3.585059 46.869063 1.299990 0.243213
6545.701000 6545.700000 0.500000 3.599552 46.861154 1.280871 0.239410
6545.800000 6545.800000 0.500000 3.613836 46.866055 1.262960 0.235075
6545.899000 6545.900000 0.500000 3.626892 46.916416 1.248131 0.231833
6546.004000 6546.000000 0.500000 3.640115 46.913708 1.231020 0.227626
6546.101000 6546.100000 0.500000 3.652084 46.910805 1.216683 0.224585
6546.202000 6546.200000 0.500000 3.662810 46.908138 1.203774 0.221790
6546.305000 6546.300000 0.500000 3.672766 46.905952 1.191254 0.218317
6546.402000 6546.400000 0.500000 3.682358 46.903816 1.180383 0.215416
6546.500000 6546.500000 0.500000 3.690650 46.897463 1.170530 0.212985
6546.603000 6546.600000 0.500000 3.698495 46.896640 1.160966 0.210785
6546.704000 6546.700000 0.500000 3.705672 46.896384 1.152837 0.208237
6546.801000 6546.800000 0.500000 3.712638 46.891591 1.144889 0.206114
6546.902000 6546.900000 0.500000 3.718165 46.891812 1.138463 0.204683
6547.003000 6547.000000 0.500000 3.723367 46.889223 1.132465 0.202938
6547.099000 6547.100000 0.500000 3.729420 46.888029 1.125680 0.200913
6547.198000 6547.200000 0.500000 3.733923 46.883404 1.120540 0.199548
6547.304000 6547.300000 0.500000 3.738814 46.880907 1.114799 0.197784
6547.398000 6547.400000 0.500000 3.743267 46.871013 1.109884 0.196301
6547.499000 6547.500000 0.500000 3.747581 46.874172 1.105015 0.194716
6547.600000 6547.600000 0.500000 3.751777 46.873897 1.100412 0.193103
6547.697000 6547.700000 0.500000 3.756160 46.870429 1.095651 0.191716
6547.797000 6547.800000 0.500000 3.760834 46.866944 1.090425 0.190149
6547.899000 6547.900000 0.500000 3.765758 46.865052 1.084806 0.188245
6547.997000 6548.000000 0.500000 3.771330 46.869457 1.079105 0.186671
6548.096000 6548.100000 0.500000 3.776894 46.868465 1.072952 0.184940
6548.197000 6548.200000 0.500000 3.783652 46.863240 1.065773 0.183422
6548.298000 6548.300000 0.500000 3.791111 46.861032 1.057620 0.181000
6548.396000 6548.400000 0.500000 3.799330 46.857896 1.048950 0.178907
6548.500000 6548.500000 0.500000 3.808182 46.858513 1.039500 0.176726
6548.599000 6548.600000 0.500000 3.817366 46.852826 1.030090 0.174166
6548.699000 6548.700000 0.500000 3.827162 46.857946 1.020109 0.171961
6548.802000 6548.800000 0.500000 3.838277 46.853645 1.008517 0.169209
6548.903000 6548.900000 0.500000 3.848840 46.850378 0.997827 0.167127
6548.998000 6549.000000 0.500000 3.859629 46.851747 0.987510 0.164553
6549.099000 6549.100000 0.500000 3.871244 46.847166 0.975863 0.162314
6549.202000 6549.200000 0.500000 3.883348 46.848702 0.964118 0.159578
6549.300000 6549.300000 0.500000 3.895614 46.841411 0.952436 0.157419
6549.401000 6549.400000 0.500000 3.908294 46.846587 0.940285 0.154638
6549.505000 6549.500000 0.500000 3.920641 46.844335 0.928690 0.152684
6549.599000 6549.600000 0.500000 3.932956 46.843283 0.917740 0.150129
6549.700000 6549.700000 0.500000 3.945639 46.843584 0.906052 0.147896
6549.807000 6549.800000 0.500000 3.958670 46.842876 0.893942 0.145138
6549.901000 6549.900000 0.500000 3.970831 46.838410 0.883483 0.143216
6550.002000 6550.000000 0.500000 3.982661 46.842363 0.872953 0.141242
6550.103000 6550.100000 0.500000 3.995217 46.841321 0.862110 0.139042
6550.202000 6550.200000 0.500000 4.006459 46.845049 0.852408 0.136863
6550.301000 6550.300000 0.500000 4.017252 46.840424 0.843298 0.134887
6550.403000 6550.400000 0.500000 4.027559 46.837114 0.834434 0.133140
6550.502000 6550.500000 0.500000 4.036771 46.840067 0.826985 0.131405
6550.599000 6550.600000 0.500000 4.045153 46.838288 0.820043 0.130101
6550.699000 6550.700000 0.500000 4.051677 46.839192 0.814721 0.128804
6550.802000 6550.800000 0.500000 4.057804 46.838350 0.809690 0.127556
6550.897000 6550.900000 0.500000 4.062091 46.835632 0.806289 0.126597
6550.998000 6551.000000 0.500000 4.064424 46.831844 0.804238 0.125956
6551.103000 6551.100000 0.500000 4.065277 46.832006 0.803556 0.125706
6551.197000 6551.200000 0.500000 4.064788 46.827965 0.803881 0.125545
6551.296000 6551.300000 0.500000 4.062447 46.826656 0.805718 0.125387
6551.399000 6551.400000 0.500000 4.057676 46.831409 0.809696 0.125487
6551.495000 6551.500000 0.500000 4.052098 46.828918 0.814021 0.126131
6551.596000 6551.600000 0.500000 4.045308 46.827305 0.819647 0.126386
6551.701000 6551.700000 0.500000 4.036610 46.826356 0.826878 0.127354
6551.798000 6551.800000 0.500000 4.028296 46.826079 0.833752 0.127782
6551.898000 6551.900000 0.500000 4.018521 46.823723 0.841989 0.128616
6551.997000 6552.000000 0.500000 4.008164 46.826011 0.850681 0.130013
6552.098000 6552.100000 0.500000 3.998106 46.824887 0.859169 0.130682
6552.198000 6552.200000 0.500000 3.988932 46.821579 0.867224 0.131810
6552.301000 6552.300000 0.500000 3.979725 46.818862 0.875284 0.132320
6552.402000 6552.400000 0.500000 3.971192 46.849266 0.883312 0.133487
6552.501000 6552.500000 0.500000 3.963127 46.847077 0.890326 0.134275
