# XDI/1.0 BlueSky/1.5.3
# Beamline.name: 6BM
# Beamline.xray_source: NSLS-II three-pole wiggler
# Beamline.collimation: paraboloid mirror, 5 nm Rh on 30 nm Pt
# Beamline.focusing: not in use
# Beamline.harmonic_rejection: flat mirror, Si stripe, pitch = 7.0 mrad relative to beam
# Detector.i0: 10 cm N2
# Detector.I1: 25 cm N2
# Detector.I2: 25 cm N2
# Element.symbol: Mn
# Element.edge: K
# Facility.name: NSLS-II
# Facility.energy: 3.0
# Facility.current: 400.7
# Facility.mode: top-off
# Facility.GUP: 305832
# Facility.SAF: 305669
# Facility.cycle: 2020-1
# Mono.name: Si(111)
# Mono.d_spacing: 3.1353241
# Mono.encoder_resolution: 0.0000050 deg/ct
# Mono.angle_offset: 16.0581090 deg
# Mono.scan_mode: fixed exit
# Mono.scan_type: step
# Mono.direction: forward in energy
# Sample.name: Mn3O4
# Sample.prep: Powder in polyethylene glycol pellet
# Sample.x_position: -2.106 mm
# Sample.y_position: 103.734 mm
# Scan.experimenters: Neil Hyatt, Martin Stennett, Dan Austin, Seb Lawson
# Scan.edge_energy: 6539.0
# Scan.start_time: 2020-03-03T18:49:47
# Scan.end_time: 2020-03-03T19:01:39
# Scan.transient_id: 22670
# Scan.uid: c353bdda-aa47-43ee-b046-8776d13863b4
# Scan.plot_hint: ln(i0/itrans)  --  ln($5/$6)
# Column.1: energy eV
# Column.2: requested_energy eV
# Column.3: measurement_time seconds
# Column.4: mutrans 
# Column.5: i0
# Column.6: itrans
# Column.7: irefer
# ///////////
# 
# -----------
#  energy  requested_energy  measurement_time  mutrans  i0  itrans  irefer
6339.005  6339.000  1.000  1.891328  127.513340  19.238111  1.498419
6349.007  6349.000  1.000  1.879413  127.593970  19.481001  1.534711
6359.010  6359.000  1.000  1.867597  127.690969  19.727538  1.567994
6369.012  6369.000  1.000  1.856104  127.733800  19.962271  1.595750
6379.017  6379.000  1.000  1.844274  127.806511  20.211323  1.644618
6389.014  6389.000  1.000  1.832741  127.875965  20.456883  1.679976
6399.012  6399.000  1.000  1.821232  127.953595  20.706251  1.713251
6409.014  6409.000  1.000  1.809755  127.979453  20.949489  1.759400
6419.012  6419.000  1.000  1.798409  128.031427  21.197158  1.801812
6429.013  6429.000  1.000  1.787041  128.056065  21.443624  1.835252
6439.005  6439.000  1.000  1.775870  128.102501  21.692381  1.873704
6449.002  6449.000  1.000  1.764624  127.143833  21.773520  1.909194
6459.011  6459.000  1.000  1.753946  126.973289  21.977753  1.940713
6469.004  6469.000  1.000  1.743680  128.075875  22.397361  1.991110
6479.003  6479.000  1.000  1.733390  128.092984  22.632027  2.035023
6489.003  6489.000  1.000  1.723913  128.151113  22.857902  2.065228
6499.004  6499.000  1.000  1.714993  128.139866  23.060692  2.113843
6508.999  6509.000  1.000  1.708096  128.185872  23.228626  2.119237
6511.002  6511.000  1.000  1.707070  128.131869  23.242671  2.128933
6512.996  6513.000  1.000  1.706183  128.130097  23.262969  2.127874
6514.998  6515.000  1.000  1.705470  128.143221  23.281960  2.123802
6516.998  6517.000  1.000  1.705139  128.136301  23.288414  2.119936
6518.999  6519.000  1.000  1.704755  128.134621  23.297049  2.130624
6521.001  6521.000  1.000  1.705117  128.103429  23.282933  2.109765
6522.998  6523.000  1.000  1.705744  128.070854  23.262426  2.096800
6525.003  6525.000  1.000  1.707075  128.058928  23.229335  2.092250
6526.998  6527.000  1.000  1.709137  128.078227  23.184969  2.059420
6529.000  6529.000  1.000  1.712531  128.063627  23.103782  2.026847
6529.243  6529.250  1.000  1.713124  128.015957  23.081478  2.027345
6529.490  6529.500  1.000  1.713613  127.982536  23.064183  2.020556
6529.736  6529.750  1.000  1.714237  127.932709  23.040826  2.008710
6529.985  6530.000  1.000  1.714909  127.951720  23.028766  2.010452
6530.236  6530.250  1.000  1.715649  127.890139  23.000648  2.005649
6530.491  6530.500  1.000  1.716363  127.848685  22.976775  2.003089
6530.740  6530.750  1.000  1.717046  127.854105  22.962064  1.988879
6530.990  6531.000  1.000  1.717823  127.829569  22.939828  1.973437
6531.237  6531.250  1.000  1.718647  127.780017  22.912044  1.969735
6531.488  6531.500  1.000  1.719509  127.777431  22.891854  1.958644
6531.741  6531.750  1.000  1.720482  127.728248  22.860777  1.947738
6531.991  6532.000  1.000  1.721418  127.750612  22.843384  1.946249
6532.240  6532.250  1.000  1.722483  127.710728  22.811953  1.936440
6532.490  6532.500  1.000  1.723593  127.707147  22.786001  1.921591
6532.745  6532.750  1.000  1.724739  127.678729  22.754849  1.910777
6533.000  6533.000  1.000  1.725880  127.682944  22.729644  1.897078
6533.246  6533.250  1.000  1.727272  127.656977  22.693407  1.881721
6533.497  6533.500  1.000  1.728715  127.623759  22.654805  1.863497
6533.747  6533.750  1.000  1.730454  127.609180  22.612855  1.849070
6534.000  6534.000  1.000  1.731978  127.598805  22.576576  1.829135
6534.250  6534.250  1.000  1.733743  127.580768  22.533580  1.812966
6534.498  6534.500  1.000  1.735659  127.545715  22.484258  1.785141
6534.747  6534.750  1.000  1.737662  127.509156  22.432855  1.763998
6534.995  6535.000  1.000  1.739945  127.504325  22.380841  1.737188
6535.248  6535.250  1.000  1.742395  127.508637  22.326835  1.707709
6535.498  6535.500  1.000  1.745144  127.498743  22.263799  1.665645
6535.746  6535.750  1.000  1.748213  127.432031  22.183967  1.620607
6535.996  6536.000  1.000  1.751755  127.434294  22.105927  1.572096
6536.248  6536.250  1.000  1.755734  127.566757  22.041035  1.518118
6536.497  6536.500  1.000  1.760056  127.574662  21.947337  1.450747
6536.754  6536.750  1.000  1.765583  127.738115  21.854341  1.356979
6537.002  6537.000  1.000  1.771984  127.711225  21.710323  1.253246
6537.254  6537.250  1.000  1.780397  127.706922  21.527706  1.108666
6537.500  6537.500  1.000  1.790931  127.716471  21.303711  0.942809
6537.750  6537.750  1.000  1.805171  127.673981  20.995510  0.769960
6538.002  6538.000  1.000  1.825000  127.642219  20.578187  0.600554
6538.247  6538.250  1.000  1.853433  127.605005  19.995490  0.468883
6538.497  6538.500  1.000  1.894861  127.652974  19.191258  0.361277
6538.749  6538.750  1.000  1.951312  127.649749  18.137432  0.292529
6538.999  6539.000  1.000  2.017682  127.618241  16.968543  0.228239
6539.252  6539.250  1.000  2.076317  127.620495  16.002482  0.195181
6539.506  6539.500  1.000  2.103595  127.636787  15.573854  0.169621
6539.754  6539.750  1.000  2.093711  127.592818  15.723132  0.154354
6540.001  6540.000  1.000  2.064193  127.551814  16.188970  0.146545
6540.258  6540.250  1.000  2.036136  127.579706  16.653252  0.137430
6540.506  6540.500  1.000  2.025067  127.607004  16.842211  0.131199
6540.755  6540.750  1.000  2.030202  127.601893  16.755277  0.124996
6541.003  6541.000  1.000  2.045568  127.594322  16.498804  0.111677
6541.255  6541.250  1.000  2.065897  127.548281  16.160946  0.102715
6541.502  6541.500  1.000  2.087111  127.552192  15.822207  0.116469
6541.752  6541.750  1.000  2.108567  127.576375  15.489278  0.101689
6542.002  6542.000  1.000  2.130541  127.527033  15.146772  0.103418
6542.253  6542.250  1.000  2.154441  127.570912  14.794146  0.098788
6542.503  6542.500  1.000  2.180653  127.550079  14.409047  0.103283
6542.755  6542.750  1.000  2.210646  127.533201  13.981441  0.096999
6543.007  6543.000  1.000  2.244640  127.544460  13.515335  0.085778
6543.277  6543.250  1.000  2.286890  127.528489  12.954582  0.079126
6543.488  6543.500  1.000  2.325561  127.504668  12.460849  0.071741
6543.748  6543.750  1.000  2.378566  127.538799  11.820732  0.073256
6544.068  6544.000  1.000  2.449387  127.527398  11.011544  0.051631
6544.281  6544.250  1.000  2.518583  127.513743  10.274253  0.050926
6544.504  6544.500  1.000  2.596780  127.487359  9.499485  0.056288
6544.751  6544.750  1.000  2.691545  127.492548  8.640953  0.047790
6544.996  6545.000  1.000  2.800929  127.520525  7.747327  0.037247
6545.243  6545.250  1.000  2.925249  127.501108  6.840606  0.041535
6545.492  6545.500  1.000  3.067964  127.520423  5.931711  0.030855
6545.743  6545.750  1.000  3.232115  127.519826  5.033706  0.026302
6545.999  6546.000  1.000  3.407846  127.511289  4.222213  0.025495
6546.249  6546.250  1.000  3.584578  127.494120  3.537755  0.019632
6546.500  6546.500  1.000  3.750147  127.488766  2.997808  0.022485
6546.750  6546.750  1.000  3.898941  127.510003  2.583781  0.016267
6546.999  6547.000  1.000  4.022235  127.494293  2.283791  0.014998
6547.252  6547.250  1.000  4.130681  127.475340  2.048775  0.011195
6547.499  6547.500  1.000  4.225339  127.495058  1.864027  0.013377
6547.750  6547.750  1.000  4.319008  127.496453  1.697371  0.010423
6547.999  6548.000  1.000  4.412717  127.489981  1.545459  0.014705
6548.249  6548.250  1.000  4.508000  127.487953  1.404979  0.014174
6548.500  6548.500  1.000  4.605582  127.480071  1.274275  0.009265
6548.751  6548.750  1.000  4.702360  127.453462  1.156492  0.018856
6548.996  6549.000  1.000  4.800542  127.423371  1.048093  0.016545
6549.249  6549.250  1.000  4.905012  127.474099  0.944501  0.007823
6549.505  6549.500  1.000  5.009536  127.465776  0.850706  0.009698
6549.751  6549.750  1.000  5.113549  127.455976  0.766609  -0.000585
6550.000  6550.000  1.000  5.216263  127.469183  0.691848  0.000931
6550.249  6550.250  1.000  5.316942  127.449803  0.625490  0.001604
6550.504  6550.500  1.000  5.413826  127.477841  0.567858  0.010402
6550.755  6550.750  1.000  5.504463  127.467247  0.518610  0.009671
6551.002  6551.000  1.000  5.584435  127.482872  0.478809  0.005521
6551.248  6551.250  1.000  5.650901  127.485429  0.448028  0.010024
6551.499  6551.500  1.000  5.704588  127.500278  0.424659  0.010857
6551.750  6551.750  1.000  5.744891  127.472310  0.407794  0.001990
6551.999  6552.000  1.000  5.773480  127.457377  0.396255  0.011934
6552.248  6552.250  1.000  5.797506  127.430983  0.386768  0.008508
6552.494  6552.500  1.000  5.819277  127.461172  0.378528  0.007461
6552.747  6552.750  1.000  5.842915  127.458688  0.369678  0.006301
6553.002  6553.000  1.000  5.871614  127.440586  0.359168  -0.001545
6553.253  6553.250  1.000  5.904523  127.461051  0.347597  0.001290
6553.500  6553.500  1.000  5.940688  127.477859  0.335295  0.013451
6553.750  6553.750  1.000  5.987364  127.457880  0.319954  0.004628
6553.999  6554.000  1.000  6.033895  127.399434  0.305267  0.009812
6554.256  6554.250  1.000  6.091147  127.466681  0.288433  0.009299
6554.502  6554.500  1.000  6.147507  127.433511  0.272556  0.012321
6554.749  6554.750  1.000  6.216473  127.446584  0.254418  0.008049
6554.999  6555.000  1.000  6.295900  127.469946  0.235035  0.010281
6555.247  6555.250  1.000  6.380108  127.452887  0.216025  0.008417
6555.500  6555.500  1.000  6.479388  127.464382  0.195626  0.010771
6555.751  6555.750  1.000  6.573187  127.425308  0.178056  0.002704
6555.995  6556.000  1.000  6.669718  127.432314  0.161681  0.009178
6556.249  6556.250  1.000  6.769219  127.426059  0.146360  0.000538
6556.502  6556.500  1.000  6.862025  127.841463  0.133823  0.002742
6556.755  6556.750  1.000  6.950402  127.852024  0.122514  0.013835
6557.005  6557.000  1.000  7.041200  127.846858  0.111876  0.007901
6557.253  6557.250  1.000  7.118730  127.854398  0.103536  0.015428
6557.502  6557.500  1.000  7.179136  127.843143  0.097458  0.011566
6557.752  6557.750  1.000  7.212582  127.835834  0.094247  0.009093
6558.004  6558.000  1.000  7.233106  127.827652  0.092327  0.006621
6558.250  6558.250  1.000  7.233822  127.833190  0.092264  0.007465
6558.500  6558.500  1.000  7.223482  127.820737  0.093214  0.010947
6558.749  6558.750  1.000  7.178640  127.827018  0.097494  0.009674
6559.001  6559.000  1.000  7.123833  127.865419  0.103018  0.012375
6559.253  6559.250  1.000  7.057234  127.818719  0.110072  0.004760
6559.499  6559.500  1.000  6.974163  127.832966  0.119620  0.009588
6559.747  6559.750  1.000  6.888309  127.847660  0.130358  0.008938
6560.001  6560.000  1.000  6.802066  127.833611  0.142084  0.004075
6560.252  6560.250  1.000  6.706521  127.841430  0.156339  0.013409
6560.502  6560.500  1.000  6.623245  127.752212  0.169797  0.008966
6560.750  6560.750  1.000  6.544052  127.713812  0.183735  0.005748
6560.999  6561.000  1.000  6.468554  127.625757  0.198007  0.006790
6561.256  6561.250  1.000  6.402350  127.585389  0.211493  0.006272
6561.502  6561.500  1.000  6.341920  127.565204  0.224632  0.014956
6561.751  6561.750  1.000  6.287280  127.670240  0.237443  0.014068
6562.001  6562.000  1.000  6.235660  127.772464  0.250221  0.006232
6562.245  6562.250  1.000  6.190194  127.787408  0.261891  0.008532
6562.501  6562.500  1.000  6.143404  127.759355  0.274376  0.012777
6562.749  6562.750  1.000  6.103300  127.778234  0.285645  0.006927
6562.999  6563.000  1.000  6.068532  127.804073  0.295811  0.009919
6563.251  6563.250  1.000  6.040946  127.778180  0.304024  0.011296
6563.500  6563.500  1.000  6.020168  127.802015  0.310464  0.008395
6563.753  6563.750  1.000  6.006290  127.791874  0.314778  0.008273
6564.002  6564.000  1.000  5.998265  127.800197  0.317335  0.009149
6564.250  6564.250  1.000  5.995921  127.806508  0.318095  0.009602
6564.502  6564.500  1.000  5.995874  127.795024  0.318082  0.009241
6564.756  6564.750  1.000  6.001216  127.749868  0.316276  0.010118
6565.005  6565.000  1.000  6.008228  127.778061  0.314135  0.007155
6565.250  6565.250  1.000  6.018927  127.782063  0.310802  0.012639
6565.498  6565.500  1.000  6.030085  127.777320  0.307341  0.006487
6565.749  6565.750  1.000  6.042475  127.806313  0.303626  0.009914
6566.001  6566.000  1.000  6.058716  127.780553  0.298674  0.009346
6566.249  6566.250  1.000  6.073399  127.789977  0.294343  0.007702
6566.496  6566.500  1.000  6.090281  127.776085  0.289384  0.009201
6566.747  6566.750  1.000  6.106257  127.792058  0.284833  0.010052
6567.004  6567.000  1.000  6.123159  127.754624  0.279977  0.008445
6567.255  6567.250  1.000  6.139032  127.811999  0.275692  0.008863
6567.502  6567.500  1.000  6.153055  127.779977  0.271785  0.014653
6567.754  6567.750  1.000  6.168042  127.796522  0.267776  0.004601
6568.003  6568.000  1.000  6.177990  127.767773  0.265066  0.009271
6568.257  6568.250  1.000  6.187834  127.761112  0.262456  0.008682
6568.500  6568.500  1.000  6.193573  127.766922  0.260966  0.006356
6568.751  6568.750  1.000  6.197572  127.784338  0.259960  0.008195
6569.002  6569.000  1.000  6.196997  127.808925  0.260159  0.008809
6570.097  6570.080  1.000  6.164959  127.817283  0.268647  0.010143
6571.198  6571.180  1.000  6.084710  127.823721  0.291109  0.009027
6572.316  6572.290  1.000  6.009938  127.807392  0.313670  0.009389
6573.427  6573.430  1.000  5.951606  127.830409  0.332571  0.010218
6574.582  6574.580  1.000  5.905075  127.837335  0.348431  0.009587
6575.763  6575.760  1.000  5.865940  127.826554  0.362306  0.009843
6576.952  6576.950  1.000  5.810506  127.820781  0.382940  0.010885
6578.172  6578.160  1.000  5.732662  127.819644  0.413937  0.009032
6579.397  6579.390  1.000  5.643938  127.879569  0.452554  0.010815
6580.653  6580.640  1.000  5.548694  127.882203  0.497786  0.007527
6581.920  6581.910  1.000  5.460350  127.871113  0.543717  0.009180
6583.208  6583.200  1.000  5.398250  127.885561  0.578617  0.008089
6584.516  6584.510  1.000  5.372804  127.884534  0.593525  0.006594
6585.834  6585.830  1.000  5.380109  127.886745  0.589215  0.008790
6587.189  6587.180  1.000  5.404247  127.681313  0.574239  0.009717
6588.543  6588.540  1.000  5.419814  127.885287  0.566272  0.008781
6589.940  6589.930  1.000  5.424108  127.878181  0.563815  0.009593
6591.335  6591.330  1.000  5.434572  127.907042  0.558072  0.012815
6592.759  6592.750  1.000  5.473894  127.941348  0.536697  0.007567
6594.201  6594.190  1.000  5.548829  127.943537  0.497958  0.011037
6595.662  6595.650  1.000  5.629699  127.938012  0.459254  0.011700
6597.137  6597.130  1.000  5.697063  127.960811  0.429412  0.008568
6598.640  6598.630  1.000  5.729292  127.999738  0.415919  0.009469
6600.146  6600.140  1.000  5.736001  128.017143  0.413194  0.009570
6601.693  6601.680  1.000  5.737333  127.853430  0.412117  0.007078
6603.248  6603.240  1.000  5.741711  128.032563  0.410891  0.008433
6604.822  6604.810  1.000  5.756482  128.066408  0.404974  0.008523
6606.409  6606.400  1.000  5.777924  128.100300  0.396488  0.010149
6608.022  6608.010  1.000  5.809567  128.131294  0.384231  0.007542
6609.659  6609.650  1.000  5.839312  128.171979  0.373089  0.007348
6611.313  6611.300  1.000  5.861739  128.208615  0.364919  0.003596
6612.978  6612.970  1.000  5.872629  128.237404  0.361048  0.010380
6614.664  6614.650  1.000  5.875184  128.243913  0.360144  0.005927
6616.369  6616.360  1.000  5.862397  128.249843  0.364796  0.008299
6618.099  6618.090  1.000  5.842946  128.288981  0.372075  0.007674
6619.839  6619.830  1.000  5.822567  128.652745  0.380812  0.009168
6621.606  6621.600  1.000  5.803174  128.740512  0.388534  0.013072
6623.392  6623.380  1.000  5.786353  128.823123  0.395378  0.005386
6625.187  6625.180  1.000  5.771475  128.859655  0.401418  0.014053
6627.011  6627.000  1.000  5.760463  128.895808  0.405977  0.014350
6628.846  6628.840  1.000  5.754131  128.721061  0.408002  0.009412
6630.709  6630.700  1.000  5.745315  128.929173  0.412280  0.012213
6632.590  6632.580  1.000  5.734861  128.951162  0.416684  0.006425
6634.486  6634.480  1.000  5.731463  129.036417  0.418379  0.011509
6636.408  6636.400  1.000  5.735955  129.068484  0.416607  0.006754
6638.338  6638.330  1.000  5.741648  129.058632  0.414210  0.009094
6640.296  6640.290  1.000  5.734522  129.092920  0.417283  0.015757
6642.270  6642.260  1.000  5.710466  129.133307  0.427577  0.015681
6644.267  6644.260  1.000  5.678811  129.153650  0.441398  0.008717
6646.275  6646.270  1.000  5.645571  129.193729  0.456458  0.008249
6648.310  6648.300  1.000  5.620206  129.207889  0.468236  0.008936
6650.354  6650.350  1.000  5.598763  129.265885  0.478599  0.010166
6652.427  6652.420  1.000  5.586605  129.271959  0.484476  0.014606
6654.520  6654.510  1.000  5.585282  129.298485  0.485217  0.013371
6656.615  6656.610  1.000  5.591187  129.310766  0.482406  0.011454
6658.744  6658.740  1.000  5.605116  129.328595  0.475799  0.006895
6660.898  6660.890  1.000  5.611376  129.351124  0.472912  0.003977
6663.058  6663.050  1.000  5.613529  129.385201  0.472019  0.008604
6665.231  6665.230  1.000  5.608177  129.415722  0.474664  0.005770
6667.447  6667.440  1.000  5.597166  129.444047  0.480025  0.015621
6669.668  6669.660  1.000  5.585170  129.442304  0.485812  0.012264
6671.904  6671.900  1.000  5.564469  129.463944  0.496056  0.004541
6674.166  6674.160  1.000  5.536947  129.470967  0.509926  0.009128
6676.447  6676.440  1.000  5.503879  129.490570  0.527150  0.008085
6678.748  6678.740  1.000  5.483077  129.469182  0.538141  0.017366
6681.056  6681.050  1.000  5.479390  129.491440  0.540222  0.014769
6683.398  6683.390  1.000  5.488517  129.496774  0.535336  0.013139
6685.747  6685.740  1.000  5.505233  129.498349  0.526468  0.017890
6688.124  6688.120  1.000  5.522860  129.504600  0.517294  0.008659
6690.513  6690.510  1.000  5.537065  129.470798  0.509865  0.009936
6692.930  6692.920  1.000  5.543113  129.464410  0.506765  0.009918
6695.361  6695.350  1.000  5.543652  129.438392  0.506391  0.009253
6697.805  6697.800  1.000  5.545175  129.431691  0.505594  0.010504
6700.276  6700.270  1.000  5.551741  129.400446  0.502164  0.011680
6702.770  6702.760  1.000  5.560427  129.368946  0.497700  0.001571
6705.288  6705.270  1.000  5.565427  129.350883  0.495148  0.008365
6707.799  6707.790  1.000  5.569177  129.305022  0.493120  0.008796
6710.351  6710.340  1.000  5.573135  129.293563  0.491129  0.008811
6712.912  6712.900  1.000  5.575633  129.261458  0.489782  0.008614
6715.501  6715.490  1.000  5.568158  129.254317  0.493429  0.008897
6718.097  6718.090  1.000  5.555382  129.221717  0.499648  0.010249
6720.718  6720.710  1.000  5.537539  129.147000  0.508349  0.007815
