# XDI/1.0 BlueSky/1.5.3
# Beamline.name: 6BM
# Beamline.xray_source: NSLS-II three-pole wiggler
# Beamline.collimation: paraboloid mirror, 5 nm Rh on 30 nm Pt
# Beamline.focusing: not in use
# Beamline.harmonic_rejection: flat mirror, Si stripe, pitch = 7.0 mrad relative to beam
# Detector.i0: 10 cm N2
# Detector.i1: 25 cm N2
# Detector.i2: 25 cm N2
# Element.symbol: Mn
# Element.edge: K
# Facility.name: NSLS-II
# Facility.energy: 3.0
# Facility.current: 399.7
# Facility.mode: top-off
# Facility.gup: 305081
# Facility.saf: 305123
# Mono.name: Si(111)
# Mono.d_spacing: 3.1353241
# Mono.encoder_resolution: 0.0000050 deg/ct
# Mono.angle_offset: 16.0581090 deg
# Mono.scan_mode: fixed exit
# Mono.scan_type: step
# Mono.direction: forward in energy
# Sample.name: Mn3Al2(SiO4)3
# Sample.prep: Powder in polyethylene glycol pellet
# Sample.x_position: -120.140 mm
# Sample.y_position: 112.312 mm
# Scan.experimenters: Neil Hyatt, Martin Stennett, Lucy Mottram
# Scan.edge_energy: 6539.0
# Scan.start_time: 2019-11-11T13:41:31
# Scan.end_time: 2019-11-11T22:48:03
# Scan.transient_id: 17894
# Scan.uid: 3c3b56e0-f380-49fa-96db-2a242cd35bb5
# Scan.plot_hint: ln(I0/It)  --  ln($5/$6)
# Scan.sequence: merge of 3 scans
# Column.1: energy eV
# Column.2: requested_energy eV
# Column.3: measurement_time seconds
# Column.4: mutrans
# Column.5: i0
# Column.6: itrans
# Column.7: irefer
# /////
#  Grants Mining District; New Mexico
# -----
# energy   requested_energy   measurement_time   mutrans   i0   itrans   irefer
6338.999000 6339.000000 0.500000 3.012415 44.781270 2.202049 0.510457
6349.010000 6349.000000 0.500000 2.995362 44.895497 2.245634 0.524337
6359.012000 6359.000000 0.500000 2.978057 45.015515 2.290927 0.538443
6369.023000 6369.000000 0.500000 2.960919 45.135979 2.336777 0.552829
6379.021000 6379.000000 0.500000 2.944209 45.262102 2.382794 0.568138
6389.009000 6389.000000 0.500000 2.927416 45.381149 2.429478 0.582554
6399.012000 6399.000000 0.500000 2.910518 45.481013 2.476330 0.598699
6409.011000 6409.000000 0.500000 2.893767 45.637387 2.526809 0.614394
6419.012000 6419.000000 0.500000 2.877738 45.774240 2.575340 0.629780
6429.010000 6429.000000 0.500000 2.861234 45.866695 2.623484 0.646080
6439.009000 6439.000000 0.500000 2.844949 45.945714 2.671153 0.662457
6449.007000 6449.000000 0.500000 2.828828 45.949499 2.714776 0.677330
6459.012000 6459.000000 0.500000 2.812716 45.954985 2.759214 0.693118
6469.003000 6469.000000 0.500000 2.796831 46.163621 2.816084 0.711984
6479.008000 6479.000000 0.500000 2.780932 46.233382 2.865570 0.728666
6489.007000 6489.000000 0.500000 2.765739 46.333790 2.915748 0.745673
6498.971000 6499.000000 0.500000 2.750257 46.420516 2.966684 0.763072
6508.992000 6509.000000 0.500000 2.735854 46.520210 3.016285 0.781044
6510.991000 6511.000000 0.500000 2.732926 46.526659 3.025533 0.783380
6512.990000 6513.000000 0.500000 2.729856 46.533319 3.035283 0.786999
6514.994000 6515.000000 0.500000 2.727270 46.552772 3.044424 0.790487
6516.989000 6517.000000 0.500000 2.724626 46.565752 3.053318 0.793324
6518.993000 6519.000000 0.500000 2.721895 46.582464 3.062758 0.796641
6520.989000 6521.000000 0.500000 2.719301 46.606095 3.072269 0.799032
6522.992000 6523.000000 0.500000 2.716548 46.627688 3.081729 0.802519
6524.997000 6525.000000 0.500000 2.714422 46.646491 3.089525 0.804667
6526.989000 6527.000000 0.500000 2.712271 46.658338 3.097434 0.807237
6528.995000 6529.000000 0.500000 2.710536 46.674868 3.103918 0.808625
6529.092000 6529.100000 0.500000 2.710440 46.675166 3.104238 0.808813
6529.185000 6529.200000 0.500000 2.710216 46.672683 3.104717 0.808918
6529.286000 6529.300000 0.500000 2.710216 46.722580 3.108169 0.809853
6529.382000 6529.400000 0.500000 2.710112 46.729901 3.108894 0.809890
6529.485000 6529.500000 0.500000 2.710080 46.718664 3.108258 0.809846
6529.583000 6529.600000 0.500000 2.709952 46.750162 3.110755 0.810520
6529.682000 6529.700000 0.500000 2.709729 46.751049 3.111499 0.810586
6529.782000 6529.800000 0.500000 2.709703 46.752724 3.111686 0.810485
6529.886000 6529.900000 0.500000 2.709596 46.749864 3.111829 0.810864
6529.983000 6530.000000 0.500000 2.709700 46.747972 3.111392 0.810270
6530.085000 6530.100000 0.500000 2.709629 46.755146 3.112087 0.810693
6530.188000 6530.200000 0.500000 2.709454 46.751939 3.112409 0.810506
6530.285000 6530.300000 0.500000 2.709402 46.750920 3.112515 0.810721
6530.385000 6530.400000 0.500000 2.709194 46.750531 3.113122 0.810348
6530.487000 6530.500000 0.500000 2.709196 46.750133 3.113105 0.810563
6530.584000 6530.600000 0.500000 2.709242 46.746414 3.112723 0.810821
6530.685000 6530.700000 0.500000 2.709148 46.744720 3.112875 0.810351
6530.789000 6530.800000 0.500000 2.709124 46.753280 3.113528 0.811011
6530.889000 6530.900000 0.500000 2.709138 46.750623 3.113315 0.810629
6530.988000 6531.000000 0.500000 2.709047 46.750062 3.113538 0.810310
6531.088000 6531.100000 0.500000 2.708821 46.747829 3.114082 0.810381
6531.191000 6531.200000 0.500000 2.708878 46.749217 3.114066 0.810161
6531.289000 6531.300000 0.500000 2.708833 46.748993 3.114133 0.810569
6531.392000 6531.400000 0.500000 2.708857 46.746576 3.113914 0.810331
6531.494000 6531.500000 0.500000 2.708717 46.743901 3.114166 0.810339
6531.593000 6531.600000 0.500000 2.708730 46.744497 3.114186 0.810888
6531.693000 6531.700000 0.500000 2.708581 46.746284 3.114741 0.810509
6531.797000 6531.800000 0.500000 2.708466 46.750569 3.115389 0.810273
6531.894000 6531.900000 0.500000 2.708482 46.749246 3.115265 0.810543
6531.995000 6532.000000 0.500000 2.708306 46.749020 3.115765 0.810429
6532.097000 6532.100000 0.500000 2.708433 46.747342 3.115314 0.810049
6532.199000 6532.200000 0.500000 2.708238 46.745688 3.115788 0.809989
6532.296000 6532.300000 0.500000 2.708235 46.745422 3.115775 0.810107
6532.398000 6532.400000 0.500000 2.708299 46.743950 3.115492 0.809586
6532.497000 6532.500000 0.500000 2.708324 46.742244 3.115277 0.809587
6532.596000 6532.600000 0.500000 2.708184 46.743330 3.115790 0.809900
6532.698000 6532.700000 0.500000 2.708123 46.751885 3.116552 0.809723
6532.799000 6532.800000 0.500000 2.708227 46.744319 3.115742 0.809255
6532.897000 6532.900000 0.500000 2.708018 46.744396 3.116378 0.809387
6532.996000 6533.000000 0.500000 2.708048 46.745204 3.116350 0.809626
6533.097000 6533.100000 0.500000 2.707921 46.743622 3.116638 0.809146
6533.197000 6533.200000 0.500000 2.708045 46.741577 3.116116 0.808836
6533.298000 6533.300000 0.500000 2.707932 46.737012 3.116160 0.808880
6533.400000 6533.400000 0.500000 2.708012 46.742543 3.116277 0.808657
6533.497000 6533.500000 0.500000 2.708195 46.741846 3.115691 0.808253
6533.596000 6533.600000 0.500000 2.707808 46.743244 3.116908 0.808429
6533.698000 6533.700000 0.500000 2.707973 46.738292 3.116136 0.807634
6533.795000 6533.800000 0.500000 2.708102 46.738257 3.115721 0.807337
6533.894000 6533.900000 0.500000 2.708016 46.741918 3.116216 0.807195
6533.996000 6534.000000 0.500000 2.707956 46.739559 3.116265 0.807175
6534.097000 6534.100000 0.500000 2.708089 46.740079 3.115884 0.806826
6534.196000 6534.200000 0.500000 2.708014 46.739929 3.116079 0.806335
6534.298000 6534.300000 0.500000 2.707976 46.737716 3.116071 0.806489
6534.393000 6534.400000 0.500000 2.708237 46.735071 3.115105 0.806220
6534.496000 6534.500000 0.500000 2.708105 46.738696 3.115716 0.805491
6534.596000 6534.600000 0.500000 2.708230 46.733470 3.115017 0.804986
6534.699000 6534.700000 0.500000 2.708205 46.734910 3.115155 0.804979
6534.797000 6534.800000 0.500000 2.708347 46.733435 3.114651 0.804193
6534.898000 6534.900000 0.500000 2.708358 46.729773 3.114349 0.803645
6534.999000 6535.000000 0.500000 2.708521 46.729369 3.113820 0.802864
6535.096000 6535.100000 0.500000 2.708478 46.728668 3.113904 0.802860
6535.198000 6535.200000 0.500000 2.708503 46.733709 3.114151 0.801977
6535.301000 6535.300000 0.500000 2.708622 46.734715 3.113855 0.801183
6535.399000 6535.400000 0.500000 2.708664 46.730895 3.113483 0.800273
6535.498000 6535.500000 0.500000 2.708658 46.730216 3.113446 0.799520
6535.602000 6535.600000 0.500000 2.708984 46.723240 3.111969 0.798454
6535.699000 6535.700000 0.500000 2.708970 46.725640 3.112168 0.797961
6535.800000 6535.800000 0.500000 2.708928 46.727894 3.112435 0.796556
6535.902000 6535.900000 0.500000 2.709098 46.728583 3.111968 0.795456
6536.001000 6536.000000 0.500000 2.709294 46.729532 3.111421 0.794321
6536.100000 6536.100000 0.500000 2.709480 46.725451 3.110598 0.792485
6536.203000 6536.200000 0.500000 2.709548 46.726489 3.110428 0.790973
6536.303000 6536.300000 0.500000 2.709728 46.732043 3.110234 0.788865
6536.400000 6536.400000 0.500000 2.709736 46.726705 3.109865 0.786760
6536.501000 6536.500000 0.500000 2.710054 46.721134 3.108517 0.784256
6536.603000 6536.600000 0.500000 2.710332 46.723113 3.107774 0.781487
6536.699000 6536.700000 0.500000 2.710580 46.725948 3.107188 0.778709
6536.798000 6536.800000 0.500000 2.710636 46.726644 3.107079 0.775331
6536.902000 6536.900000 0.500000 2.711041 46.729877 3.106013 0.770784
6536.999000 6537.000000 0.500000 2.711413 46.720224 3.104234 0.765842
6537.098000 6537.100000 0.500000 2.711777 46.723292 3.103325 0.760865
6537.198000 6537.200000 0.500000 2.712172 46.719580 3.101839 0.754471
6537.296000 6537.300000 0.500000 2.712550 46.721398 3.100816 0.748055
6537.396000 6537.400000 0.500000 2.713049 46.720224 3.099184 0.741170
6537.500000 6537.500000 0.500000 2.713855 46.725130 3.096957 0.732928
6537.598000 6537.600000 0.500000 2.714409 46.719136 3.094870 0.725752
6537.696000 6537.700000 0.500000 2.715207 46.716696 3.092246 0.717832
6537.799000 6537.800000 0.500000 2.716329 46.717736 3.088777 0.710506
6537.896000 6537.900000 0.500000 2.717573 46.716254 3.084976 0.703423
6537.999000 6538.000000 0.500000 2.718808 46.714814 3.080978 0.696526
6538.099000 6538.100000 0.500000 2.720190 46.716880 3.076786 0.690033
6538.196000 6538.200000 0.500000 2.721895 46.716296 3.071612 0.683777
6538.295000 6538.300000 0.500000 2.723646 46.719115 3.066517 0.678140
6538.398000 6538.400000 0.500000 2.725448 46.711450 3.060334 0.672195
6538.499000 6538.500000 0.500000 2.727569 46.713638 3.053974 0.666952
6538.597000 6538.600000 0.500000 2.729599 46.709290 3.047654 0.661871
6538.700000 6538.700000 0.500000 2.731545 46.717018 3.042107 0.657425
6538.801000 6538.800000 0.500000 2.733322 46.713664 3.036533 0.653458
6538.898000 6538.900000 0.500000 2.734812 46.715795 3.032183 0.649617
6538.999000 6539.000000 0.500000 2.735806 46.715149 3.029102 0.645856
6539.103000 6539.100000 0.500000 2.736777 46.742965 3.027906 0.643028
6539.200000 6539.200000 0.500000 2.737190 46.772476 3.028605 0.640691
6539.301000 6539.300000 0.500000 2.737043 46.773959 3.029129 0.638318
6539.403000 6539.400000 0.500000 2.736580 46.776584 3.030719 0.636454
6539.502000 6539.500000 0.500000 2.735636 46.771794 3.033238 0.634732
6539.601000 6539.600000 0.500000 2.734748 46.773066 3.036025 0.633171
6539.706000 6539.700000 0.500000 2.733558 46.776747 3.040007 0.631835
6539.803000 6539.800000 0.500000 2.732010 46.778012 3.044712 0.631142
6539.900000 6539.900000 0.500000 2.730720 46.774936 3.048372 0.629796
6540.001000 6540.000000 0.500000 2.729592 46.777262 3.051984 0.628970
6540.101000 6540.100000 0.500000 2.728618 46.780315 3.055165 0.627974
6540.199000 6540.200000 0.500000 2.727677 46.779788 3.057967 0.626963
6540.299000 6540.300000 0.500000 2.726937 46.777230 3.060085 0.625796
6540.402000 6540.400000 0.500000 2.726511 46.780543 3.061656 0.624492
6540.499000 6540.500000 0.500000 2.726179 46.780361 3.062636 0.623059
6540.600000 6540.600000 0.500000 2.726179 46.781774 3.062736 0.622435
6540.699000 6540.700000 0.500000 2.726261 46.780599 3.062409 0.621098
6540.796000 6540.800000 0.500000 2.726387 46.782871 3.062187 0.620406
6540.899000 6540.900000 0.500000 2.726748 46.779716 3.060869 0.618685
6541.000000 6541.000000 0.500000 2.727340 46.786963 3.059519 0.618591
6541.099000 6541.100000 0.500000 2.727756 46.830978 3.061124 0.618535
6541.199000 6541.200000 0.500000 2.728588 46.831831 3.058593 0.617172
6541.300000 6541.300000 0.500000 2.729419 46.836148 3.056347 0.616471
6541.397000 6541.400000 0.500000 2.730214 46.835282 3.053916 0.615882
6541.496000 6541.500000 0.500000 2.731049 46.833066 3.051223 0.615099
6541.601000 6541.600000 0.500000 2.732125 46.833304 3.047855 0.614384
6541.698000 6541.700000 0.500000 2.733141 46.830419 3.044627 0.613434
6541.797000 6541.800000 0.500000 2.734374 46.834310 3.041177 0.612694
6541.900000 6541.900000 0.500000 2.735651 46.835086 3.037269 0.611691
6541.999000 6542.000000 0.500000 2.737201 46.832602 3.032525 0.609853
6542.100000 6542.100000 0.500000 2.738600 46.899035 3.032567 0.609794
6542.202000 6542.200000 0.500000 2.740460 46.899699 3.026787 0.608006
6542.301000 6542.300000 0.500000 2.742359 46.904422 3.021467 0.605805
6542.400000 6542.400000 0.500000 2.744278 46.903025 3.015650 0.603665
6542.501000 6542.500000 0.500000 2.746428 46.903838 3.009148 0.601364
6542.602000 6542.600000 0.500000 2.748713 46.905992 3.002412 0.598754
6542.699000 6542.700000 0.500000 2.751369 46.907543 2.994804 0.596610
6542.804000 6542.800000 0.500000 2.754405 46.902710 2.984949 0.593064
6542.903000 6542.900000 0.500000 2.757881 46.904813 2.974988 0.589288
6543.000000 6543.000000 0.500000 2.761426 46.907881 2.964754 0.587071
6543.103000 6543.100000 0.500000 2.765305 46.910969 2.953373 0.583159
6543.202000 6543.200000 0.500000 2.769629 46.906868 2.940581 0.579354
6543.303000 6543.300000 0.500000 2.774349 46.905557 2.926491 0.575261
6543.400000 6543.400000 0.500000 2.779711 46.905103 2.910921 0.571200
6543.501000 6543.500000 0.500000 2.785628 46.901371 2.893523 0.566469
6543.602000 6543.600000 0.500000 2.791933 46.907406 2.875552 0.562418
6543.699000 6543.700000 0.500000 2.798611 46.904991 2.856772 0.557390
6543.802000 6543.800000 0.500000 2.806210 46.908418 2.834683 0.552216
6543.901000 6543.900000 0.500000 2.814662 46.904428 2.810740 0.546294
6543.998000 6544.000000 0.500000 2.823746 46.905900 2.785923 0.540671
6544.101000 6544.100000 0.500000 2.833670 46.906261 2.757453 0.534140
6544.198000 6544.200000 0.500000 2.844521 46.905429 2.728711 0.526885
6544.297000 6544.300000 0.500000 2.855951 46.903303 2.697404 0.520340
6544.396000 6544.400000 0.500000 2.868703 46.906716 2.663470 0.512446
6544.497000 6544.500000 0.500000 2.882147 46.898657 2.626762 0.504413
6544.596000 6544.600000 0.500000 2.896706 46.900451 2.589872 0.496456
6544.697000 6544.700000 0.500000 2.912286 46.900538 2.549378 0.487886
6544.798000 6544.800000 0.500000 2.928955 46.898668 2.507140 0.478345
6544.897000 6544.900000 0.500000 2.946284 46.898836 2.464104 0.468936
6545.000000 6545.000000 0.500000 2.964529 46.900844 2.418160 0.459496
6545.099000 6545.100000 0.500000 2.983854 46.891786 2.372009 0.449673
6545.196000 6545.200000 0.500000 3.003670 46.896563 2.327221 0.440126
6545.296000 6545.300000 0.500000 3.024455 46.895080 2.279018 0.429433
6545.400000 6545.400000 0.500000 3.047101 46.896751 2.226609 0.418669
6545.503000 6545.500000 0.500000 3.070153 46.895068 2.175225 0.407587
6545.600000 6545.600000 0.500000 3.094158 46.891442 2.124809 0.397952
6545.701000 6545.700000 0.500000 3.119731 46.892565 2.071202 0.386198
6545.800000 6545.800000 0.500000 3.146006 46.890776 2.017427 0.375231
6545.899000 6545.900000 0.500000 3.173070 46.887081 1.963762 0.364233
6546.004000 6546.000000 0.500000 3.201378 46.891627 1.907503 0.352341
6546.103000 6546.100000 0.500000 3.230794 46.892385 1.852584 0.341504
6546.202000 6546.200000 0.500000 3.260283 46.886819 1.798875 0.330429
6546.303000 6546.300000 0.500000 3.290916 46.884059 1.744512 0.319573
6546.402000 6546.400000 0.500000 3.321137 46.884823 1.692602 0.309085
6546.500000 6546.500000 0.500000 3.351596 46.889858 1.643333 0.298970
6546.603000 6546.600000 0.500000 3.381143 46.883857 1.593871 0.289275
6546.704000 6546.700000 0.500000 3.410432 46.883525 1.548434 0.280032
6546.803000 6546.800000 0.500000 3.437818 46.886088 1.506836 0.271539
6546.900000 6546.900000 0.500000 3.464285 46.885756 1.467859 0.263711
6547.001000 6547.000000 0.500000 3.489557 46.880245 1.431015 0.256314
6547.100000 6547.100000 0.500000 3.512066 46.881601 1.398733 0.249639
6547.198000 6547.200000 0.500000 3.534193 46.873646 1.368505 0.243035
6547.299000 6547.300000 0.500000 3.554412 46.880110 1.340358 0.237587
6547.400000 6547.400000 0.500000 3.573896 46.875825 1.314706 0.232421
6547.499000 6547.500000 0.500000 3.592045 46.870190 1.290912 0.227223
6547.600000 6547.600000 0.500000 3.609408 46.874482 1.268945 0.222312
6547.697000 6547.700000 0.500000 3.625623 46.875815 1.248845 0.218383
6547.798000 6547.800000 0.500000 3.641721 46.875340 1.228477 0.214026
6547.898000 6547.900000 0.500000 3.657789 46.875257 1.208701 0.209532
6547.999000 6548.000000 0.500000 3.674396 46.875074 1.188908 0.205614
6548.098000 6548.100000 0.500000 3.690710 46.873155 1.169278 0.201571
6548.195000 6548.200000 0.500000 3.709438 46.864533 1.148334 0.196679
6548.295000 6548.300000 0.500000 3.729087 46.866550 1.125801 0.192241
6548.396000 6548.400000 0.500000 3.749473 46.869004 1.103068 0.188046
6548.500000 6548.500000 0.500000 3.772373 46.869784 1.077471 0.182578
6548.599000 6548.600000 0.500000 3.796904 46.868534 1.051566 0.178202
6548.699000 6548.700000 0.500000 3.822531 46.869395 1.024719 0.172908
6548.796000 6548.800000 0.500000 3.850004 46.865813 0.998183 0.168080
6548.901000 6548.900000 0.500000 3.878392 46.865654 0.969009 0.162447
6548.998000 6549.000000 0.500000 3.908328 46.867799 0.941401 0.156738
6549.099000 6549.100000 0.500000 3.937770 46.864325 0.913474 0.152036
6549.204000 6549.200000 0.500000 3.969089 46.861155 0.884711 0.146641
6549.301000 6549.300000 0.500000 3.999447 46.855927 0.858436 0.141809
6549.401000 6549.400000 0.500000 4.029800 46.860419 0.833090 0.137270
6549.504000 6549.500000 0.500000 4.060741 46.855122 0.807172 0.132290
6549.603000 6549.600000 0.500000 4.089864 46.856815 0.784539 0.128345
6549.702000 6549.700000 0.500000 4.118994 46.854468 0.761765 0.123744
6549.807000 6549.800000 0.500000 4.147898 46.855377 0.739814 0.120321
6549.902000 6549.900000 0.500000 4.174994 46.854125 0.720608 0.116533
6550.004000 6550.000000 0.500000 4.200915 46.852844 0.701831 0.113182
6550.103000 6550.100000 0.500000 4.226883 46.852547 0.684026 0.109691
6550.204000 6550.200000 0.500000 4.250625 46.853349 0.667505 0.107158
6550.301000 6550.300000 0.500000 4.274009 46.851301 0.652657 0.103857
6550.404000 6550.400000 0.500000 4.294797 46.848839 0.638872 0.101662
6550.504000 6550.500000 0.500000 4.313811 46.850398 0.626904 0.099592
6550.599000 6550.600000 0.500000 4.330646 46.852676 0.616689 0.097546
6550.699000 6550.700000 0.500000 4.345787 46.850790 0.607437 0.095924
6550.805000 6550.800000 0.500000 4.358589 46.847174 0.599270 0.094340
6550.897000 6550.900000 0.500000 4.369405 46.847766 0.593249 0.093321
6550.998000 6551.000000 0.500000 4.378115 46.842805 0.587908 0.091912
6551.101000 6551.100000 0.500000 4.385055 46.842443 0.583763 0.091253
6551.199000 6551.200000 0.500000 4.388134 46.840224 0.581970 0.090781
6551.298000 6551.300000 0.500000 4.390117 46.838340 0.580770 0.090250
6551.401000 6551.400000 0.500000 4.389290 46.839055 0.581299 0.090120
6551.497000 6551.500000 0.500000 4.385532 46.838640 0.583415 0.089919
6551.596000 6551.600000 0.500000 4.379282 46.836272 0.587063 0.090447
6551.701000 6551.700000 0.500000 4.370173 46.838648 0.592548 0.091051
6551.797000 6551.800000 0.500000 4.359881 46.836578 0.598617 0.092012
6551.896000 6551.900000 0.500000 4.346944 46.834127 0.606228 0.092653
6551.997000 6552.000000 0.500000 4.332322 46.836890 0.615179 0.093582
6552.097000 6552.100000 0.500000 4.317318 46.834830 0.624476 0.094773
6552.196000 6552.200000 0.500000 4.302932 46.869417 0.633938 0.096285
6552.301000 6552.300000 0.500000 4.287592 46.886498 0.644358 0.097506
6552.402000 6552.400000 0.500000 4.273603 46.888115 0.653385 0.098461
6552.501000 6552.500000 0.500000 4.260420 46.882952 0.661899 0.099532
6552.599000 6552.600000 0.500000 4.247868 46.889708 0.670132 0.100987
