# XDI/1.0 BlueSky/1.10.0 BMM/2023-1.0-py310-tiled
# Beamline.name: BMM (06BM) -- Beamline for Materials Measurement (NIST)
# Beamline.xray_source: NSLS-II three-pole wiggler
# Beamline.collimation: paraboloid mirror, 5 nm Rh on 30 nm Pt
# Beamline.focusing: not in use
# Beamline.harmonic_rejection: flat mirror, Si stripe, pitch = 7.0 mrad relative to beam
# Beamline.software: Bluesky 1.10.0, Ophyd 1.7.0, DataBroker 2.0.0b13, Python 3.10.8, 2023-1.0-py310-tiled
# Detector.I0: 10 cm N2
# Detector.I1: 25 cm N2
# Detector.I2: 25 cm N2
# Element.symbol: Mn
# Element.edge: K
# Element.reference: Mn
# Element.reference_material: Mn metal powder
# Facility.name: NSLS-II
# Facility.energy: 3.0
# Facility.current: 400.7
# Facility.mode: top-off
# Facility.GUP: 123456
# Facility.SAF: 301027
# Facility.cycle: 2023-2
# Mono.name: Si(111)
# Mono.d_spacing: 3.1351860
# Mono.encoder_resolution: 0.0000050 deg/ct
# Mono.angle_offset: 16.0754326 deg
# Mono.scan_mode: pseudo channel cut
# Mono.scan_type: step
# Mono.direction: forward in energy
# Sample.name: MnCO3
# Sample.prep: PEG pellet
# Sample.x: 123.848 mm
# Sample.y: 114.690 mm
# Sample.SDD_position: 205.000 mm
# Scan.experimenters: Bruce Ravel
# Scan.edge_energy: 6539.0
# Scan.start_time: 2023-05-08T11:37:26
# Scan.end_time: 2023-05-08T11:45:39
# Scan.transient_id: 75370
# Scan.uid: ea835894-ed44-4bc1-af4c-7e9bb2443a09
# Scan.plot_hint: ln(I0/It)  --  ln($5/$6)
# Column.1: energy eV
# Column.2: requested_energy eV
# Column.3: measurement_time seconds
# Column.4: xmu 
# Column.5: I0 nA
# Column.6: It nA
# Column.7: Ir nA
# ///////////
# Welcome to BMM
# -----------
# energy  requested_energy  measurement_time  xmu  I0  It  Ir
  6338.999  6339.000  0.500  2.566016  150.637267  11.575127  0.591078
  6349.011  6349.000  0.500  2.550863  150.874440  11.770368  0.609171
  6359.021  6359.000  0.500  2.536094  151.118322  11.964807  0.627632
  6369.002  6369.000  0.500  2.521241  151.359648  12.163236  0.646176
  6379.048  6379.000  0.500  2.506536  151.601225  12.363111  0.665308
  6389.003  6389.000  0.500  2.491940  151.801021  12.561431  0.684951
  6399.012  6399.000  0.500  2.477148  151.985159  12.764075  0.705022
  6409.018  6409.000  0.500  2.462609  152.150437  12.965095  0.725479
  6419.015  6419.000  0.500  2.448266  152.383438  13.172529  0.746590
  6429.010  6429.000  0.500  2.433968  152.534377  13.375469  0.767598
  6439.016  6439.000  0.500  2.419981  152.691903  13.577874  0.788707
  6449.014  6449.000  0.500  2.406140  150.046386  13.528573  0.795430
  6459.010  6459.000  0.500  2.391659  152.592007  13.958782  0.830652
  6469.012  6469.000  0.500  2.377530  153.183848  14.212317  0.855224
  6479.011  6479.000  0.500  2.363803  153.281404  14.417935  0.877425
  6488.999  6489.000  0.500  2.349435  153.216615  14.620399  0.898948
  6498.980  6499.000  0.500  2.337255  153.576020  14.834273  0.919546
  6508.978  6509.000  0.500  2.324785  153.732822  15.035760  0.936892
  6510.984  6511.000  0.500  2.322384  153.761051  15.074662  0.939759
  6512.981  6513.000  0.500  2.319737  153.784355  15.116914  0.942746
  6514.987  6515.000  0.500  2.317712  153.799672  15.149064  0.944162
  6516.989  6517.000  0.500  2.315197  153.841524  15.191351  0.946248
  6518.988  6519.000  0.500  2.313061  153.887536  15.228391  0.946818
  6520.992  6521.000  0.500  2.311182  153.915324  15.259774  0.946804
  6522.988  6523.000  0.500  2.309364  153.936455  15.289651  0.945330
  6524.995  6525.000  0.500  2.307523  153.944760  15.318643  0.942150
  6526.991  6527.000  0.500  2.306371  153.968948  15.338707  0.936152
  6528.994  6529.000  0.500  2.304897  154.004705  15.364913  0.927401
  6529.285  6529.300  0.500  2.304692  153.994311  15.367019  0.925695
  6529.583  6529.600  0.500  2.304862  153.995413  15.364520  0.923242
  6529.884  6529.900  0.500  2.304978  153.990515  15.362242  0.920384
  6530.182  6530.200  0.500  2.304899  153.991073  15.363523  0.918376
  6530.487  6530.500  0.500  2.304669  153.993158  15.367261  0.915817
  6530.784  6530.800  0.500  2.304650  153.985701  15.366800  0.912969
  6531.086  6531.100  0.500  2.304265  153.984889  15.372644  0.910211
  6531.387  6531.400  0.500  2.304079  153.990310  15.376039  0.907434
  6531.691  6531.700  0.500  2.304036  153.977102  15.375380  0.903527
  6531.988  6532.000  0.500  2.304196  153.985095  15.373731  0.899474
  6532.290  6532.300  0.500  2.304486  153.989194  15.369669  0.894731
  6532.590  6532.600  0.500  2.303928  153.994000  15.378732  0.891344
  6532.888  6532.900  0.500  2.304006  153.986993  15.376828  0.885615
  6533.188  6533.200  0.500  2.304181  153.987414  15.374189  0.879428
  6533.486  6533.500  0.500  2.304987  153.996550  15.362709  0.872522
  6533.789  6533.800  0.500  2.305310  153.992974  15.357395  0.865133
  6534.087  6534.100  0.500  2.305503  153.992856  15.354419  0.857011
  6534.391  6534.400  0.500  2.305297  153.992395  15.357529  0.848474
  6534.692  6534.700  0.500  2.305747  153.996838  15.351072  0.837910
  6534.994  6535.000  0.500  2.305856  153.983149  15.348025  0.825600
  6535.292  6535.300  0.500  2.306071  153.985507  15.344966  0.810794
  6535.596  6535.600  0.500  2.306510  153.994260  15.339104  0.793499
  6535.894  6535.900  0.500  2.307111  153.989175  15.329380  0.773541
  6536.194  6536.200  0.500  2.307866  153.990430  15.317939  0.748106
  6536.495  6536.500  0.500  2.308633  153.999117  15.307055  0.716366
  6536.797  6536.800  0.500  2.309628  153.994037  15.291323  0.673300
  6537.093  6537.100  0.500  2.310900  154.003634  15.272843  0.616747
  6537.395  6537.400  0.500  2.312158  154.013443  15.254609  0.540858
  6537.695  6537.700  0.500  2.314260  154.012992  15.222541  0.450403
  6537.998  6538.000  0.500  2.317020  154.016214  15.180902  0.352647
  6538.296  6538.300  0.500  2.321003  154.005816  15.119524  0.266009
  6538.598  6538.600  0.500  2.327201  154.004717  15.025998  0.201780
  6538.899  6538.900  0.500  2.334887  154.002415  14.910736  0.160902
  6539.199  6539.200  0.500  2.342280  153.993306  14.800032  0.135281
  6539.496  6539.500  0.500  2.347313  153.997331  14.726113  0.117604
  6539.798  6539.800  0.500  2.349227  153.998590  14.698072  0.104607
  6540.095  6540.100  0.500  2.348709  153.990973  14.704963  0.094347
  6540.394  6540.400  0.500  2.346233  153.989347  14.741261  0.085858
  6540.692  6540.700  0.500  2.342543  153.990381  14.795852  0.079014
  6540.993  6541.000  0.500  2.340552  153.995504  14.825831  0.073999
  6541.297  6541.300  0.500  2.340423  154.001859  14.828357  0.070565
  6541.596  6541.600  0.500  2.342556  154.000037  14.796590  0.068779
  6541.902  6541.900  0.500  2.346527  154.002363  14.738180  0.068036
  6542.197  6542.200  0.500  2.351847  153.997295  14.659485  0.067675
  6542.502  6542.500  0.500  2.359015  154.002056  14.555232  0.066180
  6542.801  6542.800  0.500  2.368451  153.995476  14.417928  0.063934
  6543.101  6543.100  0.500  2.381292  153.997981  14.234200  0.060518
  6543.397  6543.400  0.500  2.399332  154.002981  13.980164  0.056314
  6543.699  6543.700  0.500  2.425742  154.004203  13.615898  0.052046
  6543.995  6544.000  0.500  2.461909  154.001075  13.131978  0.047651
  6544.298  6544.300  0.500  2.510179  154.000742  12.513134  0.043248
  6544.598  6544.600  0.500  2.565705  154.008580  11.837861  0.039414
  6544.899  6544.900  0.500  2.624171  154.010405  11.165732  0.036168
  6545.202  6545.200  0.500  2.680484  154.009495  10.554265  0.033298
  6545.503  6545.500  0.500  2.735175  154.014535  9.992875  0.030634
  6545.799  6545.800  0.500  2.790822  154.019681  9.452299  0.027879
  6546.096  6546.100  0.500  2.855540  154.012290  8.859522  0.024959
  6546.397  6546.400  0.500  2.932062  154.041690  8.208426  0.022003
  6546.699  6546.700  0.500  3.022800  154.016601  7.495185  0.018938
  6546.994  6547.000  0.500  3.123892  154.020596  6.774694  0.016083
  6547.297  6547.300  0.500  3.238388  154.026039  6.041991  0.013472
  6547.598  6547.600  0.500  3.362822  154.035784  5.335393  0.010986
  6547.901  6547.900  0.500  3.497375  154.030106  4.663530  0.009145
  6548.205  6548.200  0.500  3.636565  154.021801  4.057345  0.007275
  6548.500  6548.500  0.500  3.774701  154.026635  3.533978  0.006011
  6548.798  6548.800  0.500  3.910751  154.032241  3.084567  0.005024
  6549.096  6549.100  0.500  4.035636  154.040513  2.722579  0.004101
  6549.395  6549.400  0.500  4.136835  154.039016  2.460517  0.003560
  6549.701  6549.700  0.500  4.203602  154.046659  2.301712  0.002977
  6550.000  6550.000  0.500  4.235629  154.046658  2.229165  0.002696
  6550.303  6550.300  0.500  4.246955  154.050343  2.204111  0.002497
  6550.601  6550.600  0.500  4.248030  154.055203  2.201812  0.002342
  6550.903  6550.900  0.500  4.242511  154.066798  2.214164  0.002242
  6551.204  6551.200  0.500  4.230748  154.060917  2.240278  0.002127
  6551.501  6551.500  0.500  4.210695  154.071708  2.285815  0.002003
  6551.802  6551.800  0.500  4.182868  154.077923  2.350413  0.001894
  6552.100  6552.100  0.500  4.148034  154.075891  2.433697  0.002028
  6552.402  6552.400  0.500  4.106473  154.086827  2.537154  0.001814
  6552.700  6552.700  0.500  4.057804  154.083995  2.663640  0.001837
  6553.002  6553.000  0.500  4.002895  154.087767  2.814059  0.001913
  6553.300  6553.300  0.500  3.943305  154.094638  2.986976  0.001760
  6553.603  6553.600  0.500  3.878467  154.102466  3.187225  0.001856
  6553.902  6553.900  0.500  3.813311  154.111221  3.402000  0.001972
  6554.202  6554.200  0.500  3.747338  154.114585  3.634091  0.001892
  6554.502  6554.500  0.500  3.686905  154.129217  3.860844  0.001911
  6554.800  6554.800  0.500  3.636765  154.130654  4.059403  0.002031
  6555.100  6555.100  0.500  3.598064  154.146801  4.220025  0.002146
  6555.399  6555.400  0.500  3.569739  154.153169  4.341449  0.002011
  6555.697  6555.700  0.500  3.550008  154.155604  4.428030  0.002208
  6556.001  6556.000  0.500  3.535134  154.161797  4.494563  0.002068
  6556.301  6556.300  0.500  3.523671  154.168980  4.546594  0.002147
  6556.603  6556.600  0.500  3.515912  154.175369  4.582198  0.002311
  6556.903  6556.900  0.500  3.511631  154.164952  4.601544  0.002424
  6557.204  6557.200  0.500  3.512341  154.166061  4.598314  0.002450
  6557.502  6557.500  0.500  3.518574  154.179660  4.570142  0.002462
  6557.801  6557.800  0.500  3.530279  154.183296  4.517070  0.002482
  6558.098  6558.100  0.500  3.548515  154.203662  4.436026  0.002378
  6558.398  6558.400  0.500  3.572487  154.206294  4.331024  0.002510
  6558.699  6558.700  0.500  3.599496  154.206905  4.215633  0.002477
  6558.999  6559.000  0.500  3.629224  154.217681  4.092439  0.002523
  6559.301  6559.300  0.500  3.657231  154.227683  3.979671  0.002624
  6559.606  6559.600  0.500  3.683628  154.229852  3.876049  0.002539
  6559.906  6559.900  0.500  3.706586  154.220756  3.787853  0.002504
  6560.209  6560.200  0.500  3.725333  154.221936  3.717531  0.002393
  6560.504  6560.500  0.500  3.737956  154.230204  3.671097  0.002512
  6560.804  6560.800  0.500  3.745860  154.230630  3.642205  0.002471
  6561.102  6561.100  0.500  3.749518  154.226935  3.628820  0.002419
  6561.399  6561.400  0.500  3.750310  154.157770  3.624319  0.002400
  6561.699  6561.700  0.500  3.748081  154.026604  3.629318  0.002444
  6561.998  6562.000  0.500  3.741825  154.442755  3.661960  0.002453
  6562.299  6562.300  0.500  3.731792  154.469610  3.699527  0.002395
  6562.602  6562.600  0.500  3.717831  154.644927  3.755797  0.002496
  6562.906  6562.900  0.500  3.701428  154.771425  3.821034  0.002545
  6563.205  6563.200  0.500  3.683730  154.794800  3.889850  0.002413
  6563.508  6563.500  0.500  3.664325  154.811204  3.966490  0.002548
  6563.806  6563.800  0.500  3.644873  154.828708  4.044860  0.002530
  6564.000  6564.000  0.500  3.631563  154.834157  4.099199  0.002539
  6564.999  6564.990  0.500  3.552945  154.848633  4.434892  0.002718
  6565.998  6565.990  0.500  3.457463  154.857556  4.879499  0.002835
  6567.035  6567.010  0.500  3.378579  154.858018  5.280017  0.003103
  6568.048  6568.060  0.500  3.310918  154.836811  5.648860  0.003259
  6569.106  6569.120  0.500  3.242183  154.857061  6.051582  0.003535
  6570.191  6570.200  0.500  3.184301  154.863163  6.412447  0.003687
  6571.288  6571.300  0.500  3.148403  154.871185  6.647164  0.003868
  6572.415  6572.420  0.500  3.130174  154.883665  6.769993  0.003928
  6573.557  6573.560  0.500  3.124123  154.887326  6.811247  0.003842
  6574.707  6574.710  0.500  3.127286  154.914107  6.790910  0.003891
  6575.893  6575.890  0.500  3.140960  154.917953  6.698852  0.003824
  6577.082  6577.080  0.500  3.161192  154.937111  6.565493  0.003806
  6578.304  6578.300  0.500  3.187234  154.956056  6.397500  0.003441
  6579.532  6579.530  0.500  3.220090  154.949036  6.190440  0.003239
  6580.786  6580.780  0.500  3.262369  154.968446  5.934914  0.003191
  6582.059  6582.050  0.500  3.311866  154.981978  5.648797  0.002912
  6583.345  6583.340  0.500  3.362238  154.979280  5.371211  0.002794
  6584.657  6584.650  0.500  3.399159  154.983740  5.176665  0.002595
  6585.984  6585.980  0.500  3.416181  154.733631  5.081082  0.002497
  6587.332  6587.330  0.500  3.423552  154.967655  5.051394  0.002636
  6588.704  6588.700  0.500  3.435415  154.991893  4.992607  0.002697
  6590.090  6590.080  0.500  3.453292  154.997064  4.904310  0.002679
  6591.494  6591.490  0.500  3.471340  155.002361  4.816753  0.002738
  6592.920  6592.910  0.500  3.492164  155.027526  4.718254  0.002804
  6594.353  6594.350  0.500  3.518408  155.042600  4.596484  0.002641
  6595.816  6595.810  0.500  3.526600  155.041222  4.558943  0.002835
  6597.298  6597.290  0.500  3.501429  155.055541  4.675587  0.002988
  6598.800  6598.790  0.500  3.471460  155.073147  4.818374  0.003313
  6600.314  6600.310  0.500  3.440711  155.076990  4.968960  0.003390
  6601.859  6601.850  0.500  3.417323  155.081478  5.086694  0.003416
  6603.411  6603.410  0.500  3.406614  154.775152  5.131302  0.003464
  6604.990  6604.980  0.500  3.402607  155.088109  5.162321  0.003411
  6606.587  6606.580  0.500  3.399307  155.106521  5.180000  0.003388
  6608.197  6608.190  0.500  3.396084  155.125403  5.197356  0.003240
  6609.836  6609.830  0.500  3.394202  155.154238  5.208116  0.003282
  6611.489  6611.480  0.500  3.388817  155.161775  5.236491  0.003161
  6613.155  6613.150  0.500  3.377370  155.163357  5.296829  0.003195
  6614.849  6614.840  0.500  3.361568  155.159312  5.381054  0.003163
  6616.556  6616.550  0.500  3.341939  155.165079  5.487927  0.003182
  6618.287  6618.280  0.500  3.319894  155.156918  5.609958  0.003285
  6620.040  6620.030  0.500  3.298725  155.153993  5.729873  0.003262
  6621.800  6621.790  0.500  3.283713  155.149722  5.816374  0.003318
  6623.590  6623.580  0.500  3.276508  155.163084  5.858943  0.003409
  6625.387  6625.380  0.500  3.276187  155.176501  5.861327  0.003380
  6627.218  6627.210  0.500  3.280525  155.179313  5.836065  0.003431
  6629.059  6629.050  0.500  3.286098  155.135787  5.801998  0.003544
  6630.917  6630.910  0.500  3.287760  155.210922  5.795169  0.003431
  6632.801  6632.790  0.500  3.284960  155.209157  5.811352  0.003653
  6634.703  6634.690  0.500  3.281276  155.224817  5.833390  0.003735
  6636.619  6636.610  0.500  3.280643  155.234169  5.837435  0.003574
  6638.557  6638.550  0.500  3.284667  155.231876  5.813910  0.003561
  6640.520  6640.510  0.500  3.289112  155.221875  5.787748  0.003467
  6642.488  6642.480  0.500  3.290301  155.228742  5.781131  0.003488
  6644.488  6644.480  0.500  3.287897  155.245547  5.795670  0.003450
  6646.501  6646.490  0.500  3.284670  155.265655  5.815154  0.003600
  6648.527  6648.520  0.500  3.283699  155.261712  5.820659  0.003635
  6650.589  6650.580  0.500  3.285849  155.261648  5.808154  0.003818
  6652.663  6652.650  0.500  3.287844  155.260108  5.796520  0.003802
  6654.745  6654.740  0.500  3.287192  155.249239  5.799898  0.003838
  6656.860  6656.850  0.500  3.284162  155.253411  5.817652  0.003995
  6658.993  6658.980  0.500  3.280948  155.240527  5.835897  0.003900
  6661.130  6661.120  0.500  3.278276  155.255440  5.852074  0.004139
  6663.298  6663.290  0.500  3.276346  155.248108  5.863098  0.004198
  6665.486  6665.480  0.500  3.275302  155.254354  5.869462  0.004056
  6667.691  6667.680  0.500  3.275334  155.258528  5.869429  0.003851
  6669.908  6669.900  0.500  3.277218  155.244734  5.857864  0.003945
  6672.156  6672.150  0.500  3.280346  155.236398  5.839254  0.003890
  6674.418  6674.410  0.500  3.282726  155.229848  5.825130  0.003749
  6676.702  6676.690  0.500  3.280909  155.217688  5.835265  0.003710
  6678.993  6678.990  0.500  3.273220  155.226030  5.880618  0.003705
  6681.315  6681.310  0.500  3.261180  155.240553  5.952407  0.003736
  6683.657  6683.650  0.500  3.247046  155.252038  6.037585  0.003814
  6686.008  6686.000  0.500  3.232083  155.248780  6.128472  0.003841
  6688.382  6688.380  0.500  3.217588  155.253190  6.218132  0.004037
  6690.776  6690.770  0.500  3.204057  155.236799  6.302171  0.004141
  6693.200  6693.190  0.500  3.192059  155.226733  6.377830  0.004189
  6695.630  6695.620  0.500  3.183615  155.204228  6.430978  0.004278
  6698.079  6698.070  0.500  3.179711  155.205199  6.456177  0.004407
  6700.559  6700.550  0.500  3.180450  155.170169  6.449950  0.004425
  6703.049  6703.040  0.500  3.182443  155.159091  6.436647  0.004643
  6705.559  6705.550  0.500  3.182449  155.140494  6.435837  0.004729
  6708.076  6708.070  0.500  3.179216  155.138433  6.456591  0.004711
  6710.631  6710.620  0.500  3.173691  155.125785  6.491838  0.004672
  6713.200  6713.190  0.500  3.168512  155.110767  6.524912  0.004873
  6715.779  6715.770  0.500  3.165014  155.119091  6.548130  0.004833
  6718.390  6718.380  0.500  3.161862  155.104629  6.568186  0.004847
  6721.003  6721.000  0.500  3.157583  155.069664  6.594864  0.004893
  6723.664  6723.650  0.500  3.151926  155.059117  6.631829  0.004861
  6726.321  6726.310  0.500  3.146302  155.070436  6.669714  0.004970
  6728.995  6728.990  0.500  3.140303  155.046385  6.708810  0.004833
  6731.700  6731.690  0.500  3.133396  155.024407  6.754346  0.004881
  6734.424  6734.410  0.500  3.126765  155.000275  6.798227  0.004958
  6737.165  6737.150  0.500  3.122168  154.964098  6.827960  0.005029
  6739.907  6739.900  0.500  3.120462  154.933995  6.838287  0.005044
  6742.689  6742.680  0.500  3.119477  154.910982  6.844007  0.004967
  6745.485  6745.470  0.500  3.117012  154.871450  6.859151  0.005098
  6748.299  6748.290  0.500  3.112808  154.848679  6.887034  0.005241
  6751.133  6751.120  0.500  3.108173  154.826130  6.918020  0.005232
  6753.978  6753.970  0.500  3.104850  154.803224  6.940023  0.005305
  6756.862  6756.850  0.500  3.102569  154.792824  6.955401  0.005466
  6759.749  6759.740  0.500  3.100593  154.771411  6.968195  0.005288
  6762.666  6762.650  0.500  3.097468  154.745541  6.988836  0.005386
  6765.582  6765.570  0.500  3.092649  154.702534  7.020647  0.005649
  6768.530  6768.520  0.500  3.086643  154.667056  7.061318  0.005491
  6771.494  6771.490  0.500  3.080103  154.647759  7.106764  0.005445
  6774.483  6774.470  0.500  3.072326  154.639394  7.161865  0.005663
  6777.493  6777.480  0.500  3.063247  154.630949  7.226786  0.005733
  6780.514  6780.500  0.500  3.053805  154.618066  7.294736  0.005902
  6783.568  6783.550  0.500  3.044561  154.594392  7.361356  0.006103
  6786.628  6786.610  0.500  3.036626  154.579718  7.419294  0.006157
  6789.701  6789.690  0.500  3.030417  154.599122  7.466442  0.006398
  6792.804  6792.790  0.500  3.025215  154.492665  7.500215  0.006307
  6795.924  6795.910  0.500  3.019424  151.979628  7.421061  0.006337
  6799.065  6799.050  0.500  3.014606  154.046071  7.558292  0.006547
  6802.218  6802.200  0.500  3.009575  154.195162  7.603766  0.006567
