# XDI/1.0 BlueSky/1.5.3
# Beamline.name: 6BM
# Beamline.xray_source: NSLS-II three-pole wiggler
# Beamline.collimation: paraboloid mirror, 5 nm Rh on 30 nm Pt
# Beamline.focusing: not in use
# Beamline.harmonic_rejection: flat mirror, Pt stripe, pitch = 7.0 mrad relative to beam
# Detector.i0: 10 cm N2
# Detector.I1: 25 cm N2
# Detector.I2: 25 cm N2
# Element.symbol: Zr
# Element.edge: K
# Facility.name: NSLS-II
# Facility.energy: 3.0
# Facility.current: 399.2
# Facility.mode: top-off
# Facility.GUP: 305832
# Facility.SAF: 305669
# Facility.cycle: 2020-1
# Mono.name: Si(111)
# Mono.d_spacing: 3.1353241
# Mono.encoder_resolution: 0.0000050 deg/ct
# Mono.angle_offset: 16.0581090 deg
# Mono.scan_mode: fixed exit
# Mono.scan_type: step
# Mono.direction: forward in energy
# Sample.name: ZrSiO4
# Sample.prep: Powder in polyethylene glycol pellet
# Sample.x_position: -5.367 mm
# Sample.y_position: 103.555 mm
# Scan.experimenters: Neil Hyatt, Martin Stennett, Dan Austin, Seb Lawson
# Scan.edge_energy: 17997.6
# Scan.start_time: 2020-03-05T04:27:50
# Scan.end_time: 2020-03-05T04:39:12
# Scan.transient_id: 22981
# Scan.uid: cec98351-9ce1-44ea-a18b-8d5a18cbab20
# Scan.plot_hint: ln(i0/itrans)  --  ln($5/$6)
# Column.1: energy eV
# Column.2: requested_energy eV
# Column.3: measurement_time seconds
# Column.4: mutrans 
# Column.5: i0
# Column.6: itrans
# Column.7: irefer
# ///////////
# 
# -----------
#  energy  requested_energy  measurement_time  mutrans  i0  itrans  irefer
17797.612  17797.600  1.000  0.066179  9.077127  8.495858  6.662619
17807.649  17807.600  1.000  0.065189  9.056029  8.484510  6.651284
17817.698  17817.600  1.000  0.064472  9.030162  8.466336  6.641555
17827.730  17827.600  1.000  0.063453  9.007949  8.454123  6.629400
17837.731  17837.600  1.000  0.062479  8.976542  8.432857  6.612569
17847.730  17847.600  1.000  0.061321  8.948969  8.416695  6.599835
17857.726  17857.600  1.000  0.061240  8.929319  8.398896  6.588770
17867.719  17867.600  1.000  0.060813  8.897885  8.372899  6.575146
17877.682  17877.600  1.000  0.059994  8.865842  8.349588  6.554138
17887.698  17887.600  1.000  0.059356  8.793673  8.286909  6.506023
17897.739  17897.600  1.000  0.059309  8.818753  8.310933  6.522717
17907.608  17907.600  1.000  0.059487  8.790294  8.282638  6.501083
17917.602  17917.600  1.000  0.059467  8.762524  8.256630  6.477019
17927.663  17927.600  1.000  0.060106  8.736486  8.226843  6.448866
17937.692  17937.600  1.000  0.061306  8.710430  8.192465  6.415677
17947.663  17947.600  1.000  0.064094  8.680735  8.141811  6.369608
17957.715  17957.600  1.000  0.067590  8.660634  8.094605  6.313836
17967.708  17967.600  1.000  0.074101  8.613387  7.998198  6.210095
17969.521  17969.600  1.000  0.075860  8.585924  7.958687  6.175930
17971.505  17971.600  1.000  0.077292  8.604633  7.964618  6.170625
17973.517  17973.600  1.000  0.079752  8.627351  7.966021  6.160733
17975.529  17975.600  1.000  0.082629  8.619231  7.935664  6.126967
17977.557  17977.600  1.000  0.085785  8.609595  7.901812  6.084828
17979.584  17979.600  1.000  0.089459  8.601917  7.865814  6.039563
17981.584  17981.600  1.000  0.093646  8.593016  7.824843  5.982493
17983.556  17983.600  1.000  0.098337  8.588438  7.784071  5.925344
17985.557  17985.600  1.000  0.104188  8.584757  7.735347  5.848713
17987.543  17987.600  1.000  0.111612  8.587880  7.680921  5.757386
17987.728  17987.850  1.000  0.112150  8.586051  7.675157  5.745142
17987.983  17988.100  1.000  0.113346  8.583218  7.663457  5.728911
17988.253  17988.350  1.000  0.114183  8.583149  7.656982  5.713760
17988.494  17988.600  1.000  0.115525  8.582535  7.646166  5.696504
17988.750  17988.850  1.000  0.116648  8.574809  7.630706  5.674844
17989.034  17989.100  1.000  0.118142  8.578299  7.622417  5.656830
17989.304  17989.350  1.000  0.119205  8.573093  7.609702  5.637513
17989.573  17989.600  1.000  0.120745  8.572585  7.597540  5.611517
17989.829  17989.850  1.000  0.121804  8.571211  7.588278  5.594759
17990.042  17990.100  1.000  0.123206  8.573011  7.579241  5.574620
17990.312  17990.350  1.000  0.124813  8.571830  7.566026  5.551922
17990.539  17990.600  1.000  0.125932  8.570322  7.556238  5.530328
17990.794  17990.850  1.000  0.127286  8.567699  7.543707  5.501949
17991.064  17991.100  1.000  0.129092  8.567735  7.530122  5.473781
17991.320  17991.350  1.000  0.130831  8.566123  7.515629  5.440901
17991.547  17991.600  1.000  0.132132  8.566326  7.506030  5.413163
17991.803  17991.850  1.000  0.134334  8.566135  7.489353  5.381548
17992.044  17992.100  1.000  0.135869  8.567563  7.479116  5.348307
17992.300  17992.350  1.000  0.137608  8.565018  7.463899  5.309724
17992.541  17992.600  1.000  0.139850  8.571593  7.452903  5.272856
17992.839  17992.850  1.000  0.141864  8.566306  7.433321  5.218685
17993.095  17993.100  1.000  0.144402  8.566378  7.414544  5.168049
17993.351  17993.350  1.000  0.146211  8.561651  7.397054  5.115783
17993.592  17993.600  1.000  0.148581  8.562082  7.379915  5.062684
17993.833  17993.850  1.000  0.150606  8.561012  7.364071  5.000538
17994.103  17994.100  1.000  0.153528  8.562253  7.343643  4.934450
17994.345  17994.350  1.000  0.156180  8.562831  7.324688  4.866137
17994.586  17994.600  1.000  0.159043  8.560151  7.301466  4.786497
17994.842  17994.850  1.000  0.161600  8.560181  7.282842  4.699933
17995.098  17995.100  1.000  0.164721  8.562346  7.261982  4.619823
17995.339  17995.350  1.000  0.167894  8.558924  7.236087  4.530923
17995.581  17995.600  1.000  0.171371  8.553302  7.206234  4.430830
17995.836  17995.850  1.000  0.174852  8.557486  7.184707  4.335260
17996.092  17996.100  1.000  0.178919  8.562439  7.159685  4.242471
17996.362  17996.350  1.000  0.183790  8.561797  7.124363  4.126300
17996.604  17996.600  1.000  0.188218  8.559430  7.090921  4.020562
17996.874  17996.850  1.000  0.193190  8.553074  7.050512  3.911308
17997.101  17997.100  1.000  0.197854  8.554861  7.019177  3.826026
17997.357  17997.350  1.000  0.203680  8.558915  6.981705  3.731554
17997.612  17997.600  1.000  0.209890  8.560741  6.939962  3.638163
17997.840  17997.850  1.000  0.215682  8.559196  6.898641  3.558255
17998.110  17998.100  1.000  0.223613  8.560086  6.844857  3.471309
17998.366  17998.350  1.000  0.231289  8.557571  6.790519  3.387375
17998.621  17998.600  1.000  0.240200  8.558625  6.731108  3.309014
17998.863  17998.850  1.000  0.248907  8.555789  6.670542  3.244210
17999.105  17999.100  1.000  0.257510  8.557129  6.614434  3.183935
17999.346  17999.350  1.000  0.267428  8.558407  6.550138  3.128626
17999.588  17999.600  1.000  0.278019  8.557415  6.480383  3.069591
17999.858  17999.850  1.000  0.289402  8.555454  6.405565  3.012733
18000.100  18000.100  1.000  0.301285  8.556196  6.330445  2.958081
18000.370  18000.350  1.000  0.313424  8.553818  6.252324  2.906874
18000.611  18000.600  1.000  0.325116  8.548875  6.176077  2.853447
18000.853  18000.850  1.000  0.336655  8.551677  6.107222  2.805600
18001.109  18001.100  1.000  0.348593  8.555941  6.037758  2.758240
18001.350  18001.350  1.000  0.360359  8.553784  5.965631  2.704691
18001.606  18001.600  1.000  0.373378  8.551014  5.886563  2.650542
18001.862  18001.850  1.000  0.385531  8.577289  5.833326  2.602773
18002.132  18002.100  1.000  0.398347  8.589138  5.766997  2.549639
18002.374  18002.350  1.000  0.410041  8.587377  5.698781  2.490732
18002.601  18002.600  1.000  0.420846  8.589241  5.638763  2.439832
18002.843  18002.850  1.000  0.432497  8.584010  5.570053  2.379817
18003.085  18003.100  1.000  0.445626  8.582220  5.496254  2.315616
18003.355  18003.350  1.000  0.458682  8.584565  5.426445  2.251483
18003.597  18003.600  1.000  0.472774  8.584293  5.350339  2.184396
18003.867  18003.850  1.000  0.486468  8.584031  5.277413  2.118221
18004.094  18004.100  1.000  0.501279  8.588020  5.202242  2.056154
18004.336  18004.350  1.000  0.516475  8.581265  5.119755  1.987623
18004.592  18004.600  1.000  0.532690  8.581652  5.037635  1.918974
18004.848  18004.850  1.000  0.549235  8.581331  4.954786  1.853400
18005.090  18005.100  1.000  0.568277  8.580951  4.861113  1.784477
18005.346  18005.350  1.000  0.588559  8.581220  4.763666  1.715019
18005.602  18005.600  1.000  0.610369  8.584354  4.662597  1.641729
18005.829  18005.850  1.000  0.632513  8.583644  4.560106  1.568231
18006.100  18006.100  1.000  0.655850  8.584763  4.455501  1.503233
18006.342  18006.350  1.000  0.680201  8.583196  4.347520  1.437319
18006.569  18006.600  1.000  0.707573  8.577036  4.227097  1.364330
18006.839  18006.850  1.000  0.737914  8.576363  4.100446  1.296819
18007.095  18007.100  1.000  0.769566  8.577657  3.973293  1.226634
18007.351  18007.350  1.000  0.803438  8.575160  3.839845  1.162073
18007.593  18007.600  1.000  0.835309  8.574716  3.719203  1.100679
18007.821  18007.850  1.000  0.870343  8.573319  3.590574  1.043149
18008.063  18008.100  1.000  0.905887  8.576232  3.466368  0.991466
18008.319  18008.350  1.000  0.942583  8.574517  3.340805  0.936793
18008.575  18008.600  1.000  0.985288  8.575303  3.201432  0.881390
18008.845  18008.850  1.000  1.030891  8.574600  3.058465  0.826636
18009.087  18009.100  1.000  1.078965  8.570658  2.913571  0.773580
18009.343  18009.350  1.000  1.123532  8.569207  2.786102  0.727270
18009.585  18009.600  1.000  1.168333  8.565942  2.663020  0.688269
18009.827  18009.850  1.000  1.216092  8.569243  2.539806  0.648348
18010.069  18010.100  1.000  1.266416  8.570800  2.415594  0.608951
18010.325  18010.350  1.000  1.317892  8.574371  2.295350  0.573244
18010.595  18010.600  1.000  1.378790  8.571497  2.159015  0.533813
18010.852  18010.850  1.000  1.438103  8.568644  2.034005  0.497308
18011.093  18011.100  1.000  1.496031  8.566739  1.919101  0.465275
18011.335  18011.350  1.000  1.553056  8.568019  1.812996  0.439286
18011.563  18011.600  1.000  1.612974  8.567120  1.707376  0.412861
18011.805  18011.850  1.000  1.676038  8.565643  1.602750  0.386525
18012.075  18012.100  1.000  1.746874  8.565902  1.493191  0.359278
18012.346  18012.350  1.000  1.821681  8.567917  1.385892  0.334468
18012.616  18012.600  1.000  1.892822  8.569002  1.290887  0.312451
18012.858  18012.850  1.000  1.964329  8.565713  1.201341  0.292124
18013.086  18013.100  1.000  2.032427  8.563357  1.121946  0.271936
18013.342  18013.350  1.000  2.111296  8.564553  1.037004  0.253358
18013.599  18013.600  1.000  2.191306  8.563360  0.957133  0.235152
18013.841  18013.850  1.000  2.275774  8.564130  0.879685  0.217237
18014.111  18014.100  1.000  2.363363  8.564653  0.805962  0.200487
18014.367  18014.350  1.000  2.449868  8.565762  0.739268  0.184078
18014.609  18014.600  1.000  2.528088  8.569191  0.683920  0.172521
18014.851  18014.850  1.000  2.606347  8.562646  0.631954  0.159330
18015.108  18015.100  1.000  2.689988  8.562527  0.581240  0.149671
18015.335  18015.350  1.000  2.764678  8.560289  0.539267  0.139903
18015.606  18015.600  1.000  2.844496  8.558724  0.497806  0.129703
18015.876  18015.850  1.000  2.914119  8.556954  0.464230  0.121212
18016.104  18016.100  1.000  2.971878  8.557438  0.438201  0.117692
18016.361  18016.350  1.000  3.024711  8.554943  0.415530  0.109799
18016.603  18016.600  1.000  3.065941  8.555801  0.398785  0.106614
18016.859  18016.850  1.000  3.095688  8.549956  0.386833  0.104391
18017.073  18017.100  1.000  3.113598  8.550328  0.379983  0.101510
18017.357  18017.350  1.000  3.121999  8.548418  0.376720  0.102316
18017.614  18017.600  1.000  3.118413  8.546529  0.377990  0.103729
18017.870  18017.850  1.000  3.107430  8.544279  0.382063  0.103086
18018.126  18018.100  1.000  3.088221  8.546091  0.389556  0.104793
18018.369  18018.350  1.000  3.062788  8.542219  0.399410  0.108054
18018.596  18018.600  1.000  3.036311  8.542996  0.410164  0.109894
18018.839  18018.850  1.000  3.004274  8.538864  0.423312  0.115485
18019.109  18019.100  1.000  2.969135  8.537155  0.438363  0.117068
18019.380  18019.350  1.000  2.931022  8.536600  0.455364  0.120453
18019.608  18019.600  1.000  2.898724  8.532182  0.470068  0.125963
18019.836  18019.850  1.000  2.868217  8.530778  0.484549  0.130165
18020.092  18020.100  1.000  2.836169  8.517452  0.499548  0.132303
18020.349  18020.350  1.000  2.810236  8.521711  0.512928  0.135913
18020.576  18020.600  1.000  2.785061  8.517859  0.525768  0.138226
18020.876  18020.850  1.000  2.761632  8.512926  0.537920  0.142292
18021.132  18021.100  1.000  2.742495  8.509278  0.548078  0.143967
18021.389  18021.350  1.000  2.726293  8.505906  0.556809  0.145979
18021.616  18021.600  1.000  2.712689  8.503334  0.564265  0.147770
18021.859  18021.850  1.000  2.705355  8.499516  0.568164  0.149051
18022.087  18022.100  1.000  2.696919  8.497652  0.572852  0.149092
18022.343  18022.350  1.000  2.689603  8.490001  0.576538  0.149657
18022.585  18022.600  1.000  2.684908  8.487043  0.579049  0.152315
18022.856  18022.850  1.000  2.682596  8.479802  0.579894  0.147176
18023.127  18023.100  1.000  2.680957  8.481935  0.580992  0.147179
18023.369  18023.350  1.000  2.680431  8.477222  0.580975  0.147575
18023.597  18023.600  1.000  2.682116  8.474807  0.579831  0.149464
18023.825  18023.850  1.000  2.683386  8.476288  0.579197  0.148322
18024.082  18024.100  1.000  2.684537  8.472722  0.578287  0.147562
18024.324  18024.350  1.000  2.687948  8.469795  0.576119  0.145704
18024.609  18024.600  1.000  2.691135  8.496007  0.576063  0.145730
18024.866  18024.850  1.000  2.695060  8.495929  0.573801  0.144497
18025.108  18025.100  1.000  2.698351  8.498581  0.572094  0.140544
18025.322  18025.350  1.000  2.702578  8.494166  0.569385  0.142290
18025.593  18025.600  1.000  2.705885  8.494722  0.567542  0.141329
18025.835  18025.850  1.000  2.709246  8.490702  0.565370  0.140104
18026.091  18026.100  1.000  2.712393  8.492160  0.563690  0.136938
18026.334  18026.350  1.000  2.714480  8.487909  0.562234  0.138369
18026.590  18026.600  1.000  2.716511  8.487954  0.561096  0.134839
18026.861  18026.850  1.000  2.715373  8.486439  0.561635  0.137041
18027.075  18027.100  1.000  2.713855  8.482335  0.562216  0.136592
18027.303  18027.350  1.000  2.711976  8.485809  0.563504  0.136181
18027.588  18027.600  1.000  2.707800  8.480806  0.565528  0.137145
18028.672  18028.680  1.000  2.664944  8.480436  0.590266  0.143545
18029.770  18029.780  1.000  2.589954  8.472301  0.635621  0.154305
18030.997  18030.890  1.000  2.485788  8.472507  0.705420  0.172277
18032.180  18032.030  1.000  2.370702  8.457252  0.790035  0.196647
18033.150  18033.180  1.000  2.296635  8.449582  0.850001  0.209714
18034.335  18034.360  1.000  2.233373  8.429776  0.903389  0.230264
18035.576  18035.550  1.000  2.191930  8.411483  0.939571  0.242246
18036.761  18036.760  1.000  2.162179  8.407027  0.967431  0.252722
18037.988  18037.990  1.000  2.129606  8.428043  1.001960  0.263371
18039.230  18039.240  1.000  2.094103  8.439500  1.039583  0.271883
18040.529  18040.510  1.000  2.056734  8.441098  1.079371  0.281599
18041.786  18041.800  1.000  2.028253  8.439454  1.110338  0.291052
18043.114  18043.110  1.000  2.010908  8.431284  1.128671  0.296429
18044.428  18044.430  1.000  2.002103  8.432339  1.138795  0.300476
18045.742  18045.780  1.000  1.995314  8.424917  1.145544  0.302787
18047.157  18047.140  1.000  1.988626  8.425328  1.153287  0.305179
18048.500  18048.530  1.000  1.984737  8.416787  1.156607  0.306909
18049.900  18049.930  1.000  1.985510  8.417711  1.155840  0.305898
18051.344  18051.350  1.000  1.994102  8.410351  1.144950  0.300771
18052.788  18052.790  1.000  2.013740  8.411086  1.122783  0.289627
18054.261  18054.250  1.000  2.042798  8.408799  1.090330  0.279549
18055.734  18055.730  1.000  2.078645  8.406265  1.051621  0.268358
18057.264  18057.230  1.000  2.112465  8.400610  1.015965  0.254928
18058.752  18058.740  1.000  2.136030  8.396274  0.991792  0.248293
18060.297  18060.280  1.000  2.146245  8.390954  0.981091  0.245403
18061.886  18061.840  1.000  2.148590  8.387855  0.978431  0.247462
18063.432  18063.410  1.000  2.150873  8.381910  0.975508  0.247861
18065.006  18065.000  1.000  2.157634  8.377507  0.968425  0.248791
18066.639  18066.610  1.000  2.169688  8.372780  0.956283  0.249552
18068.257  18068.250  1.000  2.183287  8.372351  0.943318  0.249420
18069.890  18069.900  1.000  2.201121  8.367912  0.926152  0.244785
18071.595  18071.570  1.000  2.226137  8.361558  0.902585  0.240281
18073.243  18073.250  1.000  2.261363  8.360052  0.871187  0.231716
18074.948  18074.960  1.000  2.304357  8.351299  0.833651  0.221858
18076.697  18076.690  1.000  2.345691  8.347084  0.799492  0.214978
18078.432  18078.430  1.000  2.375251  8.345506  0.776058  0.209975
18080.181  18080.200  1.000  2.385249  8.332735  0.767162  0.206310
18082.003  18081.980  1.000  2.376566  8.321615  0.772819  0.207457
18083.796  18083.780  1.000  2.352026  8.297477  0.789722  0.210613
18085.618  18085.600  1.000  2.317014  8.279704  0.816109  0.215759
18087.455  18087.440  1.000  2.277478  8.301374  0.851244  0.222269
18089.335  18089.300  1.000  2.241406  8.316347  0.884102  0.230982
18091.202  18091.180  1.000  2.213238  8.310023  0.908668  0.235660
18093.097  18093.080  1.000  2.195399  8.301301  0.924052  0.239924
18095.008  18095.000  1.000  2.183397  8.298936  0.934943  0.241549
18096.976  18096.930  1.000  2.170263  8.296735  0.947052  0.249578
18098.901  18098.890  1.000  2.155552  8.290819  0.960402  0.251130
18100.856  18100.860  1.000  2.140623  8.281260  0.973724  0.257235
18102.840  18102.860  1.000  2.127346  8.270554  0.985462  0.263309
18104.839  18104.870  1.000  2.116875  8.255003  0.993963  0.268259
18106.924  18106.900  1.000  2.104134  8.262107  1.007574  0.275271
18108.967  18108.950  1.000  2.092749  8.262681  1.019182  0.277117
18111.039  18111.020  1.000  2.080845  8.260767  1.031148  0.283291
18113.126  18113.110  1.000  2.072416  8.258280  1.039563  0.284000
18115.227  18115.210  1.000  2.066309  8.251457  1.045067  0.283727
18117.373  18117.340  1.000  2.064780  8.237494  1.044895  0.279069
18119.519  18119.490  1.000  2.065118  8.198604  1.039611  0.279694
18121.680  18121.650  1.000  2.067213  8.176458  1.034632  0.276980
18123.856  18123.830  1.000  2.072125  8.218812  1.034896  0.275930
18126.061  18126.040  1.000  2.078839  8.222584  1.028442  0.274066
18128.238  18128.260  1.000  2.088489  8.219389  1.018169  0.270669
18130.487  18130.500  1.000  2.101058  8.208138  1.004076  0.268387
18132.752  18132.760  1.000  2.114696  8.190728  0.988375  0.262469
18135.031  18135.040  1.000  2.129711  8.198621  0.974584  0.259103
18137.354  18137.340  1.000  2.143774  8.195748  0.960637  0.258604
18139.678  18139.650  1.000  2.158336  8.186760  0.945711  0.254376
18142.017  18141.990  1.000  2.167633  8.181986  0.936413  0.252098
18144.371  18144.340  1.000  2.174007  8.175614  0.929740  0.252781
18146.769  18146.720  1.000  2.172781  8.198108  0.933441  0.254970
18149.168  18149.110  1.000  2.166312  8.186104  0.938123  0.258560
18151.553  18151.520  1.000  2.158931  8.197807  0.946424  0.263173
18153.982  18153.950  1.000  2.149485  8.197703  0.955394  0.265982
18156.411  18156.400  1.000  2.139060  8.190607  0.964571  0.271199
18158.856  18158.870  1.000  2.126909  8.180846  0.975199  0.271993
18161.359  18161.360  1.000  2.115783  8.179484  0.985946  0.277541
18163.892  18163.870  1.000  2.107275  8.174164  0.993724  0.277291
18166.411  18166.390  1.000  2.104616  8.165714  0.995339  0.278449
18168.988  18168.940  1.000  2.107594  8.164025  0.992174  0.276249
18171.509  18171.500  1.000  2.112336  8.152097  0.986037  0.274355
18174.131  18174.090  1.000  2.113900  8.153116  0.984619  0.273190
18176.726  18176.690  1.000  2.108834  8.140708  0.988114  0.268526
18179.350  18179.310  1.000  2.098905  8.131724  0.996873  0.271608
18181.960  18181.950  1.000  2.090003  8.118834  1.004193  0.270743
18184.615  18184.610  1.000  2.084457  8.116012  1.009426  0.271909
