# XDI/1.0 BlueSky/1.10.0 BMM/2023-1.0-py310-tiled
# Beamline.name: BMM (06BM) -- Beamline for Materials Measurement (NIST)
# Beamline.xray_source: NSLS-II three-pole wiggler
# Beamline.collimation: paraboloid mirror, 5 nm Rh on 30 nm Pt
# Beamline.focusing: not in use
# Beamline.harmonic_rejection: flat mirror, Pt stripe, pitch = 7.0 mrad relative to beam
# Beamline.software: Bluesky 1.10.0, Ophyd 1.7.0, DataBroker 2.0.0b13, Python 3.10.8, 2023-1.0-py310-tiled
# Detector.I0: 10 cm N2
# Detector.I1: 25 cm N2
# Detector.I2: 25 cm N2
# Element.symbol: Zr
# Element.edge: K
# Element.reference: Zr
# Element.reference_material: Zr foil
# Facility.name: NSLS-II
# Facility.energy: 3.0
# Facility.current: 399.1
# Facility.mode: top-off
# Facility.GUP: 301027
# Facility.SAF: 310583
# Facility.cycle: 2023-2
# Mono.name: Si(111)
# Mono.d_spacing: 3.1351860
# Mono.encoder_resolution: 0.0000050 deg/ct
# Mono.angle_offset: 16.0754326 deg
# Mono.scan_mode: pseudo channel cut
# Mono.scan_type: step
# Mono.direction: forward in energy
# Sample.name: ZrO2
# Sample.prep: powder in PEG pellet
# Sample.x: 117.785 mm
# Sample.y: 114.695 mm
# Sample.SDD_position: 205.000 mm
# Scan.experimenters: Bruce Ravel
# Scan.edge_energy: 17997.6
# Scan.start_time: 2023-06-23T19:32:32
# Scan.end_time: 2023-06-23T19:39:45
# Scan.transient_id: 84974
# Scan.uid: fdaf4bf9-692d-428e-89a7-67300b4cfe5f
# Scan.plot_hint: ln(I0/It)  --  ln($5/$6)
# Column.1: energy eV
# Column.2: requested_energy eV
# Column.3: measurement_time seconds
# Column.4: xmu 
# Column.5: I0 nA
# Column.6: It nA
# Column.7: Ir nA
# ///////////
# sample courtesy Martin Stennett, University of Sheffield
# -----------
# energy  requested_energy  measurement_time  xmu  I0  It  Ir
  17797.539  17797.600  0.500  0.054740  13.642870  12.916134  9.725265
  17807.589  17807.600  0.500  0.053769  13.589490  12.878088  9.699203
  17817.693  17817.600  0.500  0.052817  13.546618  12.849688  9.681369
  17827.627  17827.600  0.500  0.051836  13.504519  12.822328  9.660820
  17837.628  17837.600  0.500  0.051323  13.469956  12.796085  9.645683
  17847.668  17847.600  0.500  0.050449  13.433120  12.772240  9.631163
  17857.635  17857.600  0.500  0.049844  13.398986  12.747503  9.615408
  17867.642  17867.600  0.500  0.049405  13.356616  12.712769  9.591917
  17877.604  17877.600  0.500  0.048445  13.315168  12.685496  9.570752
  17887.717  17887.600  0.500  0.048492  13.258359  12.630779  9.530967
  17897.660  17897.600  0.500  0.048358  13.249767  12.624282  9.527260
  17907.670  17907.600  0.500  0.048410  13.201748  12.577870  9.490319
  17917.663  17917.600  0.500  0.048844  13.170357  12.542520  9.463496
  17927.653  17927.600  0.500  0.049620  13.127338  12.491856  9.421721
  17937.682  17937.600  0.500  0.051199  13.097247  12.443564  9.377295
  17947.666  17947.600  0.500  0.053736  13.055880  12.372828  9.312201
  17957.676  17957.600  0.500  0.057545  13.013734  12.285993  9.227500
  17967.640  17967.600  0.500  0.064386  12.936965  12.130256  9.080574
  17969.538  17969.600  0.500  0.065954  12.907142  12.083335  9.034778
  17971.549  17971.600  0.500  0.068303  12.940060  12.085725  9.028005
  17973.576  17973.600  0.500  0.070606  12.945267  12.062780  8.997075
  17975.560  17975.600  0.500  0.073205  12.942452  12.028843  8.956975
  17977.573  17977.600  0.500  0.076300  12.929822  11.979978  8.908392
  17979.572  17979.600  0.500  0.079903  12.929782  11.936855  8.854043
  17981.586  17981.600  0.500  0.084125  12.924407  11.881614  8.788520
  17983.586  17983.600  0.500  0.088675  12.901490  11.806708  8.704057
  17985.586  17985.600  0.500  0.094823  12.907349  11.739673  8.617851
  17987.545  17987.600  0.500  0.101618  12.900416  11.653907  8.509715
  17987.800  17987.900  0.500  0.102871  12.901788  11.640549  8.493032
  17988.113  17988.200  0.500  0.103974  12.900033  11.626142  8.473991
  17988.425  17988.500  0.500  0.105231  12.897639  11.609379  8.451408
  17988.751  17988.800  0.500  0.106607  12.943753  11.634869  8.461394
  17989.049  17989.100  0.500  0.107911  12.941690  11.617855  8.438493
  17989.348  17989.400  0.500  0.109190  12.941819  11.603113  8.416424
  17989.646  17989.700  0.500  0.110603  12.941679  11.586608  8.394711
  17989.930  17990.000  0.500  0.112057  12.943211  11.571149  8.371937
  17990.214  17990.300  0.500  0.113629  12.939844  11.549965  8.346426
  17990.526  17990.600  0.500  0.115097  12.936023  11.529619  8.317829
  17990.838  17990.900  0.500  0.116683  12.937096  11.512301  8.291679
  17991.151  17991.200  0.500  0.118687  12.943982  11.495364  8.265609
  17991.449  17991.500  0.500  0.120222  12.927758  11.463344  8.227060
  17991.719  17991.800  0.500  0.121997  12.933972  11.448522  8.201431
  17992.045  17992.100  0.500  0.123996  12.929034  11.421292  8.162467
  17992.358  17992.400  0.500  0.126103  12.923560  11.392435  8.123724
  17992.670  17992.700  0.500  0.128105  12.922092  11.368351  8.083673
  17992.983  17993.000  0.500  0.130476  12.929615  11.348034  8.047294
  17993.281  17993.300  0.500  0.132771  12.920954  11.314430  8.001665
  17993.565  17993.600  0.500  0.135069  12.929409  11.295848  7.963267
  17993.863  17993.900  0.500  0.137456  12.925528  11.265534  7.914975
  17994.176  17994.200  0.500  0.140232  12.927379  11.235914  7.865086
  17994.474  17994.500  0.500  0.143199  12.927889  11.203073  7.804456
  17994.772  17994.800  0.500  0.146085  12.924082  11.167495  7.744367
  17995.085  17995.100  0.500  0.149382  12.909404  11.118093  7.668881
  17995.383  17995.400  0.500  0.152604  12.924004  11.094860  7.608385
  17995.639  17995.700  0.500  0.155738  12.923650  11.059850  7.539980
  17995.980  17996.000  0.500  0.159413  12.916488  11.013172  7.448906
  17996.264  17996.300  0.500  0.163451  12.912665  10.965543  7.352317
  17996.619  17996.600  0.500  0.168251  12.920505  10.919657  7.244974
  17996.917  17996.900  0.500  0.173011  12.915056  10.863218  7.124796
  17997.201  17997.200  0.500  0.177775  12.912725  10.809640  7.005501
  17997.500  17997.500  0.500  0.183312  12.919396  10.755509  6.870216
  17997.798  17997.800  0.500  0.188641  12.915000  10.694699  6.727164
  17998.097  17998.100  0.500  0.195112  12.906683  10.618877  6.559200
  17998.381  17998.400  0.500  0.202097  12.901743  10.540921  6.381029
  17998.722  17998.700  0.500  0.210133  12.914325  10.466759  6.198389
  17999.020  17999.000  0.500  0.218612  12.904362  10.370377  5.997608
  17999.305  17999.300  0.500  0.227735  12.905895  10.277423  5.804034
  17999.589  17999.600  0.500  0.237842  12.905818  10.174009  5.609717
  17999.887  17999.900  0.500  0.249698  12.903826  10.052540  5.397831
  18000.214  18000.200  0.500  0.263493  12.900984  9.912643  5.177443
  18000.513  18000.500  0.500  0.278221  12.900585  9.767413  4.974667
  18000.811  18000.800  0.500  0.294523  12.902614  9.610983  4.783084
  18001.124  18001.100  0.500  0.311289  12.898606  9.448260  4.608191
  18001.394  18001.400  0.500  0.328945  12.897552  9.282141  4.446996
  18001.692  18001.700  0.500  0.348821  12.895061  9.097718  4.290108
  18002.005  18002.000  0.500  0.370314  12.897132  8.905696  4.141481
  18002.304  18002.300  0.500  0.393048  12.899877  8.707374  4.003906
  18002.602  18002.600  0.500  0.415096  12.895531  8.514625  3.879747
  18002.929  18002.900  0.500  0.439812  12.895250  8.306571  3.754212
  18003.199  18003.200  0.500  0.463021  12.891215  8.113466  3.644581
  18003.498  18003.500  0.500  0.487424  12.889714  7.916944  3.534047
  18003.797  18003.800  0.500  0.512180  12.878933  7.716905  3.422229
  18004.095  18004.100  0.500  0.537004  12.888361  7.533206  3.317151
  18004.422  18004.400  0.500  0.562597  12.873338  7.334299  3.203659
  18004.721  18004.700  0.500  0.587304  12.884627  7.161578  3.100713
  18005.005  18005.000  0.500  0.611033  12.882674  6.992588  2.998715
  18005.290  18005.300  0.500  0.634734  12.885114  6.830092  2.895645
  18005.574  18005.600  0.500  0.657271  12.884662  6.677654  2.798502
  18005.901  18005.900  0.500  0.683687  12.881356  6.501899  2.685450
  18006.200  18006.200  0.500  0.709373  12.875779  6.334274  2.575089
  18006.499  18006.500  0.500  0.735335  12.874039  6.171106  2.467114
  18006.812  18006.800  0.500  0.764170  12.884500  6.000573  2.352249
  18007.096  18007.100  0.500  0.789814  12.878981  5.846146  2.251571
  18007.380  18007.400  0.500  0.816554  12.873141  5.689312  2.149308
  18007.665  18007.700  0.500  0.846325  12.878036  5.524528  2.040516
  18007.978  18008.000  0.500  0.877190  12.869985  5.353274  1.932344
  18008.305  18008.300  0.500  0.910500  12.870791  5.178216  1.823248
  18008.590  18008.600  0.500  0.944063  12.864808  5.004976  1.718817
  18008.874  18008.900  0.500  0.976261  12.866573  4.847056  1.624708
  18009.173  18009.200  0.500  1.012243  12.865033  4.675190  1.527365
  18009.458  18009.500  0.500  1.045589  12.863241  4.521234  1.442320
  18009.771  18009.800  0.500  1.086474  12.869226  4.342131  1.347915
  18010.084  18010.100  0.500  1.129172  12.861195  4.158036  1.255741
  18010.382  18010.400  0.500  1.171396  12.853263  3.983663  1.172075
  18010.681  18010.700  0.500  1.217481  12.866822  3.808256  1.091245
  18010.966  18011.000  0.500  1.263924  12.860221  3.633568  1.015436
  18011.279  18011.300  0.500  1.315791  12.859312  3.449664  0.941011
  18011.578  18011.600  0.500  1.367543  12.857134  3.275125  0.873784
  18011.891  18011.900  0.500  1.427713  12.851978  3.082635  0.802791
  18012.218  18012.200  0.500  1.494200  12.856553  2.885372  0.734649
  18012.503  18012.500  0.500  1.556526  12.853199  2.710321  0.676796
  18012.773  18012.800  0.500  1.618046  12.839805  2.545949  0.626321
  18013.072  18013.100  0.500  1.687915  12.851370  2.376277  0.574919
  18013.371  18013.400  0.500  1.764094  12.853459  2.202336  0.524385
  18013.684  18013.700  0.500  1.846464  12.854564  2.028374  0.476727
  18013.997  18014.000  0.500  1.926328  12.850010  1.872017  0.434986
  18014.325  18014.300  0.500  2.015796  12.845633  1.711223  0.393661
  18014.581  18014.600  0.500  2.096719  12.849682  1.578697  0.360481
  18014.894  18014.900  0.500  2.180661  12.845011  1.451060  0.329971
  18015.165  18015.200  0.500  2.266693  12.849546  1.331912  0.301667
  18015.478  18015.500  0.500  2.358655  12.842429  1.214217  0.274299
  18015.820  18015.800  0.500  2.457721  12.833475  1.098928  0.248389
  18016.119  18016.100  0.500  2.549531  12.836692  1.002781  0.226742
  18016.403  18016.400  0.500  2.633948  12.837653  0.921672  0.208648
  18016.702  18016.700  0.500  2.718091  12.837363  0.847274  0.192353
  18016.987  18017.000  0.500  2.795572  12.830235  0.783669  0.178468
  18017.301  18017.300  0.500  2.885784  12.835259  0.716349  0.163742
  18017.628  18017.600  0.500  2.971989  12.835584  0.657199  0.151106
  18017.927  18017.900  0.500  3.055445  12.837612  0.604674  0.139746
  18018.212  18018.200  0.500  3.130841  12.831606  0.560498  0.129825
  18018.511  18018.500  0.500  3.197698  12.826114  0.524025  0.121626
  18018.796  18018.800  0.500  3.267101  12.827147  0.488929  0.114160
  18019.109  18019.100  0.500  3.331928  12.823053  0.458093  0.107159
  18019.394  18019.400  0.500  3.394303  12.822887  0.430387  0.100922
  18019.722  18019.700  0.500  3.455850  12.826443  0.404808  0.094924
  18020.007  18020.000  0.500  3.508263  12.812891  0.383732  0.090059
  18020.334  18020.300  0.500  3.556348  12.811266  0.365670  0.085921
  18020.605  18020.600  0.500  3.598312  12.821362  0.350919  0.082221
  18020.890  18020.900  0.500  3.635702  12.814402  0.337857  0.079393
  18021.232  18021.200  0.500  3.674210  12.818944  0.325209  0.076371
  18021.517  18021.500  0.500  3.703456  12.802339  0.315427  0.073864
  18021.844  18021.800  0.500  3.726499  12.818903  0.308641  0.072130
  18022.101  18022.100  0.500  3.744683  12.808485  0.302833  0.070930
  18022.400  18022.400  0.500  3.758807  12.818133  0.298810  0.069847
  18022.614  18022.600  0.500  3.766316  12.811107  0.296412  0.069232
  18023.640  18023.590  0.500  3.776427  12.811806  0.293447  0.068378
  18024.623  18024.590  0.500  3.750872  12.803910  0.300857  0.069858
  18025.664  18025.610  0.500  3.699184  12.793942  0.316570  0.072809
  18026.676  18026.660  0.500  3.636271  12.794606  0.337143  0.076576
  18027.773  18027.720  0.500  3.566075  12.786373  0.361427  0.080730
  18028.814  18028.800  0.500  3.502887  12.778349  0.384760  0.084791
  18029.884  18029.900  0.500  3.444221  12.774332  0.407879  0.088493
  18031.039  18031.020  0.500  3.385251  12.767170  0.432413  0.092827
  18032.151  18032.160  0.500  3.324384  12.767987  0.459580  0.099250
  18033.278  18033.310  0.500  3.253379  12.761777  0.493158  0.107597
  18034.519  18034.490  0.500  3.170181  12.745144  0.535245  0.119013
  18035.690  18035.680  0.500  3.079927  12.755045  0.586255  0.133224
  18036.903  18036.900  0.500  2.993242  12.747659  0.638972  0.148511
  18038.173  18038.130  0.500  2.913343  12.749492  0.692220  0.164241
  18039.429  18039.380  0.500  2.848884  12.734609  0.737447  0.177501
  18040.700  18040.650  0.500  2.795198  12.719101  0.777173  0.188408
  18041.956  18041.940  0.500  2.752239  12.676915  0.808596  0.196621
  18043.313  18043.250  0.500  2.717865  12.663581  0.835993  0.203278
  18044.627  18044.580  0.500  2.689342  12.673065  0.860826  0.209519
  18045.970  18045.930  0.500  2.662240  12.701041  0.886427  0.216482
  18047.313  18047.300  0.500  2.633694  12.704059  0.912313  0.224096
  18048.699  18048.680  0.500  2.601505  12.697673  0.941683  0.232387
  18050.099  18050.090  0.500  2.572991  12.695124  0.968726  0.239775
  18051.529  18051.510  0.500  2.550500  12.694122  0.990683  0.245490
  18052.930  18052.950  0.500  2.539748  12.684980  1.000670  0.247417
  18054.417  18054.410  0.500  2.534012  12.680358  1.006060  0.246938
  18055.875  18055.890  0.500  2.532395  12.671693  1.007000  0.244269
  18057.406  18057.390  0.500  2.534342  12.668204  1.004765  0.240954
  18058.965  18058.910  0.500  2.540845  12.653593  0.997101  0.235347
  18060.496  18060.450  0.500  2.552739  12.654075  0.985349  0.230372
  18062.070  18062.010  0.500  2.568795  12.639433  0.968533  0.224842
  18063.630  18063.580  0.500  2.590823  12.639399  0.947429  0.220045
  18065.191  18065.180  0.500  2.617951  12.633628  0.921651  0.215123
  18066.809  18066.790  0.500  2.652940  12.623384  0.889239  0.209926
  18068.427  18068.430  0.500  2.697043  12.626938  0.851113  0.203677
  18070.088  18070.080  0.500  2.748232  12.616194  0.807954  0.195741
  18071.721  18071.750  0.500  2.803602  12.611103  0.764125  0.186470
  18073.469  18073.440  0.500  2.862282  12.590115  0.719377  0.176119
  18075.146  18075.150  0.500  2.912308  12.591285  0.684338  0.167941
  18076.938  18076.880  0.500  2.954782  12.574557  0.655009  0.160920
  18078.673  18078.630  0.500  2.987192  12.580527  0.634422  0.156187
  18080.436  18080.390  0.500  3.008613  12.571371  0.620524  0.153213
  18082.229  18082.180  0.500  3.016528  12.560850  0.615117  0.152077
  18084.037  18083.980  0.500  3.012118  12.546635  0.617136  0.152251
  18085.816  18085.810  0.500  2.994263  12.533072  0.627575  0.154392
  18087.696  18087.650  0.500  2.966234  12.526679  0.645085  0.158053
  18089.519  18089.510  0.500  2.932029  12.496993  0.665950  0.162468
  18091.385  18091.390  0.500  2.895580  12.449326  0.688036  0.166584
  18093.281  18093.290  0.500  2.861584  12.482174  0.713707  0.172105
  18095.220  18095.210  0.500  2.832513  12.515446  0.736718  0.177127
  18097.174  18097.150  0.500  2.807341  12.517154  0.755602  0.181627
  18099.113  18099.110  0.500  2.784762  12.501551  0.771893  0.185757
  18101.111  18101.080  0.500  2.763491  12.494526  0.788045  0.191152
  18103.109  18103.080  0.500  2.742456  12.483109  0.804061  0.196958
  18105.151  18105.090  0.500  2.724216  12.463333  0.817565  0.202604
  18107.136  18107.120  0.500  2.710357  12.442039  0.827558  0.207305
  18109.193  18109.180  0.500  2.699504  12.417464  0.834936  0.210954
  18111.251  18111.250  0.500  2.691503  12.443009  0.843375  0.213821
  18113.366  18113.340  0.500  2.689309  12.436793  0.844805  0.214713
  18115.439  18115.450  0.500  2.687752  12.433309  0.845885  0.214773
  18117.628  18117.580  0.500  2.685031  12.416093  0.847014  0.214076
  18119.788  18119.720  0.500  2.679419  12.384046  0.849583  0.213701
  18121.949  18121.890  0.500  2.672398  12.317362  0.850962  0.213476
  18124.125  18124.080  0.500  2.662809  12.342668  0.860926  0.215108
  18126.287  18126.280  0.500  2.654212  12.381245  0.871074  0.216905
  18128.507  18128.500  0.500  2.645901  12.384681  0.878587  0.218069
  18130.771  18130.750  0.500  2.639371  12.367900  0.883144  0.219091
  18133.035  18133.010  0.500  2.635688  12.366113  0.886275  0.219485
  18135.300  18135.290  0.500  2.635454  12.336957  0.884392  0.219026
  18137.623  18137.590  0.500  2.638892  12.378414  0.884319  0.218856
  18139.991  18139.910  0.500  2.647693  12.370090  0.875981  0.216666
  18142.286  18142.250  0.500  2.659711  12.377271  0.866018  0.214960
  18144.640  18144.600  0.500  2.674524  12.361833  0.852220  0.212731
  18146.980  18146.980  0.500  2.690303  12.357411  0.838579  0.210792
  18149.408  18149.370  0.500  2.704647  12.334678  0.825115  0.208991
  18151.793  18151.790  0.500  2.719633  12.294697  0.810208  0.206662
  18154.265  18154.220  0.500  2.736563  12.314999  0.797921  0.205247
  18156.709  18156.670  0.500  2.750180  12.315684  0.787174  0.203235
  18159.197  18159.150  0.500  2.758318  12.313717  0.780669  0.202607
  18161.714  18161.640  0.500  2.759590  12.306050  0.779191  0.202981
  18164.160  18164.150  0.500  2.753367  12.298829  0.783595  0.204228
  18166.737  18166.670  0.500  2.742379  12.274827  0.790706  0.205892
  18169.213  18169.220  0.500  2.729352  12.271894  0.800883  0.208385
  18171.792  18171.790  0.500  2.712711  12.261367  0.813623  0.210887
  18174.414  18174.370  0.500  2.692978  12.241257  0.828478  0.213617
  18177.023  18176.980  0.500  2.674833  12.238295  0.843443  0.216716
  18179.647  18179.600  0.500  2.658400  12.229591  0.856808  0.218982
  18182.287  18182.250  0.500  2.646431  12.222960  0.866654  0.220364
  18184.970  18184.910  0.500  2.636985  12.207778  0.873793  0.221133
  18187.611  18187.590  0.500  2.631091  12.191167  0.877762  0.221888
  18190.282  18190.290  0.500  2.624698  12.187930  0.883158  0.222923
  18193.040  18193.010  0.500  2.620713  12.184493  0.886434  0.224345
  18195.800  18195.750  0.500  2.619819  12.170138  0.886181  0.225182
  18198.589  18198.500  0.500  2.620386  12.157140  0.884733  0.225788
  18201.350  18201.280  0.500  2.623491  12.146831  0.881242  0.226426
  18204.098  18204.070  0.500  2.627398  12.134797  0.876936  0.226538
  18206.904  18206.890  0.500  2.633273  12.118231  0.870610  0.226174
  18209.755  18209.720  0.500  2.639058  12.108565  0.864897  0.225311
  18212.593  18212.570  0.500  2.644382  12.093057  0.859202  0.224863
  18215.489  18215.450  0.500  2.646780  12.084099  0.856510  0.225216
  18218.401  18218.340  0.500  2.646566  12.070454  0.855726  0.225870
  18221.285  18221.250  0.500  2.640873  11.999737  0.855570  0.226629
  18224.242  18224.170  0.500  2.630510  12.026022  0.866375  0.229564
  18227.113  18227.120  0.500  2.621262  12.028800  0.874626  0.231899
  18230.102  18230.090  0.500  2.614122  12.037488  0.881530  0.233185
  18233.135  18233.070  0.500  2.609607  12.019936  0.884228  0.232821
  18236.111  18236.080  0.500  2.607175  11.995326  0.884567  0.231639
  18239.132  18239.100  0.500  2.605891  11.993050  0.885535  0.230628
  18242.212  18242.150  0.500  2.606069  11.984574  0.884752  0.228988
  18245.220  18245.210  0.500  2.608211  11.969558  0.881752  0.227200
  18248.288  18248.290  0.500  2.610457  11.956629  0.878823  0.225461
