# XDI/1.0 BlueSky/1.5.3
# Beamline.name: 6BM
# Beamline.xray_source: NSLS-II three-pole wiggler
# Beamline.collimation: paraboloid mirror, 5 nm Rh on 30 nm Pt
# Beamline.focusing: not in use
# Beamline.harmonic_rejection: flat mirror, Pt stripe, pitch = 7.0 mrad relative to beam
# Detector.i0: 10 cm N2
# Detector.i1: 25 cm N2
# Detector.i2: 25 cm N2
# Element.symbol: Y
# Element.edge: K
# Facility.name: NSLS-II
# Facility.energy: 3.0
# Facility.current: 399.3
# Facility.mode: top-off
# Facility.gup: 301027
# Facility.saf: 304793
# Mono.name: Si(111)
# Mono.d_spacing: 3.1353241
# Mono.encoder_resolution: 0.0000050 deg/ct
# Mono.angle_offset: 16.0581090 deg
# Mono.scan_mode: fixed exit
# Mono.scan_type: step
# Mono.direction: forward in energy
# Sample.name: Y foil
# Sample.prep: foil standard
# Sample.x_position: -54.942 mm
# Sample.y_position: 110.034 mm
# Sample.wheel_position: -135.000 mm
# Scan.experimenters: Martin Stennett, Bruce Ravel, Sarah Nicolas
# Scan.edge_energy: 17038.0
# Scan.start_time: 2019-10-18T20:23:07
# Scan.end_time: 2019-10-18T20:53:36
# Scan.transient_id: 15397
# Scan.uid: c5fe30bd-9ded-4d70-87ba-3344341b164d
# Scan.plot_hint: ln(It/Ir)  --  ln($6/$7)
# Scan.sequence: merge of 3 scans
# Column.1: energy eV
# Column.2: requested_energy eV
# Column.3: measurement_time seconds
# Column.4: mutrans
# Column.5: i0
# Column.6: itrans
# /////
#  foil standard
# -----
# energy   requested_energy   measurement_time   mutrans   i0   itrans
16837.995000 16838.000000 1.000000 0.274136 45.637627 34.695064
16847.992000 16848.000000 1.000000 0.273780 51.918663 39.484152
16858.075000 16858.000000 1.000000 0.273300 51.693389 39.331707
16868.097000 16868.000000 1.000000 0.272993 51.498173 39.195160
16878.142000 16878.000000 1.000000 0.272725 51.416098 39.143230
16888.100000 16888.000000 1.000000 0.272304 51.239909 39.025487
16898.107000 16898.000000 1.000000 0.272151 51.078245 38.908304
16908.139000 16908.000000 1.000000 0.271831 50.868981 38.761312
16918.069000 16918.000000 1.000000 0.271664 50.612793 38.572507
16928.087000 16928.000000 1.000000 0.271582 50.571134 38.543942
16938.066000 16938.000000 1.000000 0.271717 47.823131 36.444559
16948.032000 16948.000000 1.000000 0.271781 50.667180 38.609457
16958.073000 16958.000000 1.000000 0.272045 50.558150 38.516221
16968.101000 16968.000000 1.000000 0.272587 50.379597 38.359357
16978.115000 16978.000000 1.000000 0.273501 50.159477 38.156858
16988.091000 16988.000000 1.000000 0.274943 50.120134 38.072010
16998.053000 16998.000000 1.000000 0.277765 49.965009 37.847319
17008.027000 17008.000000 1.000000 0.282605 49.821292 37.556147
17009.955000 17010.000000 1.000000 0.283968 49.795095 37.485245
17011.972000 17012.000000 1.000000 0.285807 49.763523 37.392547
17013.964000 17014.000000 1.000000 0.287964 49.733381 37.289865
17015.969000 17016.000000 1.000000 0.290403 49.713530 37.183826
17017.987000 17018.000000 1.000000 0.293416 49.672125 37.041100
17019.955000 17020.000000 1.000000 0.297164 49.655833 36.890354
17021.949000 17022.000000 1.000000 0.302042 49.618115 36.682363
17023.956000 17024.000000 1.000000 0.308801 49.597705 36.421344
17025.939000 17026.000000 1.000000 0.318021 49.566818 36.067706
17027.985000 17028.000000 1.000000 0.332025 49.541166 35.542837
17028.442000 17028.500000 1.000000 0.336416 49.527051 35.382720
17028.964000 17029.000000 1.000000 0.341532 49.511077 35.182949
17029.472000 17029.500000 1.000000 0.347549 49.519622 34.979433
17029.981000 17030.000000 1.000000 0.354510 49.506061 34.726796
17030.464000 17030.500000 1.000000 0.362735 49.509005 34.441043
17030.972000 17031.000000 1.000000 0.372843 49.496422 34.088562
17031.494000 17031.500000 1.000000 0.385252 49.492025 33.646500
17031.964000 17032.000000 1.000000 0.400379 49.470621 33.147231
17032.498000 17032.500000 1.000000 0.420099 49.473128 32.483490
17032.956000 17033.000000 1.000000 0.443312 49.486050 31.771972
17033.478000 17033.500000 1.000000 0.472985 49.459085 30.801607
17033.974000 17034.000000 1.000000 0.508011 49.453955 29.726529
17034.470000 17034.500000 1.000000 0.550438 49.467904 28.537229
17034.953000 17035.000000 1.000000 0.595245 49.452388 27.280337
17035.475000 17035.500000 1.000000 0.644961 49.429835 25.914079
17035.945000 17036.000000 1.000000 0.692567 49.429113 24.739244
17036.480000 17036.500000 1.000000 0.741446 49.439277 23.555594
17036.951000 17037.000000 1.000000 0.782639 49.440129 22.643436
17037.472000 17037.500000 1.000000 0.817249 49.398542 21.828982
17037.981000 17038.000000 1.000000 0.845475 49.385716 21.209045
17038.503000 17038.500000 1.000000 0.869663 49.404663 20.694167
17038.974000 17039.000000 1.000000 0.891324 49.391903 20.278192
17039.509000 17039.500000 1.000000 0.913925 49.372279 19.782498
17039.980000 17040.000000 1.000000 0.940247 49.364325 19.295544
17040.514000 17040.500000 1.000000 0.971129 49.364793 18.697031
17040.998000 17041.000000 1.000000 1.007053 49.352680 18.034326
17041.520000 17041.500000 1.000000 1.049196 49.339374 17.272767
17042.004000 17042.000000 1.000000 1.095538 49.320339 16.503191
17042.500000 17042.500000 1.000000 1.147156 49.324633 15.676996
17043.022000 17043.000000 1.000000 1.201627 49.317451 14.816346
17043.493000 17043.500000 1.000000 1.258494 49.290748 14.023771
17044.003000 17044.000000 1.000000 1.316577 49.273397 13.208247
17044.474000 17044.500000 1.000000 1.371743 49.281904 12.519606
17044.996000 17045.000000 1.000000 1.426767 49.369189 11.858509
17045.467000 17045.500000 1.000000 1.473222 49.327172 11.319621
17045.977000 17046.000000 1.000000 1.516589 49.324311 10.828887
17046.474000 17046.500000 1.000000 1.551439 49.309481 10.460002
17046.983000 17047.000000 1.000000 1.577949 49.282324 10.168769
17047.506000 17047.500000 1.000000 1.597480 49.271664 9.970940
17047.964000 17048.000000 1.000000 1.608167 49.256637 9.865894
17048.499000 17048.500000 1.000000 1.612844 49.234877 9.813906
17049.009000 17049.000000 1.000000 1.611721 49.222661 9.823699
17049.493000 17049.500000 1.000000 1.606919 49.202443 9.865953
17050.016000 17050.000000 1.000000 1.598980 49.187260 9.946322
17050.526000 17050.500000 1.000000 1.589468 49.170597 10.036745
17051.023000 17051.000000 1.000000 1.579829 49.165796 10.135611
17051.494000 17051.500000 1.000000 1.569860 49.134887 10.223651
17052.030000 17052.000000 1.000000 1.560384 49.116918 10.318766
17052.514000 17052.500000 1.000000 1.552317 49.089727 10.396437
17053.011000 17053.000000 1.000000 1.544740 49.084758 10.472951
17053.483000 17053.500000 1.000000 1.538559 49.059807 10.529945
17053.993000 17054.000000 1.000000 1.533381 49.027776 10.580441
17054.490000 17054.500000 1.000000 1.529542 49.075903 10.629630
17054.975000 17055.000000 1.000000 1.526987 49.084167 10.658471
17055.497000 17055.500000 1.000000 1.526052 49.053552 10.663619
17055.995000 17056.000000 1.000000 1.526577 49.051981 10.658182
17056.479000 17056.500000 1.000000 1.528607 49.022803 10.631336
17056.964000 17057.000000 1.000000 1.531797 49.012135 10.595343
17057.500000 17057.500000 1.000000 1.536573 48.998307 10.540721
17057.997000 17058.000000 1.000000 1.541789 48.976618 10.483146
17058.508000 17058.500000 1.000000 1.547434 48.940939 10.414293
17058.980000 17059.000000 1.000000 1.552942 48.922631 10.354638
17059.515000 17059.500000 1.000000 1.558358 48.928203 10.298143
17060.000000 17060.000000 1.000000 1.562459 48.893308 10.248507
17060.523000 17060.500000 1.000000 1.565520 48.867871 10.211715
17060.995000 17061.000000 1.000000 1.566907 48.852204 10.195234
17061.519000 17061.500000 1.000000 1.566765 48.812380 10.189041
17062.016000 17062.000000 1.000000 1.564867 48.792090 10.204682
17062.514000 17062.500000 1.000000 1.561363 48.784007 10.238138
17063.012000 17063.000000 1.000000 1.556854 48.741009 10.277886
17063.497000 17063.500000 1.000000 1.550534 48.710167 10.334859
17064.020000 17064.000000 1.000000 1.543930 48.665587 10.393920
17064.493000 17064.500000 1.000000 1.537326 48.710725 10.471245
17065.003000 17065.000000 1.000000 1.530280 48.664440 10.536346
17065.476000 17065.500000 1.000000 1.524072 48.639245 10.593151
17066.012000 17066.000000 1.000000 1.518195 48.593321 10.650903
17066.497000 17066.500000 1.000000 1.513022 48.552061 10.692807
17066.982000 17067.000000 1.000000 1.509129 48.498427 10.721746
17067.506000 17067.500000 1.000000 1.505918 48.448918 10.747247
17067.965000 17068.000000 1.000000 1.503575 48.361867 10.750842
17069.077000 17069.080000 1.000000 1.500119 48.171107 10.746717
17070.162000 17070.180000 1.000000 1.498044 47.827657 10.692077
17071.312000 17071.290000 1.000000 1.496235 47.152668 10.560977
17072.462000 17072.430000 1.000000 1.493521 45.634360 10.248483
17073.625000 17073.580000 1.000000 1.490151 43.271160 9.750779
17074.801000 17074.760000 1.000000 1.486741 41.514770 9.386913
17075.989000 17075.950000 1.000000 1.484866 42.299193 9.582072
17077.191000 17077.160000 1.000000 1.486006 45.133269 10.212119
17078.393000 17078.390000 1.000000 1.489476 47.744359 10.765487
17079.659000 17079.640000 1.000000 1.495082 48.942873 10.973681
17080.925000 17080.910000 1.000000 1.502160 49.195341 10.952257
17082.217000 17082.200000 1.000000 1.509477 49.218849 10.878880
17083.496000 17083.510000 1.000000 1.516008 49.182534 10.801272
17084.814000 17084.830000 1.000000 1.519693 49.146142 10.753407
17086.184000 17086.180000 1.000000 1.519099 49.114278 10.751367
17087.540000 17087.540000 1.000000 1.513839 49.051051 10.793637
17088.949000 17088.930000 1.000000 1.503900 49.002030 10.891293
17090.370000 17090.330000 1.000000 1.492796 48.984296 11.011321
17091.766000 17091.750000 1.000000 1.482612 48.946279 11.114246
17093.213000 17093.190000 1.000000 1.474882 48.894904 11.187613
17094.660000 17094.650000 1.000000 1.470011 48.868186 11.235930
17096.134000 17096.130000 1.000000 1.467008 48.840137 11.263149
17097.646000 17097.630000 1.000000 1.464912 48.788881 11.274913
17099.146000 17099.140000 1.000000 1.463639 48.770005 11.284760
17100.697000 17100.680000 1.000000 1.462942 48.732318 11.284132
17102.248000 17102.240000 1.000000 1.463777 48.730531 11.274351
17103.825000 17103.810000 1.000000 1.466411 48.685732 11.233925
17105.416000 17105.400000 1.000000 1.471138 48.631005 11.168233
17107.007000 17107.010000 1.000000 1.477369 48.601488 11.092441
17108.662000 17108.650000 1.000000 1.484315 48.596972 11.015069
17110.330000 17110.300000 1.000000 1.490354 48.559922 10.940116
17112.012000 17111.970000 1.000000 1.493815 48.528216 10.895368
17113.681000 17113.650000 1.000000 1.494544 48.477090 10.876035
17115.389000 17115.360000 1.000000 1.491759 48.458651 10.902213
17117.084000 17117.090000 1.000000 1.486191 48.440406 10.958546
17118.831000 17118.830000 1.000000 1.478608 48.395623 11.032050
17120.591000 17120.600000 1.000000 1.469918 48.382597 11.124347
17122.403000 17122.380000 1.000000 1.461452 48.327917 11.207557
17124.190000 17124.180000 1.000000 1.454864 48.304731 11.275345
17126.042000 17126.000000 1.000000 1.450945 48.261733 11.310199
17127.881000 17127.840000 1.000000 1.449754 48.227949 11.315576
17129.694000 17129.700000 1.000000 1.450502 48.208769 11.302704
17131.598000 17131.580000 1.000000 1.452294 48.192877 11.278532
17133.464000 17133.480000 1.000000 1.454290 48.216872 11.262069
17135.408000 17135.400000 1.000000 1.456085 48.183647 11.233975
17137.339000 17137.330000 1.000000 1.457454 48.130076 11.206138
17139.322000 17139.290000 1.000000 1.458392 48.111221 11.191101
17141.306000 17141.260000 1.000000 1.459010 48.100631 11.181742
17143.251000 17143.260000 1.000000 1.459232 48.072326 11.172737
17145.287000 17145.270000 1.000000 1.459103 48.036155 11.165792
17147.285000 17147.300000 1.000000 1.458197 47.989736 11.164980
17149.348000 17149.350000 1.000000 1.455670 47.965609 11.187326
17151.450000 17151.420000 1.000000 1.451418 47.952558 11.232335
17153.539000 17153.510000 1.000000 1.446377 47.918003 11.281303
17155.629000 17155.610000 1.000000 1.441159 47.896600 11.334877
17157.759000 17157.740000 1.000000 1.436473 47.882536 11.384983
17159.901000 17159.890000 1.000000 1.432144 47.823299 11.420111
17162.032000 17162.050000 1.000000 1.428650 47.805609 11.455209
17164.240000 17164.230000 1.000000 1.426592 47.796596 11.476973
17166.475000 17166.440000 1.000000 1.425775 47.751265 11.475688
17168.672000 17168.660000 1.000000 1.425908 47.717820 11.466083
17170.921000 17170.900000 1.000000 1.426888 47.703809 11.451231
17173.157000 17173.160000 1.000000 1.428835 47.674292 11.422178
17175.420000 17175.440000 1.000000 1.431612 47.691898 11.394953
17177.748000 17177.740000 1.000000 1.434232 47.678253 11.361694
17180.065000 17180.050000 1.000000 1.436318 47.659316 11.333540
17182.407000 17182.390000 1.000000 1.437804 47.618216 11.306874
17184.737000 17184.740000 1.000000 1.438344 47.563292 11.287761
17187.120000 17187.120000 1.000000 1.438058 47.520177 11.280720
17189.529000 17189.510000 1.000000 1.435743 47.498426 11.301566
17191.952000 17191.920000 1.000000 1.431879 47.484170 11.342139
17194.376000 17194.350000 1.000000 1.427239 47.454155 11.387689
17196.839000 17196.800000 1.000000 1.422837 47.407640 11.426778
17199.303000 17199.270000 1.000000 1.418849 47.378514 11.465640
17201.767000 17201.760000 1.000000 1.414979 47.349652 11.502604
17204.258000 17204.270000 1.000000 1.411046 47.287117 11.532224
17206.789000 17206.790000 1.000000 1.406745 47.255215 11.573981
17209.373000 17209.340000 1.000000 1.403181 47.247459 11.614123
17211.944000 17211.900000 1.000000 1.401173 47.201869 11.626218
17214.543000 17214.490000 1.000000 1.401090 47.179355 11.621056
17217.089000 17217.090000 1.000000 1.403120 47.161777 11.593917
17219.689000 17219.710000 1.000000 1.406428 47.088247 11.538100
17222.381000 17222.350000 1.000000 1.410914 47.114331 11.492136
17225.047000 17225.010000 1.000000 1.415989 47.085774 11.426693
17227.714000 17227.690000 1.000000 1.420640 47.000252 11.353034
17230.421000 17230.390000 1.000000 1.424038 46.965413 11.306401
17233.116000 17233.110000 1.000000 1.425599 46.979455 11.292357
17235.877000 17235.840000 1.000000 1.424367 46.936760 11.295703
17238.639000 17238.600000 1.000000 1.421233 46.912555 11.324431
17241.428000 17241.370000 1.000000 1.417001 46.859305 11.360128
17244.270000 17244.170000 1.000000 1.412794 46.828789 11.398457
17247.086000 17246.980000 1.000000 1.409657 46.798557 11.429707
17249.904000 17249.810000 1.000000 1.407064 46.748135 11.447225
17253.427000 17252.660000 1.000000 1.405115 46.717024 11.465640
17256.090000 17255.530000 1.000000 1.403010 46.652663 11.472966
17258.440000 17258.420000 1.000000 1.401033 46.622982 11.485462
17261.340000 17261.320000 1.000000 1.398673 46.559575 11.496620
17264.293000 17264.250000 1.000000 1.396889 46.546457 11.513976
17267.247000 17267.200000 1.000000 1.396104 46.517612 11.515901
17270.163000 17270.160000 1.000000 1.395887 46.505619 11.515394
17273.158000 17273.140000 1.000000 1.396416 46.426820 11.489847
17276.154000 17276.150000 1.000000 1.397225 46.405621 11.475301
17279.178000 17279.170000 1.000000 1.398634 46.341875 11.443337
17282.216000 17282.210000 1.000000 1.400300 46.300154 11.414049
17285.281000 17285.270000 1.000000 1.402061 46.292234 11.391987
17288.373000 17288.350000 1.000000 1.403163 46.244739 11.367791
17291.466000 17291.450000 1.000000 1.403554 46.202528 11.352991
17294.587000 17294.560000 1.000000 1.402633 46.136015 11.347115
17297.709000 17297.700000 1.000000 1.400507 46.113154 11.365698
17300.858000 17300.850000 1.000000 1.397156 46.078463 11.395119
17304.022000 17304.030000 1.000000 1.393657 46.039585 11.425610
17307.186000 17307.220000 1.000000 1.390717 46.013256 11.452420
17310.431000 17310.430000 1.000000 1.388341 45.969348 11.468765
17313.664000 17313.660000 1.000000 1.386531 45.858611 11.461879
17316.937000 17316.920000 1.000000 1.384845 45.826066 11.472999
17320.199000 17320.180000 1.000000 1.383214 45.822687 11.491015
17323.475000 17323.470000 1.000000 1.381664 45.792706 11.501279
17326.778000 17326.780000 1.000000 1.380537 45.743047 11.501810
17330.096000 17330.110000 1.000000 1.380214 45.692528 11.492805
17333.455000 17333.450000 1.000000 1.380217 45.671692 11.487528
17336.815000 17336.820000 1.000000 1.380741 45.633242 11.471854
17340.242000 17340.200000 1.000000 1.381284 45.596981 11.456506
17343.618000 17343.600000 1.000000 1.381600 45.531680 11.436481
17347.061000 17347.030000 1.000000 1.381659 45.490326 11.425420
17350.466000 17350.470000 1.000000 1.381119 45.447627 11.420862
17353.938000 17353.930000 1.000000 1.380630 45.394746 11.413147
17357.372000 17357.400000 1.000000 1.379471 45.333174 11.410840
17360.927000 17360.900000 1.000000 1.378230 45.281370 11.412010
17364.430000 17364.420000 1.000000 1.376721 45.289795 11.431365
17368.000000 17367.960000 1.000000 1.375020 45.227678 11.435147
17371.546000 17371.510000 1.000000 1.373111 45.201945 11.450486
17375.106000 17375.090000 1.000000 1.371116 45.171405 11.465550
17378.681000 17378.680000 1.000000 1.369431 45.124083 11.472892
17382.297000 17382.290000 1.000000 1.367881 45.068591 11.476590
17385.915000 17385.920000 1.000000 1.366782 44.970192 11.464022
17389.601000 17389.570000 1.000000 1.365819 44.905549 11.458644
17393.288000 17393.240000 1.000000 1.365317 44.924351 11.469192
17396.936000 17396.930000 1.000000 1.364579 44.861855 11.461660
17400.680000 17400.640000 1.000000 1.364257 44.829653 11.457150
17404.358000 17404.360000 1.000000 1.363966 44.752805 11.440819
17408.105000 17408.110000 1.000000 1.363832 44.646672 11.415239
17411.880000 17411.870000 1.000000 1.363600 44.647877 11.418177
17415.669000 17415.660000 1.000000 1.362945 44.623056 11.419291
17419.514000 17419.460000 1.000000 1.362112 44.570861 11.415496
17423.320000 17423.280000 1.000000 1.361123 44.529038 11.416044
17427.155000 17427.120000 1.000000 1.360243 44.486012 11.415070
17430.978000 17430.980000 1.000000 1.359527 44.424875 11.407549
17434.869000 17434.860000 1.000000 1.358730 44.297454 11.383918
17438.776000 17438.760000 1.000000 1.357794 44.282092 11.390604
17442.711000 17442.680000 1.000000 1.356399 44.296297 11.410179
17446.608000 17446.610000 1.000000 1.354991 44.289338 11.424398
17450.533000 17450.570000 1.000000 1.353493 44.204338 11.419455
17454.553000 17454.540000 1.000000 1.351909 44.126898 11.417636
17458.575000 17458.540000 1.000000 1.350445 44.076273 11.421258
17462.586000 17462.550000 1.000000 1.349279 44.049515 11.427680
17466.612000 17466.580000 1.000000 1.348322 44.007168 11.427606
17470.627000 17470.630000 1.000000 1.347516 43.951465 11.422307
17474.750000 17474.700000 1.000000 1.346871 43.897541 11.415688
17478.822000 17478.790000 1.000000 1.346465 43.793839 11.393330
17482.909000 17482.900000 1.000000 1.345912 43.725157 11.381726
17487.025000 17487.020000 1.000000 1.345168 43.692938 11.381849
17491.170000 17491.170000 1.000000 1.344164 43.679077 11.389646
17495.357000 17495.330000 1.000000 1.343191 43.623835 11.386307
17499.586000 17499.520000 1.000000 1.342086 43.563669 11.383179
17503.764000 17503.720000 1.000000 1.341103 43.518778 11.382669
17507.957000 17507.940000 1.000000 1.340161 43.458980 11.377723
17512.192000 17512.180000 1.000000 1.338845 43.380601 11.372192
17516.456000 17516.440000 1.000000 1.337946 43.340639 11.371907
17520.750000 17520.720000 1.000000 1.336908 43.351439 11.386522
17525.086000 17525.020000 1.000000 1.335715 43.299754 11.386604
17529.383000 17529.340000 1.000000 1.334411 43.233925 11.384088
17533.643000 17533.670000 1.000000 1.333172 43.162734 11.379346
17538.052000 17538.030000 1.000000 1.331851 43.128399 11.385387
17542.464000 17542.400000 1.000000 1.330770 43.060179 11.379709
17546.838000 17546.800000 1.000000 1.329513 43.010524 11.380840
17551.241000 17551.210000 1.000000 1.328336 42.935636 11.374440
17555.646000 17555.640000 1.000000 1.327424 42.895034 11.374070
17560.108000 17560.090000 1.000000 1.326456 42.828705 11.367410
17564.599000 17564.560000 1.000000 1.325679 42.758072 11.357492
17569.092000 17569.050000 1.000000 1.324619 42.699085 11.353892
17573.587000 17573.560000 1.000000 1.323591 42.645954 11.351403
