# XDI/1.0 BlueSky/1.10.0 BMM/2023-1.0-py310-tiled
# Beamline.name: BMM (06BM) -- Beamline for Materials Measurement (NIST)
# Beamline.xray_source: NSLS-II three-pole wiggler
# Beamline.collimation: paraboloid mirror, 5 nm Rh on 30 nm Pt
# Beamline.focusing: not in use
# Beamline.harmonic_rejection: flat mirror, Pt stripe, pitch = 7.0 mrad relative to beam
# Beamline.software: Bluesky 1.10.0, Ophyd 1.7.0, DataBroker 2.0.0b13, Python 3.10.8, 2023-1.0-py310-tiled
# Detector.I0: 10 cm N2
# Detector.I1: 25 cm N2
# Detector.I2: 25 cm N2
# Element.symbol: Er
# Element.edge: L1
# Element.reference: Er
# Element.reference_material: Er2O3
# Facility.name: NSLS-II
# Facility.energy: 3.0
# Facility.current: 399.9
# Facility.mode: top-off
# Facility.GUP: 301027
# Facility.SAF: 310583
# Facility.cycle: 2023-2
# Mono.name: Si(111)
# Mono.d_spacing: 3.1351860
# Mono.encoder_resolution: 0.0000050 deg/ct
# Mono.angle_offset: 16.0754326 deg
# Mono.scan_mode: pseudo channel cut
# Mono.scan_type: step
# Mono.direction: forward in energy
# Sample.name: Er2O3
# Sample.prep: PEG pellet
# Sample.x: 109.138 mm
# Sample.y: 153.150 mm
# Sample.SDD_position: 205.000 mm
# Scan.experimenters: Bruce Ravel
# Scan.edge_energy: 9751.3
# Scan.start_time: 2023-05-28T17:06:55
# Scan.end_time: 2023-05-28T17:15:12
# Scan.transient_id: 78861
# Scan.uid: daf0e6d4-93b6-424e-94ab-d3a09398ed9d
# Scan.plot_hint: ln(It/Ir)  --  ln($6/$7)
# Column.1: energy eV
# Column.2: requested_energy eV
# Column.3: measurement_time seconds
# Column.4: xmu 
# Column.5: I0 nA
# Column.6: It nA
# Column.7: Ir nA
# ///////////
# sample courtesy Martin Stennett, University of Sheffield
# -----------
# energy  requested_energy  measurement_time  xmu  I0  It  Ir
  9551.293  9551.300  0.500  1.083159  104.874020  155.009804  52.474619
  9561.356  9561.300  0.500  1.079544  104.689246  154.882301  52.621341
  9571.334  9571.300  0.500  1.077088  104.538010  154.782901  52.716847
  9581.350  9581.300  0.500  1.074978  104.352340  154.634282  52.777512
  9591.359  9591.300  0.500  1.072412  104.194540  154.543301  52.881950
  9601.313  9601.300  0.500  1.069143  104.035854  154.445939  53.021671
  9611.357  9611.300  0.500  1.066544  103.797086  154.236641  53.087623
  9621.338  9621.300  0.500  1.064253  103.629583  154.114765  53.167378
  9631.356  9631.300  0.500  1.061434  103.430609  153.967715  53.266570
  9641.364  9641.300  0.500  1.058892  103.266654  153.843663  53.359102
  9651.332  9651.300  0.500  1.056712  103.069970  153.668912  53.414834
  9661.354  9661.300  0.500  1.054482  102.937732  153.615577  53.515487
  9671.361  9671.300  0.500  1.051907  102.746487  153.445950  53.594237
  9681.353  9681.300  0.500  1.049283  102.567476  153.313318  53.688585
  9691.325  9691.300  0.500  1.046652  102.421393  153.212149  53.794497
  9701.322  9701.300  0.500  1.043874  102.241544  153.070985  53.894488
  9711.356  9711.300  0.500  1.041249  101.309806  151.799248  53.587181
  9721.351  9721.300  0.500  1.039279  101.885450  152.791907  54.043968
  9723.283  9723.300  0.500  1.038999  101.858041  152.777338  54.053954
  9725.273  9725.300  0.500  1.038650  101.871511  152.821133  54.088325
  9727.272  9727.300  0.500  1.038413  101.771206  152.699166  54.057964
  9729.268  9729.300  0.500  1.038140  101.764843  152.705341  54.074927
  9731.268  9731.300  0.500  1.037957  101.691752  152.612868  54.052040
  9733.274  9733.300  0.500  1.037752  101.685355  152.631480  54.069718
  9735.280  9735.300  0.500  1.037514  101.655163  152.602596  54.072367
  9737.279  9737.300  0.500  1.037283  101.584649  152.511892  54.052730
  9739.279  9739.300  0.500  1.037133  101.560792  152.507590  54.059291
  9741.288  9741.300  0.500  1.036956  101.546301  152.502016  54.066872
  9741.559  9741.600  0.500  1.037005  101.506646  152.487705  54.059171
  9741.863  9741.900  0.500  1.036967  101.500471  152.482247  54.059274
  9742.162  9742.200  0.500  1.036958  101.499483  152.483337  54.060148
  9742.465  9742.500  0.500  1.036980  101.492086  152.473134  54.055345
  9742.773  9742.800  0.500  1.036931  101.468868  152.409000  54.035274
  9743.064  9743.100  0.500  1.036982  101.486617  152.467066  54.053078
  9743.376  9743.400  0.500  1.037007  101.464675  152.438202  54.041490
  9743.667  9743.700  0.500  1.037028  101.440589  152.409553  54.030192
  9743.967  9744.000  0.500  1.037061  101.449300  152.432395  54.036514
  9744.279  9744.300  0.500  1.037084  101.440260  152.415508  54.029318
  9744.570  9744.600  0.500  1.037072  101.443307  152.417827  54.030765
  9744.882  9744.900  0.500  1.037121  101.440286  152.414904  54.027089
  9745.178  9745.200  0.500  1.037184  101.425392  152.397132  54.017403
  9745.469  9745.500  0.500  1.037189  101.396173  152.363363  54.005122
  9745.769  9745.800  0.500  1.037299  101.436184  152.423420  54.020486
  9746.068  9746.100  0.500  1.037277  101.404035  152.375723  54.004749
  9746.376  9746.400  0.500  1.037345  101.389577  152.374810  54.000755
  9746.668  9746.700  0.500  1.037418  101.427317  152.423028  54.013891
  9746.975  9747.000  0.500  1.037520  101.368311  152.328770  53.975024
  9747.275  9747.300  0.500  1.037550  101.361386  152.317624  53.969459
  9747.579  9747.600  0.500  1.037660  101.365618  152.314218  53.962279
  9747.879  9747.900  0.500  1.037690  101.339779  152.268056  53.944336
  9748.183  9748.200  0.500  1.037810  101.360791  152.310264  53.952805
  9748.478  9748.500  0.500  1.038027  101.355303  152.308072  53.940314
  9748.782  9748.800  0.500  1.038112  101.337293  152.307021  53.935357
  9749.099  9749.100  0.500  1.038210  101.340145  152.305743  53.929652
  9749.390  9749.400  0.500  1.038453  101.342550  152.322087  53.922290
  9749.694  9749.700  0.500  1.038704  101.634129  152.768368  54.066730
  9749.986  9750.000  0.500  1.038941  101.620476  152.759078  54.050598
  9750.298  9750.300  0.500  1.039246  101.640012  152.781806  54.042158
  9750.586  9750.600  0.500  1.039575  101.642087  152.784459  54.025327
  9750.902  9750.900  0.500  1.040010  101.683693  152.846058  54.023609
  9751.194  9751.200  0.500  1.040423  101.647675  152.782671  53.978903
  9751.498  9751.500  0.500  1.040908  101.628902  152.758299  53.944152
  9751.794  9751.800  0.500  1.041519  101.631767  152.773412  53.916505
  9752.094  9752.100  0.500  1.042133  101.626910  152.772052  53.882920
  9752.390  9752.400  0.500  1.042809  101.593294  152.730568  53.831927
  9752.686  9752.700  0.500  1.043626  101.619720  152.781697  53.805936
  9752.990  9753.000  0.500  1.044463  101.599472  152.757292  53.752359
  9753.286  9753.300  0.500  1.045348  101.576511  152.729847  53.695122
  9753.578  9753.600  0.500  1.046327  101.574830  152.726953  53.641570
  9753.886  9753.900  0.500  1.047251  101.594293  152.769586  53.607012
  9754.182  9754.200  0.500  1.048147  101.610368  152.795305  53.568003
  9754.491  9754.500  0.500  1.049109  101.558338  152.717326  53.489183
  9754.799  9754.800  0.500  1.049955  101.552400  152.694429  53.435924
  9755.095  9755.100  0.500  1.050810  101.554466  152.712089  53.396462
  9755.400  9755.400  0.500  1.051690  101.544118  152.678285  53.337675
  9755.700  9755.700  0.500  1.052441  101.541029  152.671251  53.295203
  9756.000  9756.000  0.500  1.053294  101.536609  152.663555  53.247069
  9756.305  9756.300  0.500  1.054174  101.526193  152.659725  53.198876
  9756.593  9756.600  0.500  1.054983  101.518678  152.654583  53.154075
  9756.901  9756.900  0.500  1.055803  101.530105  152.674417  53.117418
  9757.201  9757.200  0.500  1.056772  101.546696  152.719456  53.081608
  9757.489  9757.500  0.500  1.057607  101.494042  152.638416  53.009176
  9757.782  9757.800  0.500  1.058401  101.484458  152.624274  52.962161
  9758.094  9758.100  0.500  1.059380  101.477206  152.626074  52.911005
  9758.391  9758.400  0.500  1.060240  101.493255  152.639045  52.869986
  9758.683  9758.700  0.500  1.061035  101.472741  152.612814  52.818913
  9758.992  9759.000  0.500  1.061988  101.452914  152.587215  52.759760
  9759.296  9759.300  0.500  1.062850  101.450524  152.581424  52.712270
  9759.588  9759.600  0.500  1.063841  101.435702  152.574756  52.657762
  9759.901  9759.900  0.500  1.064808  101.411501  152.542523  52.595736
  9760.202  9760.200  0.500  1.065786  101.407976  152.538940  52.543123
  9760.498  9760.500  0.500  1.066814  101.402404  152.552100  52.493625
  9760.799  9760.800  0.500  1.067861  101.414976  152.598105  52.454528
  9761.104  9761.100  0.500  1.068932  101.384282  152.527665  52.374196
  9761.396  9761.400  0.500  1.070029  101.433708  152.587349  52.337227
  9761.701  9761.700  0.500  1.071220  101.415868  152.554915  52.263817
  9762.006  9762.000  0.500  1.072450  101.395571  152.542985  52.195485
  9762.298  9762.300  0.500  1.073691  101.354687  152.487155  52.111691
  9762.599  9762.600  0.500  1.075002  101.389078  152.547939  52.064174
  9762.895  9762.900  0.500  1.076400  101.356123  152.521287  51.982332
  9763.192  9763.200  0.500  1.077764  101.333223  152.486410  51.899620
  9763.493  9763.500  0.500  1.079327  101.328707  152.492124  51.820481
  9763.789  9763.800  0.500  1.080878  101.339979  152.493187  51.740548
  9764.094  9764.100  0.500  1.082510  101.353472  152.536904  51.671005
  9764.399  9764.400  0.500  1.084239  101.327106  152.486434  51.564648
  9764.700  9764.700  0.500  1.085917  101.335590  152.484857  51.477687
  9764.997  9765.000  0.500  1.087555  101.300370  152.436577  51.377168
  9765.306  9765.300  0.500  1.089093  101.312277  152.455092  51.304411
  9765.598  9765.600  0.500  1.090554  101.295375  152.440475  51.224596
  9765.899  9765.900  0.500  1.091990  101.290324  152.446938  51.153273
  9766.212  9766.200  0.500  1.093177  101.278251  152.440580  51.090484
  9766.505  9766.500  0.500  1.094156  101.267401  152.412791  51.031170
  9766.794  9766.800  0.500  1.094983  101.261725  152.418433  50.990890
  9767.111  9767.100  0.500  1.095615  101.285499  152.428191  50.961903
  9767.396  9767.400  0.500  1.096122  101.249936  152.383836  50.921280
  9767.693  9767.700  0.500  1.096415  101.252313  152.422607  50.919273
  9768.006  9768.000  0.500  1.096527  101.224045  152.379154  50.899064
  9768.291  9768.300  0.500  1.096431  101.246774  152.408846  50.913870
  9768.583  9768.600  0.500  1.096333  101.209109  152.368057  50.905251
  9768.901  9768.900  0.500  1.096093  101.185470  152.360738  50.915027
  9769.186  9769.200  0.500  1.095671  101.184623  152.325642  50.924754
  9769.491  9769.500  0.500  1.095342  101.178129  152.314137  50.937707
  9769.804  9769.800  0.500  1.094853  101.168688  152.285195  50.952899
  9770.101  9770.100  0.500  1.094531  101.154076  152.262900  50.961852
  9770.407  9770.400  0.500  1.094164  101.139789  152.262409  50.980408
  9770.712  9770.700  0.500  1.093882  101.127424  152.245242  50.989022
  9771.005  9771.000  0.500  1.093568  101.137661  152.263543  51.011197
  9771.306  9771.300  0.500  1.093342  101.060089  152.148915  50.984281
  9771.595  9771.600  0.500  1.093169  101.059006  152.149812  50.993447
  9771.905  9771.900  0.500  1.093095  101.050855  152.159677  51.000505
  9772.202  9772.200  0.500  1.093028  101.028559  152.126131  50.992679
  9772.499  9772.500  0.500  1.093037  101.050372  152.158496  51.003085
  9772.796  9772.800  0.500  1.093115  100.984143  152.050861  50.962996
  9773.089  9773.100  0.500  1.093228  100.956582  152.029115  50.949971
  9773.387  9773.400  0.500  1.093349  100.867391  151.910612  50.904105
  9773.692  9773.700  0.500  1.093431  100.552914  151.441711  50.742808
  9773.993  9774.000  0.500  1.093522  100.090218  150.736264  50.501816
  9774.295  9774.300  0.500  1.093664  99.600688  150.019532  50.254575
  9774.596  9774.600  0.500  1.093753  99.502761  149.883540  50.204560
  9774.894  9774.900  0.500  1.093917  99.807872  150.320057  50.342529
  9775.195  9775.200  0.500  1.093950  100.237362  150.973398  50.559628
  9775.509  9775.500  0.500  1.094024  100.647426  151.607154  50.768128
  9775.802  9775.800  0.500  1.094013  100.886821  151.974475  50.891689
  9776.096  9776.100  0.500  1.094017  101.005768  152.145281  50.948673
  9776.294  9776.300  0.500  1.093965  101.009236  152.155017  50.954606
  9777.285  9777.290  0.500  1.093569  100.992839  152.118034  50.962373
  9778.265  9778.290  0.500  1.092898  100.985418  152.123211  50.998328
  9779.405  9779.310  0.500  1.091564  100.947031  152.095625  51.057120
  9780.315  9780.360  0.500  1.090234  100.868985  151.984085  51.087600
  9781.675  9781.420  0.500  1.087997  100.809063  151.900052  51.173693
  9782.532  9782.500  0.500  1.086115  100.740294  151.836745  51.248726
  9783.562  9783.600  0.500  1.083984  100.154406  150.965097  51.063214
  9784.695  9784.720  0.500  1.081754  99.343545  149.748279  50.764743
  9785.850  9785.860  0.500  1.079482  100.759196  151.891254  51.608319
  9786.984  9787.010  0.500  1.077384  100.792960  151.969457  51.743313
  9788.169  9788.190  0.500  1.075573  100.768649  151.928734  51.823211
  9789.366  9789.380  0.500  1.073963  100.719111  151.869447  51.886478
  9790.579  9790.600  0.500  1.072631  100.632847  151.777701  51.924275
  9791.818  9791.830  0.500  1.071646  100.318999  151.309587  51.815112
  9793.066  9793.080  0.500  1.070919  99.087100  149.437973  51.211417
  9794.335  9794.350  0.500  1.070535  100.595507  151.757543  52.026264
  9795.620  9795.640  0.500  1.070227  100.682991  151.915993  52.096666
  9796.935  9796.950  0.500  1.070029  100.651673  151.860650  52.088005
  9798.267  9798.280  0.500  1.070002  100.630814  151.857873  52.088449
  9799.616  9799.630  0.500  1.069976  100.585180  151.798161  52.069332
  9800.995  9801.000  0.500  1.070036  100.503323  151.693434  52.030266
  9802.365  9802.380  0.500  1.070213  100.310581  151.413120  51.924952
  9803.769  9803.790  0.500  1.070384  99.165320  149.706605  51.330949
  9805.203  9805.210  0.500  1.070468  100.471570  151.680388  52.003334
  9806.645  9806.650  0.500  1.070667  100.440413  151.660434  51.986144
  9808.104  9808.110  0.500  1.071071  100.453279  151.698742  51.978266
  9809.581  9809.590  0.500  1.071609  100.378539  151.612089  51.920647
  9811.075  9811.090  0.500  1.072225  100.360704  151.600804  51.884816
  9812.598  9812.610  0.500  1.072880  100.331889  151.567606  51.839489
  9814.146  9814.150  0.500  1.073503  100.333098  151.583794  51.812698
  9815.716  9815.710  0.500  1.074207  100.263765  151.505248  51.749401
  9817.274  9817.280  0.500  1.074946  100.205784  151.438579  51.688440
  9818.862  9818.880  0.500  1.075766  100.188119  151.424950  51.641428
  9820.475  9820.490  0.500  1.076350  100.042257  151.204538  51.536162
  9822.127  9822.130  0.500  1.076684  99.635580  150.633373  51.324315
  9823.783  9823.780  0.500  1.076689  100.051423  151.288381  51.547233
  9825.447  9825.450  0.500  1.076321  100.052175  151.300289  51.570271
  9827.130  9827.140  0.500  1.075872  100.017724  151.265314  51.581510
  9828.854  9828.850  0.500  1.074992  99.484208  150.466491  51.354289
  9830.588  9830.580  0.500  1.073830  99.895684  151.104837  51.632098
  9832.335  9832.330  0.500  1.072381  99.918474  151.165930  51.727899
  9834.090  9834.090  0.500  1.070783  100.189246  151.601847  51.960003
  9835.863  9835.880  0.500  1.069166  99.618267  150.765638  51.757055
  9837.687  9837.680  0.500  1.067740  100.167822  151.635047  52.129772
  9839.504  9839.510  0.500  1.066592  100.145675  151.615060  52.182784
  9841.354  9841.350  0.500  1.065788  100.163473  151.668124  52.243036
  9843.201  9843.210  0.500  1.065099  99.924938  151.323943  52.160395
  9845.095  9845.090  0.500  1.064591  99.755463  151.080260  52.102872
  9846.998  9846.990  0.500  1.064251  100.002350  151.472839  52.256057
  9848.914  9848.910  0.500  1.063840  100.013003  151.523206  52.294879
  9850.848  9850.850  0.500  1.063579  99.951651  151.468412  52.289622
  9852.812  9852.810  0.500  1.063046  99.937119  151.450012  52.311143
  9854.789  9854.780  0.500  1.062521  99.890147  151.403690  52.322604
  9856.767  9856.780  0.500  1.061718  99.854571  151.365723  52.351536
  9858.784  9858.790  0.500  1.060839  99.812200  151.311013  52.378593
  9860.831  9860.820  0.500  1.060010  99.803056  151.332874  52.429625
  9862.883  9862.880  0.500  1.059276  99.742374  151.277462  52.448912
  9864.940  9864.950  0.500  1.058397  99.711256  151.250014  52.485489
  9867.053  9867.040  0.500  1.057697  99.677415  151.242170  52.519564
  9869.154  9869.150  0.500  1.056863  99.643260  151.183535  52.543002
  9871.277  9871.280  0.500  1.056160  99.622033  151.183861  52.580034
  9873.422  9873.420  0.500  1.055514  99.578653  151.140024  52.598788
  9875.598  9875.590  0.500  1.054997  99.549616  151.108287  52.614896
  9877.783  9877.780  0.500  1.054709  99.510274  151.074276  52.618244
  9879.985  9879.980  0.500  1.054469  99.456368  151.027802  52.614645
  9882.206  9882.200  0.500  1.054345  97.396136  147.937126  51.544321
  9884.453  9884.450  0.500  1.054382  98.926779  150.293500  52.363434
  9886.718  9886.710  0.500  1.054495  99.244392  150.793635  52.531748
  9889.010  9888.990  0.500  1.054712  99.245563  150.813414  52.527224
  9891.294  9891.290  0.500  1.054846  99.236710  150.861742  52.537019
  9893.617  9893.610  0.500  1.054759  99.218175  150.852811  52.538485
  9895.963  9895.950  0.500  1.054290  99.141037  150.738488  52.523289
  9898.297  9898.300  0.500  1.053654  99.085527  150.681695  52.536905
  9900.691  9900.680  0.500  1.052908  99.056384  150.651732  52.565670
  9903.095  9903.070  0.500  1.052222  99.008182  150.608090  52.586474
  9905.488  9905.490  0.500  1.051713  98.975390  150.588598  52.606453
  9907.933  9907.920  0.500  1.051146  98.962796  150.597886  52.639522
  9910.374  9910.370  0.500  1.050388  98.876778  150.500185  52.645244
  9912.851  9912.850  0.500  1.049442  98.838549  150.466966  52.683466
  9915.351  9915.340  0.500  1.048330  98.765836  150.378705  52.711142
  9917.856  9917.850  0.500  1.047084  98.769022  150.417057  52.790321
  9920.379  9920.370  0.500  1.045858  98.697382  150.350127  52.831570
  9922.933  9922.920  0.500  1.044634  98.631797  150.291181  52.875547
  9925.493  9925.490  0.500  1.043627  98.625279  150.301438  52.932411
  9928.080  9928.070  0.500  1.042805  98.506783  150.138025  52.918322
  9930.699  9930.680  0.500  1.042168  98.386545  149.968295  52.892184
  9933.297  9933.300  0.500  1.041768  95.506448  145.613695  51.376938
  9935.956  9935.950  0.500  1.041374  98.447342  150.125926  52.989865
  9938.626  9938.610  0.500  1.040941  98.407734  150.099976  53.003640
  9941.301  9941.290  0.500  1.040488  98.354715  150.043456  53.007687
  9944.016  9943.990  0.500  1.039953  98.278300  149.966118  53.008701
  9946.720  9946.710  0.500  1.039360  98.250874  149.947949  53.033733
  9949.459  9949.450  0.500  1.038558  98.153755  149.838536  53.037558
  9952.209  9952.200  0.500  1.037791  97.925637  149.521217  52.965825
  9954.990  9954.980  0.500  1.037103  96.383961  147.213891  52.184385
  9957.786  9957.770  0.500  1.036395  97.972077  149.665956  53.091167
  9960.600  9960.590  0.500  1.035575  97.943119  149.663167  53.133754
  9963.425  9963.420  0.500  1.034742  97.852827  149.559627  53.141227
  9966.277  9966.270  0.500  1.033836  97.709509  149.374391  53.123544
  9969.165  9969.150  0.500  1.032972  94.800600  144.942214  51.591811
  9972.059  9972.040  0.500  1.032128  97.900823  149.726443  53.339740
  9974.968  9974.950  0.500  1.031400  97.782816  149.577997  53.325666
  9977.896  9977.870  0.500  1.030878  97.696562  149.456332  53.310148
  9980.838  9980.820  0.500  1.030389  97.597355  149.348085  53.297558
  9983.804  9983.790  0.500  1.030080  95.767143  146.573910  52.323741
  9986.780  9986.770  0.500  1.029680  97.290612  148.946551  53.191995
