# XDI/1.0 BlueSky/1.10.0 BMM/2023-1.0-py310-tiled
# Beamline.name: BMM (06BM) -- Beamline for Materials Measurement (NIST)
# Beamline.xray_source: NSLS-II three-pole wiggler
# Beamline.collimation: paraboloid mirror, 5 nm Rh on 30 nm Pt
# Beamline.focusing: not in use
# Beamline.harmonic_rejection: flat mirror, Pt stripe, pitch = 7.0 mrad relative to beam
# Beamline.software: Bluesky 1.10.0, Ophyd 1.7.0, DataBroker 2.0.0b13, Python 3.10.8, 2023-1.0-py310-tiled
# Detector.I0: 10 cm N2
# Detector.I1: 25 cm N2
# Detector.I2: 25 cm N2
# Element.symbol: Eu
# Element.edge: L1
# Element.reference: Eu
# Element.reference_material: Eu2O3
# Facility.name: NSLS-II
# Facility.energy: 3.0
# Facility.current: 400.2
# Facility.mode: top-off
# Facility.GUP: 123456
# Facility.SAF: 301027
# Facility.cycle: 2023-2
# Mono.name: Si(111)
# Mono.d_spacing: 3.1351860
# Mono.encoder_resolution: 0.0000050 deg/ct
# Mono.angle_offset: 16.0754326 deg
# Mono.scan_mode: pseudo channel cut
# Mono.scan_type: step
# Mono.direction: forward in energy
# Sample.name: cubic Eu2O3
# Sample.prep: Powder in PEG pellet
# Sample.x: 123.848 mm
# Sample.y: 114.690 mm
# Sample.SDD_position: 205.000 mm
# Scan.experimenters: Bruce Ravel
# Scan.edge_energy: 8052.0
# Scan.start_time: 2023-05-08T21:22:42
# Scan.end_time: 2023-05-08T21:28:36
# Scan.transient_id: 75625
# Scan.uid: a7751e2c-4dba-456b-b808-8ddd3bc96d79
# Scan.plot_hint: ln(I0/It)  --  ln($5/$6)
# Column.1: energy eV
# Column.2: requested_energy eV
# Column.3: measurement_time seconds
# Column.4: xmu 
# Column.5: I0 nA
# Column.6: It nA
# Column.7: Ir nA
# ///////////
# sample courtesy Martin Stennett, University of Sheffield
# -----------
# energy  requested_energy  measurement_time  xmu  I0  It  Ir
  7852.001  7852.000  0.500  2.267258  135.669201  14.054762  3.760596
  7862.010  7862.000  0.500  2.262284  135.435116  14.100480  3.783467
  7872.019  7872.000  0.500  2.255346  135.263841  14.180692  3.819720
  7882.042  7882.000  0.500  2.245806  135.077219  14.296869  3.867758
  7892.027  7892.000  0.500  2.235432  134.884669  14.425368  3.921616
  7902.096  7902.000  0.500  2.225482  134.652353  14.544522  3.972096
  7912.019  7912.000  0.500  2.217899  134.481728  14.636663  4.012656
  7922.024  7922.000  0.500  2.210805  134.287874  14.719614  4.050948
  7932.017  7932.000  0.500  2.201865  134.014662  14.821574  4.095883
  7942.042  7942.000  0.500  2.192277  134.028067  14.965865  4.154738
  7951.979  7952.000  0.500  2.187663  133.594088  14.986399  4.170264
  7962.029  7962.000  0.500  2.176168  133.449166  15.143209  4.238812
  7972.018  7972.000  0.500  2.169155  133.205514  15.221943  4.275243
  7982.022  7982.000  0.500  2.162290  132.957830  15.298311  4.312798
  7992.025  7992.000  0.500  2.155137  132.794112  15.389156  4.354590
  8002.021  8002.000  0.500  2.147010  132.516557  15.482296  4.398062
  8012.020  8012.000  0.500  2.138851  132.317438  15.585680  4.445007
  8022.519  8022.000  0.500  2.130563  132.319632  15.715660  4.502212
  8023.973  8024.000  0.500  2.129794  132.335792  15.729668  4.507069
  8025.978  8026.000  0.500  2.128402  132.271239  15.743888  4.514614
  8027.979  8028.000  0.500  2.126978  132.242678  15.762924  4.523230
  8029.979  8030.000  0.500  2.125708  132.211715  15.779263  4.530324
  8032.404  8032.000  0.500  2.124312  132.111807  15.789368  4.536229
  8034.212  8034.000  0.500  2.123384  132.059100  15.797719  4.541834
  8036.106  8036.000  0.500  2.122357  132.045930  15.812370  4.549413
  8038.016  8038.000  0.500  2.121615  131.953881  15.813086  4.551860
  8040.009  8040.000  0.500  2.120639  131.892061  15.821104  4.554963
  8042.001  8042.000  0.500  2.120523  131.837549  15.816399  4.556372
  8042.482  8042.500  0.500  2.120573  131.802715  15.811425  4.554909
  8042.986  8043.000  0.500  2.120665  131.797547  15.809354  4.554146
  8043.484  8043.500  0.500  2.120678  131.762843  15.804993  4.552596
  8043.982  8044.000  0.500  2.120875  131.744070  15.799621  4.552395
  8044.489  8044.500  0.500  2.120747  131.788159  15.806939  4.553349
  8044.984  8045.000  0.500  2.121060  131.753466  15.797825  4.552387
  8045.488  8045.500  0.500  2.121122  131.751579  15.796626  4.551663
  8045.989  8046.000  0.500  2.121321  131.757938  15.794246  4.551566
  8046.485  8046.500  0.500  2.121639  131.732252  15.786149  4.548621
  8046.989  8047.000  0.500  2.121953  131.717142  15.779380  4.546770
  8047.485  8047.500  0.500  2.122381  131.695439  15.770026  4.543487
  8047.984  8048.000  0.500  2.122993  131.649721  15.754900  4.539405
  8048.483  8048.500  0.500  2.124121  131.642737  15.736314  4.533214
  8048.987  8049.000  0.500  2.124714  131.620597  15.724335  4.528604
  8049.486  8049.500  0.500  2.125594  131.595302  15.707483  4.521484
  8049.988  8050.000  0.500  2.126915  131.583899  15.685394  4.514994
  8050.490  8050.500  0.500  2.128350  131.562106  15.660302  4.505947
  8050.989  8051.000  0.500  2.129975  131.542800  15.632577  4.495486
  8051.494  8051.500  0.500  2.131727  131.520173  15.602533  4.484916
  8051.996  8052.000  0.500  2.134255  131.472920  15.557542  4.469554
  8052.495  8052.500  0.500  2.137056  131.496483  15.516819  4.455418
  8052.989  8053.000  0.500  2.140209  131.412726  15.458115  4.432892
  8053.491  8053.500  0.500  2.144417  131.404257  15.392203  4.408841
  8053.988  8054.000  0.500  2.149411  131.393579  15.314282  4.380560
  8054.487  8054.500  0.500  2.154949  131.345671  15.224155  4.346857
  8054.993  8055.000  0.500  2.160633  131.263668  15.128412  4.312661
  8055.492  8055.500  0.500  2.166515  131.253944  15.038585  4.278469
  8055.998  8056.000  0.500  2.172137  131.118646  14.938860  4.244189
  8056.495  8056.500  0.500  2.177331  130.995735  14.847537  4.211346
  8057.003  8057.000  0.500  2.182241  131.033586  14.779079  4.185896
  8057.494  8057.500  0.500  2.186668  130.438084  14.646932  4.141946
  8057.997  8058.000  0.500  2.191306  127.746656  14.278326  4.033082
  8058.489  8058.500  0.500  2.196060  125.989438  14.015145  3.952753
  8058.995  8059.000  0.500  2.201211  127.776258  14.140881  3.982409
  8059.489  8059.500  0.500  2.206514  130.976600  14.418397  4.054312
  8059.998  8060.000  0.500  2.212196  131.893376  14.437056  4.052164
  8060.501  8060.500  0.500  2.218072  131.913834  14.354699  4.023268
  8061.001  8061.000  0.500  2.224509  131.988628  14.270673  3.991358
  8061.502  8061.500  0.500  2.231124  131.936511  14.170989  3.954807
  8062.002  8062.000  0.500  2.238603  131.914907  14.063090  3.915831
  8062.500  8062.500  0.500  2.246747  131.868524  13.944121  3.872559
  8063.004  8063.000  0.500  2.255412  131.855885  13.822493  3.827784
  8063.499  8063.500  0.500  2.264595  131.818542  13.692271  3.781903
  8064.000  8064.000  0.500  2.274122  131.776910  13.558163  3.732114
  8064.495  8064.500  0.500  2.284193  131.743426  13.418886  3.681817
  8064.993  8065.000  0.500  2.294694  131.746336  13.279001  3.631529
  8065.491  8065.500  0.500  2.305042  131.703777  13.138065  3.582277
  8066.003  8066.000  0.500  2.314670  131.661590  13.008008  3.535306
  8066.496  8066.500  0.500  2.323441  131.519365  12.880487  3.490799
  8067.000  8067.000  0.500  2.331213  131.641079  12.792588  3.458418
  8067.501  8067.500  0.500  2.337710  131.539088  12.699903  3.426254
  8068.006  8068.000  0.500  2.343124  131.447647  12.622551  3.400412
  8068.499  8068.500  0.500  2.347111  131.304007  12.558585  3.378738
  8069.003  8069.000  0.500  2.349768  130.931593  12.489739  3.356909
  8069.499  8069.500  0.500  2.351277  129.215072  12.307410  3.305597
  8069.995  8070.000  0.500  2.352086  126.143723  12.005152  3.224161
  8070.491  8070.500  0.500  2.352257  127.067776  12.091022  3.246232
  8070.995  8071.000  0.500  2.351895  130.145888  12.388408  3.326717
  8071.494  8071.500  0.500  2.351115  131.493142  12.526419  3.365042
  8072.004  8072.000  0.500  2.350320  131.570770  12.543780  3.370749
  8072.498  8072.500  0.500  2.349306  131.591076  12.558447  3.375867
  8073.000  8073.000  0.500  2.348290  131.550215  12.567309  3.380033
  8073.499  8073.500  0.500  2.347026  131.557134  12.583860  3.386415
  8073.998  8074.000  0.500  2.346169  131.540903  12.593098  3.390204
  8074.498  8074.500  0.500  2.345110  131.514188  12.603885  3.395078
  8074.994  8075.000  0.500  2.344216  131.491665  12.612992  3.399749
  8075.494  8075.500  0.500  2.343444  131.429645  12.616785  3.402104
  8075.990  8076.000  0.500  2.342311  131.397742  12.628017  3.407652
  8076.498  8076.500  0.500  2.341169  131.332503  12.636170  3.411538
  8076.995  8077.000  0.500  2.339888  131.278467  12.647162  3.417323
  8077.995  8077.990  0.500  2.337109  130.904104  12.646193  3.420195
  8078.995  8078.990  0.500  2.333659  126.806755  12.292700  3.329594
  8080.017  8080.010  0.500  2.329525  128.924361  12.549752  3.403799
  8081.065  8081.060  0.500  2.324437  131.342914  12.850399  3.491719
  8082.130  8082.120  0.500  2.317934  131.370141  12.936919  3.523100
  8083.214  8083.200  0.500  2.310898  131.330146  13.024290  3.555574
  8084.308  8084.300  0.500  2.303274  131.292621  13.120215  3.589704
  8085.429  8085.420  0.500  2.295339  131.224288  13.217857  3.625467
  8086.565  8086.560  0.500  2.288087  131.105572  13.302025  3.657174
  8087.721  8087.710  0.500  2.281169  131.045004  13.388178  3.689278
  8088.903  8088.890  0.500  2.275283  130.929067  13.455298  3.715976
  8090.087  8090.080  0.500  2.270224  130.445621  13.473602  3.727338
  8091.306  8091.300  0.500  2.266077  125.535953  13.020375  3.607031
  8092.539  8092.530  0.500  2.262377  130.395618  13.574541  3.764860
  8093.786  8093.780  0.500  2.259546  131.292248  13.706625  3.806549
  8095.057  8095.050  0.500  2.257118  131.193713  13.729633  3.816479
  8096.358  8096.340  0.500  2.255378  131.141340  13.748061  3.824505
  8097.660  8097.650  0.500  2.254864  131.106758  13.751503  3.827349
  8098.985  8098.980  0.500  2.254812  131.073465  13.748721  3.826434
  8100.338  8100.330  0.500  2.255446  131.026602  13.735094  3.823087
  8101.717  8101.700  0.500  2.256694  130.977799  13.712860  3.815306
  8103.091  8103.080  0.500  2.258373  130.923415  13.684171  3.805596
  8104.502  8104.490  0.500  2.260071  130.880766  13.656498  3.796157
  8105.925  8105.910  0.500  2.261988  130.778434  13.619684  3.784305
  8107.363  8107.350  0.500  2.263916  130.807752  13.596509  3.775098
  8108.817  8108.810  0.500  2.265751  130.786014  13.569324  3.766301
  8110.306  8110.290  0.500  2.268003  130.747051  13.534765  3.755464
  8111.796  8111.790  0.500  2.269921  130.697587  13.503717  3.744231
  8113.320  8113.310  0.500  2.272178  130.629547  13.466261  3.732953
  8114.859  8114.850  0.500  2.274156  130.598919  13.436504  3.723236
  8116.429  8116.410  0.500  2.275628  130.547900  13.411496  3.715000
  8117.986  8117.980  0.500  2.276802  130.547749  13.395743  3.710919
  8119.594  8119.580  0.500  2.277249  130.473139  13.382106  3.707803
  8121.200  8121.190  0.500  2.277213  130.420052  13.377143  3.708163
  8122.835  8122.830  0.500  2.276104  130.442024  13.394246  3.714273
  8124.493  8124.480  0.500  2.274213  130.370120  13.412203  3.723289
  8126.164  8126.150  0.500  2.271714  130.322728  13.440873  3.735402
  8127.849  8127.840  0.500  2.268271  130.308729  13.485770  3.751347
  8129.563  8129.550  0.500  2.264393  130.242014  13.531248  3.770127
  8131.295  8131.280  0.500  2.260188  130.221159  13.586086  3.791598
  8133.036  8133.030  0.500  2.255599  130.199302  13.646290  3.814160
  8134.806  8134.790  0.500  2.251535  130.097065  13.691101  3.831462
  8136.586  8136.580  0.500  2.248101  130.077306  13.736102  3.850386
  8138.392  8138.380  0.500  2.245127  130.007611  13.769632  3.863084
  8140.227  8140.210  0.500  2.242724  129.941212  13.795722  3.874742
  8142.062  8142.050  0.500  2.240661  129.932962  13.823322  3.886324
  8143.928  8143.910  0.500  2.238986  129.892038  13.842143  3.894573
  8145.796  8145.790  0.500  2.237615  129.817695  13.853204  3.900212
  8147.703  8147.690  0.500  2.236725  129.809171  13.864616  3.906071
  8149.625  8149.610  0.500  2.235635  129.711997  13.869347  3.910910
  8151.556  8151.550  0.500  2.233837  129.651835  13.887867  3.918967
  8153.523  8153.510  0.500  2.231886  129.613195  13.910838  3.929070
  8155.496  8155.480  0.500  2.229653  129.501786  13.929950  3.937312
  8157.487  8157.480  0.500  2.227217  129.504792  13.964252  3.951567
  8159.502  8159.490  0.500  2.224776  129.479792  13.995679  3.963343
  8161.532  8161.520  0.500  2.222219  129.421057  14.025153  3.976007
  8163.595  8163.580  0.500  2.219569  129.429816  14.063316  3.991401
  8165.656  8165.650  0.500  2.217067  129.350563  14.089914  4.002347
  8167.758  8167.740  0.500  2.214792  129.282758  14.114602  4.012757
  8169.858  8169.850  0.500  2.213054  129.226764  14.133038  4.021931
  8171.994  8171.980  0.500  2.211489  129.203597  14.152635  4.029964
  8174.128  8174.120  0.500  2.210322  129.130969  14.161184  4.035016
  8176.309  8176.290  0.500  2.208907  129.075908  14.175201  4.041791
  8178.488  8178.480  0.500  2.207962  129.053560  14.186139  4.048137
  8180.694  8180.680  0.500  2.207554  128.975362  14.183328  4.049856
  8182.916  8182.900  0.500  2.207085  128.900444  14.181740  4.051389
  8185.162  8185.150  0.500  2.206999  128.878135  14.180501  4.051286
  8187.421  8187.410  0.500  2.206361  128.817205  14.182844  4.055080
  8189.709  8189.690  0.500  2.204968  128.758968  14.196193  4.061321
  8192.002  8191.990  0.500  2.203075  128.705601  14.217198  4.070937
  8194.325  8194.310  0.500  2.201120  128.647599  14.238598  4.080660
  8196.661  8196.650  0.500  2.199141  128.620376  14.263794  4.092157
  8199.022  8199.000  0.500  2.196647  128.551919  14.291804  4.104931
  8201.401  8201.380  0.500  2.194302  128.474262  14.316699  4.116147
  8203.778  8203.770  0.500  2.191626  128.424599  14.349506  4.131316
  8206.212  8206.190  0.500  2.188899  128.370143  14.382589  4.145914
  8208.636  8208.620  0.500  2.185891  128.297594  14.417775  4.160444
  8211.084  8211.070  0.500  2.182668  128.227165  14.456376  4.177399
  8213.563  8213.550  0.500  2.179476  128.200668  14.499596  4.194031
  8216.052  8216.040  0.500  2.176587  128.111455  14.531426  4.208025
  8218.568  8218.550  0.500  2.174230  128.068069  14.560778  4.221426
  8221.078  8221.070  0.500  2.172372  127.977443  14.577537  4.231297
  8223.638  8223.620  0.500  2.170730  127.943019  14.597570  4.239331
  8226.203  8226.190  0.500  2.169389  127.859492  14.607620  4.245821
  8228.795  8228.770  0.500  2.168030  127.808816  14.621679  4.253374
  8231.398  8231.380  0.500  2.166784  127.733135  14.631249  4.260387
  8234.014  8234.000  0.500  2.165042  127.666624  14.649128  4.268510
  8236.667  8236.650  0.500  2.163495  127.605059  14.664726  4.277458
  8239.319  8239.310  0.500  2.161656  127.546057  14.684921  4.287637
  8242.007  8241.990  0.500  2.159451  127.476229  14.709290  4.299191
  8244.706  8244.690  0.500  2.157051  127.406200  14.736530  4.311357
  8247.427  8247.410  0.500  2.154340  127.320374  14.766585  4.324657
  8250.168  8250.150  0.500  2.152033  127.226889  14.789818  4.337031
  8252.919  8252.900  0.500  2.149070  127.139997  14.823582  4.351490
  8255.699  8255.680  0.500  2.145938  127.091344  14.864384  4.368795
  8258.491  8258.470  0.500  2.143372  127.024320  14.894714  4.383153
  8261.301  8261.290  0.500  2.140819  126.961226  14.925378  4.397237
  8264.136  8264.120  0.500  2.138243  126.905413  14.957299  4.410752
  8266.982  8266.970  0.500  2.136387  126.822418  14.975279  4.422293
  8269.867  8269.850  0.500  2.134222  126.717664  14.995333  4.431754
  8272.758  8272.740  0.500  2.132385  126.663706  15.016508  4.442543
  8275.669  8275.650  0.500  2.130594  126.564083  15.031597  4.451506
  8278.590  8278.570  0.500  2.128856  125.029970  14.875237  4.408638
  8281.546  8281.520  0.500  2.126977  126.329312  15.058081  4.467134
  8284.504  8284.490  0.500  2.125145  126.302560  15.082497  4.478832
  8287.485  8287.470  0.500  2.122835  126.269196  15.113390  4.494021
  8290.495  8290.480  0.500  2.120469  126.193125  15.140062  4.507059
  8293.512  8293.500  0.500  2.117647  126.093160  15.170817  4.520690
  8296.571  8296.550  0.500  2.115029  125.981961  15.197177  4.533576
  8299.622  8299.610  0.500  2.112477  125.924220  15.229030  4.549742
  8302.709  8302.690  0.500  2.109771  125.825609  15.258335  4.563923
  8305.804  8305.790  0.500  2.106828  125.753690  15.294558  4.580199
  8308.934  8308.910  0.500  2.104063  125.673551  15.327140  4.596334
  8312.063  8312.050  0.500  2.101406  125.539913  15.351572  4.608768
  8315.219  8315.200  0.500  2.098759  125.452897  15.381587  4.624329
  8318.400  8318.380  0.500  2.096029  125.376684  15.414270  4.639224
  8321.587  8321.570  0.500  2.093491  125.234820  15.435957  4.651305
  8324.801  8324.790  0.500  2.090872  125.186872  15.470509  4.667272
  8328.038  8328.020  0.500  2.088266  125.048338  15.493716  4.679850
  8331.277  8331.270  0.500  2.085684  125.006587  15.528577  4.696742
  8334.567  8334.550  0.500  2.083325  124.729803  15.530789  4.702675
  8337.856  8337.840  0.500  2.081124  124.637205  15.553461  4.714877
  8341.163  8341.150  0.500  2.078479  124.489481  15.576175  4.727579
  8344.469  8344.470  0.500  2.075984  124.344937  15.596954  4.739066
  8347.839  8347.820  0.500  2.073238  124.170908  15.617949  4.750789
  8351.205  8351.190  0.500  2.070522  123.933438  15.630478  4.761852
  8354.573  8354.570  0.500  2.067537  123.747484  15.653675  4.773902
  8357.999  8357.980  0.500  2.064862  123.677442  15.686724  4.789908
  8361.412  8361.400  0.500  2.061849  123.638612  15.729129  4.808325
  8364.855  8364.850  0.500  2.058737  123.528532  15.764104  4.824673
  8368.325  8368.310  0.500  2.056018  123.497600  15.803058  4.844965
  8371.804  8371.790  0.500  2.053325  123.423979  15.836228  4.861943
  8375.299  8375.290  0.500  2.050402  123.346615  15.872638  4.879542
  8378.823  8378.810  0.500  2.047758  123.214916  15.897666  4.892297
  8382.365  8382.350  0.500  2.045286  123.101777  15.922369  4.906085
  8385.920  8385.900  0.500  2.042752  122.998037  15.949330  4.921233
  8389.489  8389.480  0.500  2.040185  122.789795  15.963238  4.931258
  8393.092  8393.080  0.500  2.037416  122.699999  15.995798  4.946343
  8396.705  8396.690  0.500  2.035103  122.583943  16.017685  4.960738
  8400.332  8400.320  0.500  2.032391  123.166084  16.137456  5.003040
  8403.984  8403.980  0.500  2.029905  123.018413  16.158225  5.017079
  8407.673  8407.650  0.500  2.027211  122.939781  16.191460  5.033127
  8411.356  8411.340  0.500  2.024305  122.838917  16.225260  5.049901
  8415.063  8415.050  0.500  2.021625  122.711501  16.251913  5.064567
  8418.795  8418.780  0.500  2.018391  122.630131  16.293749  5.084937
  8422.537  8422.520  0.500  2.015455  122.536376  16.329169  5.104833
  8426.306  8426.290  0.500  2.012439  122.419988  16.362926  5.121792
  8430.088  8430.080  0.500  2.009372  122.305880  16.397890  5.140360
  8433.892  8433.880  0.500  2.006220  122.166823  16.430955  5.157009
  8437.733  8437.710  0.500  2.002883  122.090325  16.475567  5.178723
  8441.565  8441.550  0.500  2.000044  122.032697  16.514603  5.198553
  8445.423  8445.410  0.500  1.996751  121.870956  16.547123  5.216242
  8449.308  8449.290  0.500  1.993527  121.723477  16.580459  5.234530
  8453.206  8453.190  0.500  1.990527  121.569205  16.609193  5.250181
  8457.121  8457.110  0.500  1.987459  121.484003  16.648564  5.269350
  8461.070  8461.050  0.500  1.984521  121.350962  16.679257  5.287145
  8465.028  8465.010  0.500  1.981521  121.211003  16.710081  5.304502
  8469.006  8468.980  0.500  1.978422  121.083133  16.744258  5.322906
  8473.003  8472.980  0.500  1.975445  120.965017  16.777801  5.340635
