# XDI/1.0 BlueSky/1.10.0 BMM/2023-1.0-py310-tiled
# Beamline.name: BMM (06BM) -- Beamline for Materials Measurement (NIST)
# Beamline.xray_source: NSLS-II three-pole wiggler
# Beamline.collimation: paraboloid mirror, 5 nm Rh on 30 nm Pt
# Beamline.focusing: not in use
# Beamline.harmonic_rejection: flat mirror, Pt stripe, pitch = 7.0 mrad relative to beam
# Beamline.software: Bluesky 1.10.0, Ophyd 1.7.0, DataBroker 2.0.0b13, Python 3.10.8, 2023-1.0-py310-tiled
# Detector.I0: 10 cm N2
# Detector.I1: 25 cm N2
# Detector.I2: 25 cm N2
# Element.symbol: Hf
# Element.edge: L3
# Element.reference: Hf
# Element.reference_material: HfO2
# Facility.name: NSLS-II
# Facility.energy: 3.0
# Facility.current: 399.3
# Facility.mode: top-off
# Facility.GUP: 301027
# Facility.SAF: 310583
# Facility.cycle: 2023-2
# Mono.name: Si(111)
# Mono.d_spacing: 3.1351860
# Mono.encoder_resolution: 0.0000050 deg/ct
# Mono.angle_offset: 16.0754326 deg
# Mono.scan_mode: pseudo channel cut
# Mono.scan_type: step
# Mono.direction: forward in energy
# Sample.name: HfO2
# Sample.prep: PEG pellet
# Sample.x: 109.138 mm
# Sample.y: 153.150 mm
# Sample.SDD_position: 205.000 mm
# Scan.experimenters: Bruce Ravel
# Scan.edge_energy: 9560.7
# Scan.start_time: 2023-05-28T16:44:06
# Scan.end_time: 2023-05-28T16:53:12
# Scan.transient_id: 78847
# Scan.uid: b54d7538-60e3-40ba-a7f1-1cbbecca431b
# Scan.plot_hint: ln(It/Ir)  --  ln($6/$7)
# Column.1: energy eV
# Column.2: requested_energy eV
# Column.3: measurement_time seconds
# Column.4: xmu 
# Column.5: I0 nA
# Column.6: It nA
# Column.7: Ir nA
# ///////////
# sample courtesy Martin Stennett, University of Sheffield
# -----------
# energy  requested_energy  measurement_time  xmu  I0  It  Ir
  9360.688  9360.700  0.500  1.629817  109.132689  158.508250  31.062153
  9370.716  9370.700  0.500  1.624927  109.229419  158.796998  31.271261
  9380.743  9380.700  0.500  1.620106  109.205590  158.905394  31.443849
  9390.727  9390.700  0.500  1.615382  109.048057  158.842265  31.580190
  9400.760  9400.700  0.500  1.610679  108.868697  158.715679  31.703764
  9410.715  9410.700  0.500  1.605987  108.691902  158.610429  31.831744
  9420.734  9420.700  0.500  1.601184  108.493907  158.446520  31.951949
  9430.733  9430.700  0.500  1.596717  108.332969  158.370948  32.079675
  9440.757  9440.700  0.500  1.592127  108.147470  158.251978  32.203077
  9450.733  9450.700  0.500  1.587599  107.980023  158.176283  32.333745
  9460.751  9460.700  0.500  1.583262  107.824657  158.045832  32.447492
  9470.736  9470.700  0.500  1.579102  107.630555  157.924898  32.557812
  9480.751  9480.700  0.500  1.575202  107.455005  157.814849  32.662260
  9490.752  9490.700  0.500  1.571604  107.323567  157.780321  32.772823
  9500.735  9500.700  0.500  1.568731  107.097727  157.590964  32.827673
  9510.717  9510.700  0.500  1.566944  106.953243  157.507929  32.869052
  9520.728  9520.700  0.500  1.567466  106.777825  157.390765  32.827472
  9530.730  9530.700  0.500  1.572975  106.585378  157.239238  32.615703
  9532.695  9532.700  0.500  1.575323  106.546388  157.213072  32.533792
  9534.680  9534.700  0.500  1.578207  106.486705  157.148189  32.426715
  9536.675  9536.700  0.500  1.582091  106.468700  157.135859  32.298480
  9538.678  9538.700  0.500  1.586908  106.432615  157.122272  32.140476
  9540.682  9540.700  0.500  1.593333  106.393566  157.103484  31.930837
  9542.675  9542.700  0.500  1.601558  106.345788  157.030021  31.654447
  9544.688  9544.700  0.500  1.612917  106.323763  157.039840  31.298886
  9546.683  9546.700  0.500  1.627832  106.277440  157.022522  30.832129
  9548.682  9548.700  0.500  1.649276  106.256546  157.023551  30.178206
  9550.734  9550.700  0.500  1.681332  106.208063  156.976115  29.217334
  9550.978  9551.000  0.500  1.685409  106.175985  156.923647  29.088718
  9551.270  9551.300  0.500  1.691646  106.234965  157.004802  28.922807
  9551.569  9551.600  0.500  1.698297  106.164417  156.902586  28.712362
  9551.864  9551.900  0.500  1.705313  106.190540  156.927898  28.516226
  9552.164  9552.200  0.500  1.712910  106.183435  156.920606  28.299104
  9552.467  9552.500  0.500  1.721093  106.165415  156.904665  28.065618
  9552.771  9552.800  0.500  1.729958  106.134060  156.860820  27.810147
  9553.074  9553.100  0.500  1.739383  106.123799  156.892325  27.554806
  9553.366  9553.400  0.500  1.748910  106.121915  156.884678  27.292209
  9553.673  9553.700  0.500  1.759497  106.128210  156.897951  27.007069
  9553.965  9554.000  0.500  1.770662  106.126553  156.913055  26.709791
  9554.268  9554.300  0.500  1.783119  106.119155  156.887109  26.374749
  9554.572  9554.600  0.500  1.796699  106.124838  156.898501  26.020904
  9554.867  9554.900  0.500  1.811399  106.120657  156.898915  25.641265
  9555.171  9555.200  0.500  1.827791  106.095858  156.868870  25.219535
  9555.466  9555.500  0.500  1.845592  106.084377  156.846990  24.771130
  9555.774  9555.800  0.500  1.865333  106.085794  156.861513  24.289167
  9556.070  9556.100  0.500  1.886583  106.077562  156.853618  23.777269
  9556.377  9556.400  0.500  1.911004  106.049662  156.814985  23.197915
  9556.677  9556.700  0.500  1.936816  106.059978  156.849869  22.611829
  9556.981  9557.000  0.500  1.965391  106.051951  156.808888  21.969096
  9557.280  9557.300  0.500  1.997258  106.076939  156.857859  21.286682
  9557.580  9557.600  0.500  2.032012  106.049337  156.822676  20.554985
  9557.888  9557.900  0.500  2.072208  106.014150  156.778627  19.739608
  9558.184  9558.200  0.500  2.114841  106.017714  156.785519  18.916561
  9558.491  9558.500  0.500  2.165869  106.021886  156.795016  17.976595
  9558.787  9558.800  0.500  2.220717  105.979039  156.724570  17.009509
  9559.099  9559.100  0.500  2.287085  105.983587  156.759004  15.920765
  9559.379  9559.400  0.500  2.354896  106.016562  156.803898  14.881223
  9559.711  9559.700  0.500  2.443506  105.961236  156.705397  13.610777
  9560.034  9560.000  0.500  2.540309  105.948830  156.713765  12.355634
  9560.259  9560.300  0.500  2.623641  105.925296  156.659676  11.363822
  9560.567  9560.600  0.500  2.739871  105.935355  156.680477  10.118214
  9560.855  9560.900  0.500  2.860944  105.938165  156.700655  8.965586
  9561.179  9561.200  0.500  3.003979  105.923271  156.688046  7.770058
  9561.495  9561.500  0.500  3.154613  105.876818  156.645864  6.681715
  9561.838  9561.800  0.500  3.330605  105.878401  156.654511  5.603759
  9562.055  9562.100  0.500  3.449116  105.824749  156.579773  4.975121
  9562.375  9562.400  0.500  3.613496  105.807558  156.527716  4.219587
  9562.750  9562.700  0.500  3.804797  105.793559  156.533661  3.485022
  9562.999  9563.000  0.500  3.923435  105.732566  156.441448  3.093326
  9563.299  9563.300  0.500  4.051022  106.051701  156.931788  2.731332
  9563.591  9563.600  0.500  4.157497  106.032666  156.931055  2.455448
  9563.911  9563.900  0.500  4.252030  106.039829  156.906627  2.233614
  9564.195  9564.200  0.500  4.323260  106.042312  156.912658  2.080127
  9564.500  9564.500  0.500  4.382199  106.064785  156.951381  1.961554
  9564.800  9564.800  0.500  4.425648  106.064192  156.964583  1.878309
  9565.096  9565.100  0.500  4.453488  106.052745  156.958945  1.826673
  9565.408  9565.400  0.500  4.466732  106.040706  156.941311  1.802437
  9565.705  9565.700  0.500  4.460926  106.033954  156.940494  1.812924
  9566.009  9566.000  0.500  4.434381  106.037394  156.937887  1.861661
  9566.301  9566.300  0.500  4.387786  106.054078  156.966376  1.950812
  9566.606  9566.600  0.500  4.318380  106.054559  156.977084  2.091161
  9566.906  9566.900  0.500  4.230030  106.006755  156.896650  2.283153
  9567.202  9567.200  0.500  4.126877  106.004044  156.897754  2.531260
  9567.507  9567.500  0.500  4.010351  105.994293  156.902662  2.844179
  9567.799  9567.800  0.500  3.894316  106.005091  156.906412  3.194190
  9568.115  9568.100  0.500  3.764422  105.992243  156.917116  3.637498
  9568.400  9568.400  0.500  3.649002  105.984955  156.892519  4.081887
  9568.704  9568.700  0.500  3.533894  105.958714  156.862572  4.578980
  9569.001  9569.000  0.500  3.429833  105.970980  156.884901  5.081873
  9569.309  9569.300  0.500  3.328168  105.958737  156.859497  5.624781
  9569.610  9569.600  0.500  3.240106  105.975215  156.886972  6.143653
  9569.895  9569.900  0.500  3.158826  105.968088  156.878714  6.663515
  9570.203  9570.200  0.500  3.080291  105.917761  156.824378  7.205432
  9570.492  9570.500  0.500  3.013488  105.923079  156.833497  7.703667
  9570.796  9570.800  0.500  2.948321  105.908509  156.813861  8.221387
  9571.097  9571.100  0.500  2.892637  105.908128  156.821841  8.692613
  9571.394  9571.400  0.500  2.841932  105.897483  156.799806  9.143449
  9571.690  9571.700  0.500  2.797863  105.923198  156.843311  9.558058
  9571.995  9572.000  0.500  2.757923  105.917954  156.845974  9.947700
  9572.300  9572.300  0.500  2.722272  105.908695  156.825306  10.307383
  9572.597  9572.600  0.500  2.692288  105.848745  156.738319  10.615232
  9572.901  9572.900  0.500  2.664510  105.865922  156.769342  10.916396
  9573.198  9573.200  0.500  2.641325  105.861005  156.765178  11.172151
  9573.507  9573.500  0.500  2.619299  105.877512  156.809230  11.424163
  9573.808  9573.800  0.500  2.599676  105.859154  156.795842  11.649558
  9574.104  9574.100  0.500  2.581897  105.827749  156.760965  11.855893
  9574.409  9574.400  0.500  2.565210  105.809802  156.701367  12.050811
  9574.706  9574.700  0.500  2.550664  105.806799  156.691424  12.226609
  9575.007  9575.000  0.500  2.536989  105.830113  156.736042  12.398478
  9575.304  9575.300  0.500  2.525457  105.804715  156.714481  12.540558
  9575.605  9575.600  0.500  2.514989  105.789267  156.692096  12.670720
  9575.906  9575.900  0.500  2.505488  105.794194  156.694846  12.791897
  9576.211  9576.200  0.500  2.497227  105.790616  156.700044  12.898446
  9576.508  9576.500  0.500  2.490151  105.774869  156.682495  12.988582
  9576.797  9576.800  0.500  2.483991  105.771364  156.670787  13.067856
  9577.110  9577.100  0.500  2.478619  105.763422  156.652992  13.136751
  9577.395  9577.400  0.500  2.474302  105.751622  156.654061  13.193682
  9577.704  9577.700  0.500  2.470373  105.777380  156.705886  13.249997
  9577.997  9578.000  0.500  2.467510  105.743667  156.658562  13.283973
  9578.294  9578.300  0.500  2.465361  105.737602  156.648532  13.311710
  9578.599  9578.600  0.500  2.463847  105.741111  156.649675  13.331975
  9578.896  9578.900  0.500  2.462770  105.746907  156.675721  13.348559
  9579.197  9579.200  0.500  2.462321  105.741083  156.676516  13.354623
  9579.483  9579.500  0.500  2.461994  105.696249  156.619077  13.354083
  9579.800  9579.800  0.500  2.461771  105.694836  156.625468  13.357606
  9580.097  9580.100  0.500  2.461440  105.681156  156.601437  13.359990
  9580.402  9580.400  0.500  2.460968  105.689490  156.620295  13.367906
  9580.700  9580.700  0.500  2.460103  105.691101  156.623060  13.379701
  9580.997  9581.000  0.500  2.458952  105.698144  156.644115  13.396915
  9581.310  9581.300  0.500  2.457265  105.654992  156.582009  13.414221
  9581.595  9581.600  0.500  2.455341  105.643727  156.548951  13.437213
  9581.909  9581.900  0.500  2.452774  105.680369  156.630738  13.478783
  9582.198  9582.200  0.500  2.449957  105.649729  156.580827  13.512506
  9582.503  9582.500  0.500  2.446668  105.637601  156.578269  13.556798
  9582.805  9582.800  0.500  2.443111  105.611615  156.538559  13.601653
  9583.106  9583.100  0.500  2.439210  105.618817  156.555237  13.656268
  9583.408  9583.400  0.500  2.435127  105.612912  156.539209  13.710737
  9583.705  9583.700  0.500  2.431032  105.596515  156.520526  13.765354
  9584.003  9584.000  0.500  2.427358  105.603331  156.540144  13.817757
  9584.296  9584.300  0.500  2.423730  105.636487  156.583866  13.871847
  9584.610  9584.600  0.500  2.420225  105.578976  156.510578  13.914037
  9584.903  9584.900  0.500  2.417116  105.548559  156.475918  13.954273
  9585.201  9585.200  0.500  2.414445  105.547404  156.474866  13.991500
  9585.502  9585.500  0.500  2.412250  105.589024  156.540849  14.028169
  9585.689  9585.700  0.500  2.411201  105.581803  156.538503  14.042681
  9586.693  9586.690  0.500  2.407137  105.527562  156.459892  14.092782
  9587.697  9587.690  0.500  2.407268  105.510408  156.451221  14.090152
  9588.729  9588.710  0.500  2.411585  105.464280  156.392493  14.024190
  9589.774  9589.760  0.500  2.419102  105.452937  156.409441  13.920680
  9590.846  9590.820  0.500  2.429796  105.447257  156.404938  13.772200
  9591.911  9591.900  0.500  2.442572  105.429593  156.387969  13.595889
  9593.023  9593.000  0.500  2.456267  105.400299  156.340097  13.406863
  9594.124  9594.120  0.500  2.469838  105.399122  156.352838  13.227231
  9595.265  9595.260  0.500  2.484963  105.362513  156.321415  13.026048
  9596.427  9596.410  0.500  2.501376  105.356550  156.353948  12.816661
  9597.600  9597.590  0.500  2.520600  105.319807  156.314625  12.569472
  9598.802  9598.780  0.500  2.542785  105.298624  156.298529  12.292417
  9600.019  9600.000  0.500  2.567748  105.295388  156.293064  11.988946
  9601.230  9601.230  0.500  2.592679  105.277640  156.285746  11.693200
  9602.484  9602.480  0.500  2.617229  105.238487  156.243740  11.406560
  9603.754  9603.750  0.500  2.640513  105.230257  156.260079  11.145194
  9605.053  9605.040  0.500  2.660054  105.180873  156.188411  10.924507
  9606.368  9606.350  0.500  2.673535  105.148355  156.164356  10.776561
  9607.696  9607.680  0.500  2.679853  105.126323  156.161704  10.708511
  9609.039  9609.030  0.500  2.678736  105.085169  156.108736  10.716844
  9610.403  9610.400  0.500  2.671494  105.069996  156.103432  10.794373
  9611.788  9611.780  0.500  2.658927  105.064864  156.124195  10.932338
  9613.208  9613.190  0.500  2.643352  105.008852  156.056090  11.099093
  9614.622  9614.610  0.500  2.625659  104.983270  156.035488  11.295732
  9616.051  9616.050  0.500  2.606097  104.962361  156.022474  11.517912
  9617.501  9617.510  0.500  2.586600  104.728085  155.696366  11.720124
  9618.999  9618.990  0.500  2.566336  104.815973  155.825273  11.969949
  9620.498  9620.490  0.500  2.547614  104.833095  155.889388  12.201176
  9622.018  9622.010  0.500  2.531381  104.864977  155.948014  12.405523
  9623.553  9623.550  0.500  2.517645  104.799729  155.873086  12.571056
  9625.122  9625.110  0.500  2.507027  104.760543  155.847724  12.703179
  9626.695  9626.680  0.500  2.499035  104.748967  155.858924  12.806038
  9628.280  9628.280  0.500  2.492843  104.672064  155.751605  12.876704
  9629.890  9629.890  0.500  2.488163  104.669862  155.744514  12.936518
  9631.549  9631.530  0.500  2.484672  104.678011  155.771683  12.984013
  9633.184  9633.180  0.500  2.482979  104.641333  155.736611  13.003093
  9634.848  9634.850  0.500  2.483305  104.389262  155.387348  12.969698
  9636.536  9636.540  0.500  2.485751  104.536887  155.635073  12.958638
  9638.261  9638.250  0.500  2.490025  104.513565  155.629769  12.902943
  9639.987  9639.980  0.500  2.494969  104.460501  155.575762  12.834850
  9641.745  9641.730  0.500  2.499775  104.444194  155.604404  12.775663
  9643.497  9643.490  0.500  2.504229  104.423776  155.584706  12.717270
  9645.309  9645.280  0.500  2.508512  104.417407  155.616345  12.665494
  9647.089  9647.080  0.500  2.512463  104.341463  155.513349  12.607209
  9648.919  9648.910  0.500  2.515554  104.174528  155.293094  12.550495
  9650.757  9650.750  0.500  2.517819  104.191033  155.347445  12.526487
  9652.628  9652.610  0.500  2.518665  104.251481  155.453122  12.524401
  9654.488  9654.490  0.500  2.518757  104.202610  155.397468  12.518776
  9656.393  9656.390  0.500  2.518678  104.178927  155.393277  12.519419
  9658.327  9658.310  0.500  2.519529  104.132127  155.338214  12.504343
  9660.262  9660.250  0.500  2.522165  104.122854  155.338591  12.471457
  9662.205  9662.210  0.500  2.526560  104.084945  155.324690  12.415653
  9664.186  9664.180  0.500  2.533048  104.028053  155.253121  12.329677
  9666.192  9666.180  0.500  2.540388  103.983277  155.208301  12.235969
  9668.194  9668.190  0.500  2.547688  103.723693  154.826807  12.117118
  9670.226  9670.220  0.500  2.554264  103.910155  155.135865  12.061729
  9672.295  9672.280  0.500  2.559928  103.831935  155.055484  11.987384
  9674.352  9674.350  0.500  2.564110  103.813064  155.072412  11.938659
  9676.451  9676.440  0.500  2.566876  103.778168  155.047225  11.903748
  9678.559  9678.550  0.500  2.567204  103.721481  154.988772  11.895358
  9680.689  9680.680  0.500  2.564411  103.703000  154.970185  11.927202
  9682.831  9682.820  0.500  2.558670  103.664941  154.943409  11.993806
  9684.998  9684.990  0.500  2.550594  103.606272  154.885224  12.086517
  9687.195  9687.180  0.500  2.540964  103.569564  154.864629  12.201853
  9689.377  9689.380  0.500  2.530925  103.533090  154.854463  12.324152
  9691.613  9691.600  0.500  2.521055  103.523678  154.865593  12.447282
  9693.853  9693.850  0.500  2.511770  103.444131  154.767157  12.555413
  9696.120  9696.110  0.500  2.503157  103.407014  154.737066  12.661562
  9698.411  9698.390  0.500  2.496372  103.360651  154.700042  12.744702
  9700.708  9700.690  0.500  2.491553  103.335463  154.700696  12.806331
  9703.014  9703.010  0.500  2.488846  103.289766  154.652323  12.837025
  9705.374  9705.350  0.500  2.487531  103.224927  154.599145  12.849502
  9707.707  9707.700  0.500  2.486852  103.157323  154.527275  12.852245
  9710.097  9710.080  0.500  2.486551  102.145408  153.035568  12.732007
  9712.477  9712.470  0.500  2.486563  103.134428  154.550218  12.857864
  9714.895  9714.890  0.500  2.487769  103.099857  154.531546  12.840817
  9717.338  9717.320  0.500  2.490443  103.032015  154.453859  12.800093
  9719.787  9719.770  0.500  2.493886  102.986395  154.417290  12.753079
  9722.258  9722.250  0.500  2.497655  102.944523  154.388406  12.702722
  9724.758  9724.740  0.500  2.500797  102.896940  154.351626  12.659859
  9727.260  9727.250  0.500  2.502754  102.824178  154.270431  12.628456
  9729.787  9729.770  0.500  2.503824  102.783201  154.246361  12.612989
  9732.328  9732.320  0.500  2.503822  102.737196  154.201054  12.609312
  9734.908  9734.890  0.500  2.502678  102.673052  154.138893  12.618653
  9737.480  9737.470  0.500  2.499978  102.646946  154.140976  12.652939
  9740.091  9740.080  0.500  2.496766  102.581499  154.077259  12.688405
  9742.712  9742.700  0.500  2.494135  102.572996  154.107485  12.724328
  9745.354  9745.350  0.500  2.492579  102.519036  154.055091  12.739808
  9748.031  9748.010  0.500  2.492086  102.433180  153.957626  12.738023
  9750.705  9750.690  0.500  2.492106  102.607512  154.245558  12.761595
  9753.385  9753.390  0.500  2.491955  102.552988  154.205469  12.760194
  9756.124  9756.110  0.500  2.491472  102.536122  154.194168  12.765424
  9758.848  9758.850  0.500  2.490807  102.506771  154.184049  12.773081
  9761.622  9761.600  0.500  2.490437  102.413664  154.091385  12.770132
  9764.391  9764.380  0.500  2.489981  102.385006  154.083052  12.775259
  9767.198  9767.170  0.500  2.489606  102.328035  154.028283  12.775516
  9769.994  9769.990  0.500  2.489103  102.240899  153.935977  12.774278
  9772.837  9772.820  0.500  2.488216  102.083840  153.733690  12.768814
  9775.683  9775.670  0.500  2.487186  101.946017  153.549012  12.766622
  9778.571  9778.550  0.500  2.485777  102.103290  153.820847  12.807249
  9781.456  9781.440  0.500  2.484150  101.982740  153.681268  12.816464
  9784.364  9784.350  0.500  2.482032  100.361324  151.255959  12.640950
  9787.291  9787.270  0.500  2.478883  101.975087  153.729593  12.888206
  9790.231  9790.220  0.500  2.475291  101.852689  153.599117  12.923606
  9793.211  9793.190  0.500  2.472023  100.406503  151.443868  12.783965
