# XDI/1.0 BlueSky/1.10.0 BMM/2023-1.0-py310-tiled
# Beamline.name: BMM (06BM) -- Beamline for Materials Measurement (NIST)
# Beamline.xray_source: NSLS-II three-pole wiggler
# Beamline.collimation: paraboloid mirror, 5 nm Rh on 30 nm Pt
# Beamline.focusing: not in use
# Beamline.harmonic_rejection: flat mirror, Si stripe, pitch = 7.0 mrad relative to beam
# Beamline.software: Bluesky 1.10.0, Ophyd 1.7.0, DataBroker 2.0.0b13, Python 3.10.8, 2023-1.0-py310-tiled
# Detector.I0: 10 cm N2
# Detector.I1: 25 cm N2
# Detector.I2: 25 cm N2
# Element.symbol: Fe
# Element.edge: K
# Element.reference: Fe
# Element.reference_material: Fe foil
# Facility.name: NSLS-II
# Facility.energy: 3.0
# Facility.current: 399.9
# Facility.mode: top-off
# Facility.GUP: 123456
# Facility.SAF: 301027
# Facility.cycle: 2023-2
# Mono.name: Si(111)
# Mono.d_spacing: 3.1351860
# Mono.encoder_resolution: 0.0000050 deg/ct
# Mono.angle_offset: 16.0754326 deg
# Mono.scan_mode: pseudo channel cut
# Mono.scan_type: step
# Mono.direction: forward in energy
# Sample.name: Ca3Fe2Si3O12
# Sample.prep: PEG pellet
# Sample.x: 142.329 mm
# Sample.y: 114.126 mm
# Sample.SDD_position: 205.000 mm
# Scan.experimenters: Bruce Ravel
# Scan.edge_energy: 7112.0
# Scan.start_time: 2023-05-05T19:17:03
# Scan.end_time: 2023-05-05T19:25:17
# Scan.transient_id: 74581
# Scan.uid: a7717a87-a9c9-43f2-93ae-b62938e1b53a
# Scan.plot_hint: ln(I0/It)  --  ln($5/$6)
# Column.1: energy eV
# Column.2: requested_energy eV
# Column.3: measurement_time seconds
# Column.4: xmu 
# Column.5: I0 nA
# Column.6: It nA
# Column.7: Ir nA
# ///////////
# courtesy Martin Stennett, University of Sheffield
# -----------
# energy  requested_energy  measurement_time  xmu  I0  It  Ir
  6912.005  6912.000  0.500  2.255592  154.325037  16.175037  3.035486
  6922.009  6922.000  0.500  2.243992  154.122582  16.342295  3.088761
  6932.013  6932.000  0.500  2.232469  154.048190  16.523716  3.145731
  6942.015  6942.000  0.500  2.220603  154.062682  16.722521  3.205757
  6952.004  6952.000  0.500  2.209285  154.046503  16.911085  3.264932
  6962.018  6962.000  0.500  2.198068  154.044185  17.101591  3.324063
  6972.014  6972.000  0.500  2.187125  154.014101  17.286392  3.383266
  6982.029  6982.000  0.500  2.175858  153.971508  17.477412  3.443548
  6992.008  6992.000  0.500  2.164841  153.897132  17.662501  3.504158
  7002.013  7002.000  0.500  2.153603  153.855435  17.857267  3.566524
  7012.008  7012.000  0.500  2.142408  153.789894  18.050612  3.629191
  7022.008  7022.000  0.500  2.131513  153.718403  18.239860  3.691239
  7032.008  7032.000  0.500  2.120724  153.655204  18.430129  3.753054
  7042.006  7042.000  0.500  2.109780  153.554680  18.620762  3.814877
  7052.005  7052.000  0.500  2.099452  153.462011  18.802702  3.875537
  7062.008  7062.000  0.500  2.088752  152.723519  18.913519  3.920368
  7072.009  7072.000  0.500  2.078536  153.245115  19.172992  3.994044
  7081.984  7082.000  0.500  2.068284  153.161417  19.359980  4.047313
  7083.985  7084.000  0.500  2.066571  153.416101  19.425434  4.061794
  7085.980  7086.000  0.500  2.064444  153.538043  19.482267  4.074424
  7087.990  7088.000  0.500  2.062380  153.538944  19.522630  4.084521
  7089.988  7090.000  0.500  2.060384  153.518477  19.559026  4.092891
  7091.993  7092.000  0.500  2.058627  153.490507  19.589855  4.096583
  7093.991  7094.000  0.500  2.056696  153.441515  19.621455  4.099550
  7095.986  7096.000  0.500  2.054955  153.448808  19.656585  4.102733
  7097.982  7098.000  0.500  2.053493  153.378030  19.676262  4.100055
  7099.996  7100.000  0.500  2.051485  153.314848  19.707677  4.095586
  7102.001  7102.000  0.500  2.049652  153.288442  19.740433  4.084812
  7102.292  7102.300  0.500  2.049310  153.272316  19.745121  4.083001
  7102.587  7102.600  0.500  2.049544  153.253419  19.738054  4.078121
  7102.884  7102.900  0.500  2.049065  153.263531  19.748819  4.076891
  7103.188  7103.200  0.500  2.048683  153.205944  19.748945  4.072433
  7103.483  7103.500  0.500  2.048487  153.192726  19.751121  4.068941
  7103.787  7103.800  0.500  2.048348  153.187602  19.753202  4.065028
  7104.089  7104.100  0.500  2.047978  153.178920  19.759381  4.060872
  7104.386  7104.400  0.500  2.048034  153.184600  19.759008  4.054896
  7104.686  7104.700  0.500  2.047542  153.181329  19.768318  4.051365
  7104.989  7105.000  0.500  2.047213  153.153167  19.771187  4.046249
  7105.285  7105.300  0.500  2.047287  153.135569  19.767441  4.038032
  7105.593  7105.600  0.500  2.047057  153.121867  19.770225  4.030644
  7105.886  7105.900  0.500  2.046983  153.101312  19.769031  4.020817
  7106.188  7106.200  0.500  2.046807  153.084398  19.770329  4.011555
  7106.490  7106.500  0.500  2.046737  153.070209  19.769892  4.001737
  7106.794  7106.800  0.500  2.046653  153.096362  19.774922  3.991409
  7107.094  7107.100  0.500  2.046234  153.062434  19.778821  3.980279
  7107.385  7107.400  0.500  2.046054  153.048482  19.780587  3.966497
  7107.685  7107.700  0.500  2.046174  153.056384  19.779238  3.948498
  7107.987  7108.000  0.500  2.045702  153.027804  19.784863  3.929747
  7108.291  7108.300  0.500  2.045547  153.043540  19.789971  3.908335
  7108.586  7108.600  0.500  2.045593  153.055260  19.790570  3.882921
  7108.888  7108.900  0.500  2.045532  153.023978  19.787735  3.850973
  7109.188  7109.200  0.500  2.045238  152.999800  19.790429  3.812455
  7109.493  7109.500  0.500  2.045186  152.990608  19.790270  3.762826
  7109.799  7109.800  0.500  2.045140  152.973236  19.788944  3.694995
  7110.093  7110.100  0.500  2.045231  152.964631  19.786022  3.603685
  7110.395  7110.400  0.500  2.045527  152.905396  19.772515  3.472720
  7110.697  7110.700  0.500  2.045684  152.876534  19.765680  3.291794
  7110.995  7111.000  0.500  2.046128  152.869106  19.755937  3.053359
  7111.297  7111.300  0.500  2.046555  152.837938  19.743481  2.769001
  7111.595  7111.600  0.500  2.047197  152.810137  19.727224  2.475705
  7111.891  7111.900  0.500  2.047958  152.753449  19.704892  2.208997
  7112.194  7112.200  0.500  2.049092  152.724259  19.678809  1.995709
  7112.490  7112.500  0.500  2.050438  152.704169  19.649743  1.836109
  7112.796  7112.800  0.500  2.052407  152.699638  19.610504  1.712781
  7113.092  7113.100  0.500  2.054459  152.671917  19.566765  1.616234
  7113.399  7113.400  0.500  2.055343  152.670068  19.549239  1.531164
  7113.697  7113.700  0.500  2.055217  152.645704  19.548584  1.456150
  7114.000  7114.000  0.500  2.054495  152.633537  19.561129  1.389955
  7114.304  7114.300  0.500  2.054539  152.634840  19.560440  1.330212
  7114.600  7114.600  0.500  2.054804  152.619319  19.553273  1.281859
  7114.901  7114.900  0.500  2.054736  152.586657  19.550410  1.243573
  7115.199  7115.200  0.500  2.053745  152.571876  19.567897  1.216655
  7115.502  7115.500  0.500  2.052252  152.570969  19.597019  1.198469
  7115.802  7115.800  0.500  2.050701  152.552858  19.625106  1.185373
  7116.092  7116.100  0.500  2.050295  152.547747  19.632434  1.175289
  7116.393  7116.400  0.500  2.050228  152.504180  19.628134  1.162983
  7116.693  7116.700  0.500  2.050876  152.522028  19.617715  1.146827
  7116.998  7117.000  0.500  2.051886  152.517642  19.597346  1.121850
  7117.299  7117.300  0.500  2.052872  152.508301  19.576828  1.085637
  7117.595  7117.600  0.500  2.054691  152.516800  19.542345  1.037998
  7117.896  7117.900  0.500  2.056983  152.483344  19.493325  0.979149
  7118.199  7118.200  0.500  2.059764  152.458827  19.436069  0.912687
  7118.502  7118.500  0.500  2.063612  152.438276  19.358811  0.843708
  7118.805  7118.800  0.500  2.068414  152.434840  19.265637  0.776032
  7119.104  7119.100  0.500  2.074344  152.436793  19.151978  0.713789
  7119.398  7119.400  0.500  2.081135  152.411430  19.019202  0.655236
  7119.701  7119.700  0.500  2.088493  152.393376  18.877529  0.600081
  7120.000  7120.000  0.500  2.096760  152.381198  18.720614  0.547330
  7120.301  7120.300  0.500  2.105962  152.368444  18.547585  0.497122
  7120.595  7120.600  0.500  2.116604  152.361745  18.350432  0.450379
  7120.892  7120.900  0.500  2.128425  152.332456  18.131303  0.407963
  7121.199  7121.200  0.500  2.141589  152.313829  17.892006  0.370155
  7121.500  7121.500  0.500  2.155322  152.293447  17.645614  0.338302
  7121.801  7121.800  0.500  2.170888  152.299131  17.373718  0.310852
  7122.102  7122.100  0.500  2.188758  152.291783  17.065178  0.286643
  7122.401  7122.400  0.500  2.209647  152.297665  16.713044  0.264846
  7122.705  7122.700  0.500  2.233531  152.287414  16.317504  0.244813
  7123.001  7123.000  0.500  2.259564  152.267776  15.896151  0.227208
  7123.305  7123.300  0.500  2.286892  152.262671  15.467100  0.211101
  7123.597  7123.600  0.500  2.311986  152.240812  15.081625  0.197436
  7123.899  7123.900  0.500  2.334898  152.218353  14.737836  0.185744
  7124.204  7124.200  0.500  2.354948  152.193140  14.442898  0.175575
  7124.499  7124.500  0.500  2.372148  152.194180  14.196694  0.166411
  7124.794  7124.800  0.500  2.387889  152.161140  13.971945  0.158529
  7125.095  7125.100  0.500  2.402107  152.170622  13.775547  0.151208
  7125.397  7125.400  0.500  2.415841  152.151720  13.585963  0.144617
  7125.702  7125.700  0.500  2.428532  152.123197  13.412121  0.138374
  7126.002  7126.000  0.500  2.441429  152.113769  13.239437  0.132713
  7126.299  7126.300  0.500  2.456585  152.094225  13.038618  0.126574
  7126.605  7126.600  0.500  2.476719  152.056925  12.775589  0.120023
  7126.902  7126.900  0.500  2.502336  152.031419  12.450384  0.112889
  7127.203  7127.200  0.500  2.533934  152.020994  12.062295  0.105382
  7127.505  7127.500  0.500  2.568930  152.008995  11.646549  0.097752
  7127.802  7127.800  0.500  2.603579  151.994772  11.248863  0.090545
  7128.093  7128.100  0.500  2.635147  151.898866  10.892425  0.083942
  7128.397  7128.400  0.500  2.664669  151.936463  10.578178  0.077747
  7128.701  7128.700  0.500  2.690773  151.921971  10.304637  0.072008
  7128.996  7129.000  0.500  2.711802  151.908178  10.089284  0.067005
  7129.295  7129.300  0.500  2.729252  151.879915  9.912912  0.062500
  7129.597  7129.600  0.500  2.742837  151.855910  9.777608  0.058847
  7129.899  7129.900  0.500  2.752606  151.812350  9.679783  0.055544
  7130.203  7130.200  0.500  2.759064  151.796349  9.616460  0.053198
  7130.502  7130.500  0.500  2.761642  151.752080  9.588896  0.051461
  7130.800  7130.800  0.500  2.760556  151.731431  9.598011  0.050445
  7131.102  7131.100  0.500  2.754592  151.693990  9.653042  0.050470
  7131.404  7131.400  0.500  2.744244  151.673943  9.752161  0.051092
  7131.706  7131.700  0.500  2.730925  151.663914  9.882264  0.052633
  7132.001  7132.000  0.500  2.717540  151.638420  10.013750  0.054742
  7132.299  7132.300  0.500  2.706554  151.648945  10.125064  0.057267
  7132.597  7132.600  0.500  2.699167  151.641335  10.199626  0.059879
  7132.899  7132.900  0.500  2.695978  151.631816  10.231564  0.062629
  7133.201  7133.200  0.500  2.696604  151.640483  10.225743  0.065399
  7133.496  7133.500  0.500  2.700278  151.638240  10.188092  0.068130
  7133.798  7133.800  0.500  2.705051  151.635295  10.139380  0.070721
  7134.098  7134.100  0.500  2.709137  151.620398  10.097048  0.072994
  7134.398  7134.400  0.500  2.711466  151.619013  10.073470  0.075499
  7134.703  7134.700  0.500  2.710792  151.619699  10.080301  0.077867
  7135.001  7135.000  0.500  2.707073  151.620834  10.117937  0.080392
  7135.301  7135.300  0.500  2.700982  151.604959  10.178689  0.082665
  7135.601  7135.600  0.500  2.693702  151.588606  10.251950  0.084762
  7135.905  7135.900  0.500  2.686516  151.593804  10.326239  0.086773
  7136.203  7136.200  0.500  2.680632  151.585765  10.386628  0.088088
  7136.503  7136.500  0.500  2.676400  151.581941  10.430420  0.089127
  7136.797  7136.800  0.500  2.673090  151.559171  10.463427  0.089696
  7136.998  7137.000  0.500  2.671247  151.576629  10.483939  0.090082
  7138.003  7137.990  0.500  2.660637  151.578746  10.595907  0.089182
  7139.005  7138.990  0.500  2.642700  151.570522  10.787102  0.087070
  7140.017  7140.010  0.500  2.625602  151.560702  10.972409  0.084452
  7141.087  7141.060  0.500  2.620427  151.560073  11.029300  0.081811
  7142.108  7142.120  0.500  2.620284  151.973584  11.060972  0.081524
  7143.186  7143.200  0.500  2.607573  151.985458  11.203343  0.083908
  7144.289  7144.300  0.500  2.583284  151.990890  11.479199  0.087476
  7145.417  7145.420  0.500  2.560523  151.988483  11.743283  0.088994
  7146.559  7146.560  0.500  2.542881  151.974464  11.951192  0.087344
  7147.707  7147.710  0.500  2.527471  151.880744  12.129304  0.083335
  7148.890  7148.890  0.500  2.513922  151.931175  12.298853  0.078881
  7150.087  7150.080  0.500  2.501882  151.930525  12.447773  0.075800
  7151.297  7151.300  0.500  2.488312  151.938935  12.618539  0.074892
  7152.529  7152.530  0.500  2.474373  151.924764  12.794467  0.074150
  7153.786  7153.780  0.500  2.462011  151.910088  12.952352  0.074407
  7155.047  7155.050  0.500  2.450749  151.900848  13.098250  0.075850
  7156.342  7156.340  0.500  2.439091  151.898758  13.251662  0.078162
  7157.656  7157.650  0.500  2.427918  151.858345  13.396992  0.080373
  7158.975  7158.980  0.500  2.419701  151.820107  13.504121  0.081342
  7160.332  7160.330  0.500  2.414640  151.840633  13.574484  0.081878
  7161.701  7161.700  0.500  2.413187  151.788322  13.589539  0.082720
  7163.080  7163.080  0.500  2.415817  151.751350  13.550542  0.083843
  7164.491  7164.490  0.500  2.421234  151.708426  13.473527  0.084942
  7165.917  7165.910  0.500  2.428258  151.645201  13.373641  0.085961
  7167.351  7167.350  0.500  2.437637  151.580988  13.243190  0.086129
  7168.811  7168.810  0.500  2.450812  151.569099  13.068822  0.085942
  7170.292  7170.290  0.500  2.466102  151.557773  12.869563  0.086157
  7171.795  7171.790  0.500  2.481759  151.535076  12.667739  0.087294
  7173.321  7173.310  0.500  2.497220  151.490734  12.469739  0.089712
  7174.849  7174.850  0.500  2.513355  151.452934  12.267090  0.093051
  7176.420  7176.410  0.500  2.525978  151.437086  12.111941  0.097311
  7177.985  7177.980  0.500  2.528787  151.403097  12.075264  0.102252
  7179.585  7179.580  0.500  2.526203  151.389693  12.105434  0.105911
  7181.197  7181.190  0.500  2.521967  151.360246  12.154449  0.107355
  7182.839  7182.830  0.500  2.517446  151.338257  12.207759  0.106710
  7184.485  7184.480  0.500  2.510898  151.277407  12.283014  0.105246
  7186.152  7186.150  0.500  2.500793  151.249071  12.405436  0.102073
  7187.842  7187.840  0.500  2.489399  151.209785  12.544331  0.098109
  7189.568  7189.550  0.500  2.480249  151.197971  12.658647  0.093776
  7191.288  7191.280  0.500  2.474974  149.647345  12.595093  0.087801
  7193.041  7193.030  0.500  2.474526  150.818034  12.699313  0.083831
  7194.796  7194.790  0.500  2.477518  151.007094  12.677241  0.081842
  7196.593  7196.580  0.500  2.481981  150.953619  12.616320  0.083162
  7198.385  7198.380  0.500  2.487108  150.939401  12.550626  0.087003
  7200.222  7200.210  0.500  2.489588  150.889484  12.515392  0.092767
  7202.061  7202.050  0.500  2.487814  150.852660  12.534565  0.100068
  7203.918  7203.910  0.500  2.483627  150.810370  12.583621  0.108799
  7205.801  7205.790  0.500  2.478470  150.757279  12.644232  0.117101
  7207.695  7207.690  0.500  2.472863  150.724005  12.712525  0.121705
  7209.620  7209.610  0.500  2.466036  150.648166  12.793160  0.118858
  7211.562  7211.550  0.500  2.458548  150.604653  12.885603  0.107621
  7213.516  7213.510  0.500  2.451350  150.551697  12.974123  0.091881
  7215.493  7215.480  0.500  2.443968  150.468362  13.063012  0.077274
  7217.494  7217.480  0.500  2.436171  150.426138  13.161564  0.066861
  7219.504  7219.490  0.500  2.428506  150.362451  13.257224  0.061114
  7221.536  7221.520  0.500  2.421889  150.318302  13.341321  0.060335
  7223.590  7223.580  0.500  2.415636  150.264707  13.420217  0.064583
  7225.660  7225.650  0.500  2.409065  150.153546  13.498698  0.073082
  7227.753  7227.740  0.500  2.402271  147.520623  13.352409  0.083708
  7229.858  7229.850  0.500  2.396931  150.317664  13.678419  0.099481
  7231.991  7231.980  0.500  2.393858  150.263663  13.715601  0.114916
  7234.125  7234.120  0.500  2.393340  150.191588  13.716116  0.128994
  7236.305  7236.290  0.500  2.394923  150.133583  13.689141  0.139195
  7238.491  7238.480  0.500  2.397538  150.111353  13.651360  0.143674
  7240.690  7240.680  0.500  2.400653  150.046564  13.603027  0.142190
  7242.910  7242.900  0.500  2.404030  150.028139  13.555513  0.136835
  7245.162  7245.150  0.500  2.407652  147.212765  13.253045  0.127010
  7247.421  7247.410  0.500  2.411758  149.762126  13.427307  0.122988
  7249.699  7249.690  0.500  2.415506  149.775522  13.378274  0.120099
  7252.003  7251.990  0.500  2.417636  149.674189  13.340777  0.121056
  7254.321  7254.310  0.500  2.416971  147.326884  13.140288  0.122818
  7256.666  7256.650  0.500  2.414225  149.752590  13.393365  0.127734
  7259.006  7259.000  0.500  2.410726  149.581305  13.424937  0.127071
  7261.394  7261.380  0.500  2.407506  149.144482  13.428909  0.123506
  7263.787  7263.770  0.500  2.403198  138.388873  12.514268  0.111888
  7266.201  7266.190  0.500  2.399878  149.327797  13.548362  0.118525
  7268.632  7268.620  0.500  2.395790  149.936926  13.659356  0.116240
  7271.081  7271.070  0.500  2.391354  149.895630  13.716309  0.111022
  7273.563  7273.550  0.500  2.386012  148.727742  13.682328  0.105120
  7276.049  7276.040  0.500  2.380274  149.895258  13.869091  0.103160
  7278.559  7278.550  0.500  2.375206  149.831784  13.933659  0.101811
  7281.080  7281.070  0.500  2.372342  149.790120  13.969728  0.099236
  7283.633  7283.620  0.500  2.370376  148.745895  13.899650  0.095196
  7286.202  7286.190  0.500  2.369329  149.398945  13.975289  0.092085
  7288.786  7288.770  0.500  2.367852  149.517437  14.007052  0.090938
  7291.389  7291.380  0.500  2.366306  149.490897  14.026239  0.094376
  7294.012  7294.000  0.500  2.363837  149.463657  14.058347  0.102641
  7296.666  7296.650  0.500  2.360772  149.402123  14.095696  0.113727
  7299.322  7299.310  0.500  2.356809  149.258683  14.138085  0.125187
  7302.006  7301.990  0.500  2.351931  147.550033  14.044580  0.133721
  7304.705  7304.690  0.500  2.347142  149.378765  14.286904  0.143737
  7307.419  7307.410  0.500  2.342751  149.293837  14.341609  0.149133
  7310.166  7310.150  0.500  2.338968  149.243516  14.391125  0.151802
  7312.916  7312.900  0.500  2.335438  149.161004  14.434024  0.152163
  7315.696  7315.680  0.500  2.331628  149.112361  14.484405  0.152500
  7318.479  7318.470  0.500  2.327093  149.048701  14.544023  0.154056
  7321.304  7321.290  0.500  2.322382  148.996910  14.607621  0.155316
  7324.137  7324.120  0.500  2.317465  148.932707  14.673301  0.156458
  7326.983  7326.970  0.500  2.312847  148.851603  14.733187  0.157388
  7329.859  7329.850  0.500  2.308738  148.769284  14.785675  0.158679
  7332.755  7332.740  0.500  2.305935  148.708335  14.821096  0.161944
  7335.661  7335.650  0.500  2.302784  148.647686  14.861810  0.166158
  7338.589  7338.570  0.500  2.299136  147.410085  14.791946  0.167480
  7341.529  7341.520  0.500  2.296751  148.445756  14.931426  0.167649
  7344.500  7344.490  0.500  2.293569  148.418945  14.976317  0.161963
  7347.481  7347.470  0.500  2.291699  148.382968  15.000713  0.153734
  7350.496  7350.480  0.500  2.290556  148.301293  15.009593  0.145430
  7353.517  7353.500  0.500  2.290014  148.227987  15.010313  0.138389
  7356.564  7356.550  0.500  2.289334  148.148370  15.012454  0.132879
  7359.621  7359.610  0.500  2.288539  148.066581  15.016095  0.128210
  7362.703  7362.690  0.500  2.286597  147.989221  15.037425  0.124737
  7365.799  7365.790  0.500  2.283992  147.903325  15.067896  0.123754
