# XDI/1.0 BlueSky/1.10.0 BMM/2023-1.0-py310-tiled
# Beamline.name: BMM (06BM) -- Beamline for Materials Measurement (NIST)
# Beamline.xray_source: NSLS-II three-pole wiggler
# Beamline.collimation: paraboloid mirror, 5 nm Rh on 30 nm Pt
# Beamline.focusing: not in use
# Beamline.harmonic_rejection: flat mirror, Si stripe, pitch = 7.0 mrad relative to beam
# Beamline.software: Bluesky 1.10.0, Ophyd 1.7.0, DataBroker 2.0.0b13, Python 3.10.8, 2023-1.0-py310-tiled
# Detector.I0: 10 cm N2
# Detector.I1: 25 cm N2
# Detector.I2: 25 cm N2
# Element.symbol: Fe
# Element.edge: K
# Element.reference: Fe
# Element.reference_material: Fe foil
# Facility.name: NSLS-II
# Facility.energy: 3.0
# Facility.current: 400.6
# Facility.mode: top-off
# Facility.GUP: 123456
# Facility.SAF: 301027
# Facility.cycle: 2023-2
# Mono.name: Si(111)
# Mono.d_spacing: 3.1351860
# Mono.encoder_resolution: 0.0000050 deg/ct
# Mono.angle_offset: 16.0754326 deg
# Mono.scan_mode: pseudo channel cut
# Mono.scan_type: step
# Mono.direction: forward in energy
# Sample.name: Fe3Al2Si3O12
# Sample.prep: PEG pellet
# Sample.x: 142.329 mm
# Sample.y: 114.126 mm
# Sample.SDD_position: 205.000 mm
# Scan.experimenters: Bruce Ravel
# Scan.edge_energy: 7112.0
# Scan.start_time: 2023-05-05T19:53:02
# Scan.end_time: 2023-05-05T20:01:12
# Scan.transient_id: 74601
# Scan.uid: 445b1a8d-1bfa-493a-a9ec-00d9cb938fdc
# Scan.plot_hint: ln(I0/It)  --  ln($5/$6)
# Column.1: energy eV
# Column.2: requested_energy eV
# Column.3: measurement_time seconds
# Column.4: xmu 
# Column.5: I0 nA
# Column.6: It nA
# Column.7: Ir nA
# ///////////
# courtesy Martin Stennett, University of Sheffield
# -----------
# energy  requested_energy  measurement_time  xmu  I0  It  Ir
  6912.007  6912.000  0.500  2.582085  154.688324  11.696945  2.197077
  6922.009  6922.000  0.500  2.568602  154.515307  11.842456  2.239980
  6932.017  6932.000  0.500  2.556554  154.472177  11.982648  2.282306
  6942.033  6942.000  0.500  2.544102  154.476487  12.133138  2.327747
  6951.993  6952.000  0.500  2.531765  154.451069  12.281729  2.372759
  6962.006  6962.000  0.500  2.519449  154.434711  12.432600  2.418724
  6972.018  6972.000  0.500  2.507008  154.419260  12.586991  2.465082
  6982.010  6982.000  0.500  2.495364  154.377113  12.730926  2.510170
  6992.010  6992.000  0.500  2.482980  154.373678  12.889287  2.559092
  7002.017  7002.000  0.500  2.470857  154.317764  13.041766  2.606401
  7012.012  7012.000  0.500  2.459210  154.237826  13.187713  2.653387
  7022.014  7022.000  0.500  2.447219  154.159656  13.340038  2.701572
  7032.008  7032.000  0.500  2.435564  154.077853  13.489257  2.748882
  7042.008  7042.000  0.500  2.424342  153.975233  13.632410  2.795370
  7052.005  7052.000  0.500  2.412550  153.892558  13.786700  2.843688
  7062.004  7062.000  0.500  2.400952  153.190018  13.883863  2.879360
  7072.009  7072.000  0.500  2.390392  153.684769  14.076568  2.934063
  7081.978  7082.000  0.500  2.381386  153.613464  14.197324  2.970249
  7083.981  7084.000  0.500  2.379285  153.344915  14.202309  2.972408
  7085.982  7086.000  0.500  2.377895  153.464498  14.233158  2.979595
  7087.988  7088.000  0.500  2.376073  153.463031  14.258981  2.985457
  7089.992  7090.000  0.500  2.374294  153.450263  14.283182  2.990595
  7091.989  7092.000  0.500  2.372608  153.407037  14.303249  2.993248
  7093.993  7094.000  0.500  2.371325  153.417286  14.322574  2.995035
  7095.986  7096.000  0.500  2.370273  153.400682  14.336096  2.994407
  7097.980  7098.000  0.500  2.369443  153.348357  14.343100  2.990789
  7099.996  7100.000  0.500  2.369206  153.312428  14.343145  2.982740
  7102.001  7102.000  0.500  2.368898  153.310132  14.347348  2.971469
  7102.292  7102.300  0.500  2.368798  153.274058  14.345402  2.968269
  7102.585  7102.600  0.500  2.369050  153.281299  14.342462  2.964751
  7102.891  7102.900  0.500  2.368998  153.291369  14.344154  2.962923
  7103.190  7103.200  0.500  2.369322  153.266840  14.337212  2.958617
  7103.490  7103.500  0.500  2.369708  153.238357  14.329020  2.953918
  7103.785  7103.800  0.500  2.369798  153.239700  14.327852  2.950590
  7104.089  7104.100  0.500  2.370065  153.228714  14.322997  2.945626
  7104.388  7104.400  0.500  2.369972  153.223763  14.323868  2.942216
  7104.683  7104.700  0.500  2.369984  153.214545  14.322842  2.936820
  7104.985  7105.000  0.500  2.370182  153.216326  14.320174  2.932000
  7105.291  7105.300  0.500  2.370361  153.205920  14.316625  2.926133
  7105.587  7105.600  0.500  2.371064  153.198309  14.305863  2.918543
  7105.886  7105.900  0.500  2.371332  153.184323  14.300718  2.910904
  7106.188  7106.200  0.500  2.371741  153.173658  14.293878  2.903116
  7106.488  7106.500  0.500  2.372105  153.167903  14.288141  2.894498
  7106.792  7106.800  0.500  2.372533  153.161580  14.281433  2.885487
  7107.092  7107.100  0.500  2.372776  153.157364  14.277572  2.875638
  7107.385  7107.400  0.500  2.373198  153.158601  14.271669  2.863086
  7107.687  7107.700  0.500  2.373930  153.153177  14.260708  2.848545
  7107.989  7108.000  0.500  2.374645  153.146581  14.249911  2.833036
  7108.289  7108.300  0.500  2.375300  153.121108  14.238204  2.813739
  7108.593  7108.600  0.500  2.376279  153.128677  14.224978  2.792835
  7108.888  7108.900  0.500  2.377024  153.123279  14.213886  2.767908
  7109.188  7109.200  0.500  2.378378  153.097064  14.192227  2.735896
  7109.495  7109.500  0.500  2.379692  153.099573  14.173817  2.695860
  7109.795  7109.800  0.500  2.381393  153.076867  14.147636  2.642652
  7110.097  7110.100  0.500  2.383630  153.039865  14.112606  2.572631
  7110.393  7110.400  0.500  2.386745  153.019520  14.066837  2.473666
  7110.695  7110.700  0.500  2.391251  152.991622  14.001048  2.334551
  7110.993  7111.000  0.500  2.397535  152.962474  13.910687  2.154156
  7111.299  7111.300  0.500  2.405769  152.944888  13.795040  1.938066
  7111.591  7111.600  0.500  2.414322  152.928124  13.676044  1.720979
  7111.891  7111.900  0.500  2.421221  152.878350  13.577598  1.523957
  7112.194  7112.200  0.500  2.423628  152.855909  13.542970  1.373535
  7112.492  7112.500  0.500  2.421587  152.811349  13.566685  1.268670
  7112.794  7112.800  0.500  2.418136  152.780297  13.610820  1.190419
  7113.097  7113.100  0.500  2.416097  152.762809  13.637037  1.127348
  7113.393  7113.400  0.500  2.415919  152.756596  13.638915  1.070557
  7113.699  7113.700  0.500  2.417523  152.742608  13.615798  1.016043
  7114.002  7114.000  0.500  2.418759  152.732390  13.598079  0.967580
  7114.302  7114.300  0.500  2.419758  152.708770  13.582397  0.925670
  7114.600  7114.600  0.500  2.420409  152.720244  13.574571  0.891469
  7114.899  7114.900  0.500  2.421865  152.680363  13.551286  0.863717
  7115.197  7115.200  0.500  2.424641  152.684332  13.514068  0.841961
  7115.500  7115.500  0.500  2.428950  152.679299  13.455526  0.824732
  7115.800  7115.800  0.500  2.434748  152.675777  13.377431  0.809719
  7116.092  7116.100  0.500  2.441560  152.660782  13.285300  0.797099
  7116.395  7116.400  0.500  2.450152  152.644678  13.170251  0.782128
  7116.693  7116.700  0.500  2.460908  152.627288  13.027872  0.763510
  7116.998  7117.000  0.500  2.474677  152.609130  12.848184  0.737211
  7117.299  7117.300  0.500  2.491529  152.599741  12.632708  0.703191
  7117.598  7117.600  0.500  2.513107  152.585871  12.361911  0.659109
  7117.900  7117.900  0.500  2.540812  152.579693  12.023644  0.606960
  7118.201  7118.200  0.500  2.575521  152.579645  11.613476  0.548237
  7118.506  7118.500  0.500  2.618648  152.555264  11.121484  0.487498
  7118.803  7118.800  0.500  2.671163  152.531431  10.550860  0.428750
  7119.099  7119.100  0.500  2.734879  152.519938  9.898827  0.372563
  7119.400  7119.400  0.500  2.811051  152.508570  9.172129  0.319571
  7119.701  7119.700  0.500  2.897389  152.492742  8.412578  0.271001
  7120.002  7120.000  0.500  2.996293  152.483172  7.619887  0.225924
  7120.296  7120.300  0.500  3.100880  152.480860  6.863102  0.186868
  7120.595  7120.600  0.500  3.206995  152.448426  6.170818  0.153779
  7120.892  7120.900  0.500  3.308884  152.436115  5.572601  0.127222
  7121.197  7121.200  0.500  3.405117  152.438718  5.061411  0.106006
  7121.498  7121.500  0.500  3.490559  152.421149  4.646382  0.090141
  7121.799  7121.800  0.500  3.569167  152.398198  4.294477  0.077845
  7122.102  7122.100  0.500  3.646726  152.390360  3.973787  0.067346
  7122.399  7122.400  0.500  3.726712  152.361227  3.667619  0.058888
  7122.705  7122.700  0.500  3.816013  152.361587  3.354300  0.050933
  7123.004  7123.000  0.500  3.910870  152.336475  3.050244  0.044169
  7123.303  7123.300  0.500  4.006131  152.325581  2.772888  0.038392
  7123.602  7123.600  0.500  4.096862  152.309973  2.532117  0.033647
  7123.901  7123.900  0.500  4.183056  152.288550  2.322679  0.029741
  7124.202  7124.200  0.500  4.265336  152.242009  2.138566  0.026440
  7124.501  7124.500  0.500  4.342143  152.235504  1.980373  0.023719
  7124.796  7124.800  0.500  4.410373  152.217521  1.849541  0.021418
  7125.095  7125.100  0.500  4.465822  152.203197  1.749613  0.019678
  7125.394  7125.400  0.500  4.505711  152.181425  1.680955  0.018191
  7125.702  7125.700  0.500  4.526476  152.157486  1.646152  0.017335
  7125.999  7126.000  0.500  4.527981  152.133152  1.643413  0.016843
  7126.303  7126.300  0.500  4.514856  152.131749  1.665109  0.016459
  7126.600  7126.600  0.500  4.494337  152.106990  1.699353  0.016356
  7126.902  7126.900  0.500  4.474117  152.071184  1.733656  0.016064
  7127.203  7127.200  0.500  4.457853  152.037257  1.761688  0.015738
  7127.505  7127.500  0.500  4.445466  152.021640  1.783463  0.015376
  7127.802  7127.800  0.500  4.432737  151.995649  1.806001  0.014831
  7128.099  7128.100  0.500  4.413680  151.985940  1.840631  0.014525
  7128.401  7128.400  0.500  4.383838  151.939735  1.895810  0.014181
  7128.701  7128.700  0.500  4.341751  152.394805  1.983223  0.014055
  7128.994  7129.000  0.500  4.287225  152.387902  2.094269  0.014338
  7129.300  7129.300  0.500  4.221549  152.341741  2.235751  0.014354
  7129.597  7129.600  0.500  4.148670  152.318808  2.404412  0.014683
  7129.899  7129.900  0.500  4.070910  152.288518  2.598325  0.015124
  7130.207  7130.200  0.500  3.993342  152.254066  2.807259  0.015830
  7130.502  7130.500  0.500  3.922983  152.212371  3.011065  0.016345
  7130.802  7130.800  0.500  3.857469  152.168816  3.214016  0.017278
  7131.104  7131.100  0.500  3.799770  152.157903  3.404672  0.018035
  7131.402  7131.400  0.500  3.752171  152.135330  3.570122  0.019045
  7131.706  7131.700  0.500  3.712535  152.125832  3.714236  0.020026
  7132.003  7132.000  0.500  3.682438  152.127180  3.827756  0.021322
  7132.301  7132.300  0.500  3.658152  152.131355  3.921962  0.022481
  7132.601  7132.600  0.500  3.637200  152.112438  4.004504  0.023882
  7132.901  7132.900  0.500  3.616970  152.091966  4.085791  0.025365
  7133.203  7133.200  0.500  3.596659  152.081632  4.169342  0.027004
  7133.498  7133.500  0.500  3.577091  152.059465  4.251113  0.028847
  7133.798  7133.800  0.500  3.558277  152.073867  4.332258  0.030655
  7134.098  7134.100  0.500  3.540012  152.070699  4.412023  0.032251
  7134.403  7134.400  0.500  3.522528  152.067724  4.489754  0.034022
  7134.703  7134.700  0.500  3.504765  152.061506  4.570032  0.035794
  7135.001  7135.000  0.500  3.487073  152.069855  4.651858  0.037366
  7135.303  7135.300  0.500  3.470124  152.061307  4.731109  0.038770
  7135.601  7135.600  0.500  3.455702  152.040183  4.799170  0.039927
  7135.899  7135.900  0.500  3.443911  152.039174  4.856057  0.041093
  7136.203  7136.200  0.500  3.435433  152.044626  4.897579  0.041876
  7136.503  7136.500  0.500  3.430156  152.058583  4.923945  0.042576
  7136.801  7136.800  0.500  3.427499  152.039849  4.936436  0.042621
  7136.989  7137.000  0.500  3.426992  152.022148  4.938363  0.042747
  7137.998  7137.990  0.500  3.443179  152.014009  4.858810  0.041326
  7139.007  7138.990  0.500  3.481362  152.003598  4.676466  0.038101
  7140.023  7140.010  0.500  3.507360  152.017507  4.556867  0.035285
  7141.085  7141.060  0.500  3.512629  152.020134  4.532999  0.034020
  7142.108  7142.120  0.500  3.508560  151.965642  4.549852  0.033968
  7143.188  7143.200  0.500  3.501063  151.990886  4.584850  0.034686
  7144.298  7144.300  0.500  3.493655  151.983331  4.618710  0.035413
  7145.422  7145.420  0.500  3.489342  151.958321  4.637911  0.035490
  7146.563  7146.560  0.500  3.491320  151.947831  4.628427  0.034214
  7147.711  7147.710  0.500  3.500660  151.963103  4.585862  0.031808
  7148.892  7148.890  0.500  3.507368  151.946650  4.554707  0.029474
  7150.087  7150.080  0.500  3.511871  151.936640  4.533944  0.028038
  7151.301  7151.300  0.500  3.528154  151.948973  4.461079  0.026751
  7152.532  7152.530  0.500  3.563332  151.958239  4.307140  0.025261
  7153.788  7153.780  0.500  3.612370  151.931976  4.100309  0.023767
  7155.056  7155.050  0.500  3.665976  151.906564  3.885646  0.022797
  7156.342  7156.340  0.500  3.718392  151.894339  3.686928  0.021991
  7157.650  7157.650  0.500  3.756765  151.893802  3.548117  0.021597
  7158.980  7158.980  0.500  3.771896  151.876102  3.494426  0.021302
  7160.332  7160.330  0.500  3.772936  151.853384  3.490271  0.021296
  7161.703  7161.700  0.500  3.770638  151.822167  3.497581  0.021676
  7163.080  7163.080  0.500  3.765006  151.784140  3.516454  0.021995
  7164.500  7164.490  0.500  3.753832  151.748831  3.555140  0.022828
  7165.915  7165.910  0.500  3.742744  151.701668  3.593663  0.023393
  7167.353  7167.350  0.500  3.735882  151.658508  3.617378  0.023920
  7168.822  7168.810  0.500  3.725800  151.615865  3.653005  0.024307
  7170.296  7170.290  0.500  3.711706  151.601457  3.704503  0.025053
  7171.795  7171.790  0.500  3.701562  151.579435  3.741728  0.026233
  7173.325  7173.310  0.500  3.688091  151.537949  3.791436  0.027672
  7174.851  7174.850  0.500  3.674454  151.505788  3.842680  0.029548
  7176.420  7176.410  0.500  3.660064  151.489858  3.897966  0.031665
  7177.991  7177.980  0.500  3.645774  151.437174  3.952693  0.033775
  7179.583  7179.580  0.500  3.635388  151.469551  3.994814  0.035306
  7181.197  7181.190  0.500  3.627159  151.414930  4.026369  0.035873
  7182.834  7182.830  0.500  3.619440  151.365901  4.056256  0.035819
  7184.485  7184.480  0.500  3.611983  151.344519  4.086037  0.035219
  7186.159  7186.150  0.500  3.605091  151.325975  4.113792  0.034346
  7187.849  7187.840  0.500  3.596963  151.293925  4.146487  0.032685
  7189.561  7189.550  0.500  3.589919  151.265770  4.175022  0.031340
  7191.299  7191.280  0.500  3.586631  149.705573  4.145569  0.029108
  7193.039  7193.030  0.500  3.585099  150.903124  4.185137  0.027803
  7194.798  7194.790  0.500  3.582327  151.090683  4.201969  0.027443
  7196.593  7196.580  0.500  3.579977  151.074266  4.211399  0.028148
  7198.387  7198.380  0.500  3.576309  151.029262  4.225613  0.029761
  7200.224  7200.210  0.500  3.570749  150.988461  4.248026  0.031748
  7202.057  7202.050  0.500  3.565331  150.963818  4.270408  0.034358
  7203.926  7203.910  0.500  3.564392  150.896137  4.272503  0.037097
  7205.799  7205.790  0.500  3.569565  150.850855  4.249183  0.039827
  7207.703  7207.690  0.500  3.578018  150.777926  4.211378  0.040724
  7209.618  7209.610  0.500  3.586471  150.722170  4.174385  0.039050
  7211.562  7211.550  0.500  3.593271  150.699583  4.145475  0.034995
  7213.520  7213.510  0.500  3.598291  150.657629  4.123570  0.029596
  7215.495  7215.480  0.500  3.602745  150.609610  4.103936  0.024605
  7217.487  7217.480  0.500  3.607138  150.558164  4.084550  0.021027
  7219.513  7219.490  0.500  3.609119  150.488118  4.074569  0.019053
  7221.529  7221.520  0.500  3.607201  150.426202  4.080713  0.018664
  7223.590  7223.580  0.500  3.602287  150.357694  4.098945  0.020021
  7225.662  7225.650  0.500  3.595743  150.237884  4.122569  0.022576
  7227.748  7227.740  0.500  3.587667  147.590944  4.082777  0.025925
  7229.867  7229.850  0.500  3.580342  150.399473  4.191056  0.030829
  7231.991  7231.980  0.500  3.573746  150.338386  4.217078  0.035553
  7234.128  7234.120  0.500  3.571366  150.295118  4.225909  0.040211
  7236.303  7236.290  0.500  3.573038  150.287191  4.218630  0.043443
  7238.487  7238.480  0.500  3.576955  150.248996  4.201066  0.044519
  7240.694  7240.680  0.500  3.579311  150.192816  4.189614  0.044342
  7242.910  7242.900  0.500  3.578719  150.156924  4.191093  0.042747
  7245.165  7245.150  0.500  3.574864  147.337744  4.128289  0.039958
  7247.423  7247.410  0.500  3.568940  149.890606  4.224773  0.038998
  7249.703  7249.690  0.500  3.561140  149.892549  4.257912  0.038509
  7252.000  7251.990  0.500  3.552318  149.819042  4.293536  0.039329
  7254.326  7254.310  0.500  3.543704  147.506733  4.263840  0.040189
  7256.666  7256.650  0.500  3.535821  149.898325  4.367260  0.041936
  7259.008  7259.000  0.500  3.529996  149.724748  4.387691  0.041644
  7261.394  7261.380  0.500  3.525632  149.280966  4.393817  0.040679
  7263.782  7263.770  0.500  3.522788  138.776381  4.096267  0.036867
  7266.198  7266.190  0.500  3.519904  149.463065  4.424445  0.038993
  7268.637  7268.620  0.500  3.516124  150.099597  4.460119  0.038346
  7271.081  7271.070  0.500  3.512180  150.034997  4.475815  0.036532
  7273.565  7273.550  0.500  3.509532  148.881385  4.453176  0.034449
  7276.047  7276.040  0.500  3.507212  150.066482  4.499051  0.033776
  7278.559  7278.550  0.500  3.507389  150.014514  4.496698  0.033135
  7281.083  7281.070  0.500  3.508545  149.978778  4.490431  0.032152
  7283.628  7283.620  0.500  3.509752  148.931847  4.453706  0.030819
  7286.200  7286.190  0.500  3.508574  149.555209  4.477622  0.029819
  7288.783  7288.770  0.500  3.503500  149.663225  4.503649  0.029481
  7291.389  7291.380  0.500  3.494485  149.647778  4.543963  0.030981
  7294.014  7294.000  0.500  3.484432  149.615576  4.588887  0.033992
  7296.664  7296.650  0.500  3.475442  149.540346  4.627998  0.037727
  7299.322  7299.310  0.500  3.469227  149.438698  4.653684  0.041648
  7302.003  7301.990  0.500  3.466148  147.703367  4.613827  0.044429
  7304.707  7304.690  0.500  3.466384  149.550284  4.670417  0.047266
  7307.422  7307.410  0.500  3.468450  149.441564  4.657392  0.048880
  7310.166  7310.150  0.500  3.470964  149.362113  4.643227  0.049198
  7312.919  7312.900  0.500  3.472564  149.331082  4.634843  0.049333
  7315.692  7315.680  0.500  3.471434  149.235995  4.637127  0.049199
  7318.481  7318.470  0.500  3.468415  149.188993  4.649683  0.049554
  7321.304  7321.290  0.500  3.462751  149.125602  4.674106  0.050137
  7324.132  7324.120  0.500  3.455686  149.055961  4.705049  0.050456
  7326.983  7326.970  0.500  3.448688  148.961718  4.735095  0.050822
  7329.861  7329.850  0.500  3.444604  148.965477  4.754591  0.051504
  7332.755  7332.740  0.500  3.442451  148.878206  4.762046  0.052541
  7335.665  7335.650  0.500  3.441130  148.821125  4.766511  0.053571
  7338.585  7338.570  0.500  3.438092  147.594288  4.741601  0.054191
  7341.532  7341.520  0.500  3.432365  148.593437  4.801119  0.054333
  7344.502  7344.490  0.500  3.426210  148.596294  4.830855  0.052613
  7347.484  7347.470  0.500  3.420857  148.526061  4.854486  0.050073
  7350.498  7350.480  0.500  3.415623  148.451961  4.877529  0.047571
  7353.517  7353.500  0.500  3.409748  148.789735  4.917430  0.045802
  7356.562  7356.550  0.500  3.402514  148.708075  4.950413  0.044084
  7359.623  7359.610  0.500  3.394870  148.622733  4.985538  0.042841
  7362.698  7362.690  0.500  3.388348  148.538566  5.015316  0.041882
  7365.802  7365.790  0.500  3.382757  148.472395  5.041187  0.041666
  7368.928  7368.910  0.500  3.378444  148.424416  5.061342  0.042273
  7372.067  7372.050  0.500  3.375552  148.357143  5.073703  0.044253
