# XDI/1.0 BlueSky/1.10.0 BMM/2023-1.0-py310-tiled
# Beamline.name: BMM (06BM) -- Beamline for Materials Measurement (NIST)
# Beamline.xray_source: NSLS-II three-pole wiggler
# Beamline.collimation: paraboloid mirror, 5 nm Rh on 30 nm Pt
# Beamline.focusing: not in use
# Beamline.harmonic_rejection: flat mirror, Si stripe, pitch = 7.0 mrad relative to beam
# Beamline.software: Bluesky 1.10.0, Ophyd 1.7.0, DataBroker 2.0.0b13, Python 3.10.8, 2023-1.0-py310-tiled
# Detector.I0: 10 cm N2
# Detector.I1: 25 cm N2
# Detector.I2: 25 cm N2
# Element.symbol: Fe
# Element.edge: K
# Element.reference: Fe
# Element.reference_material: Fe foil
# Facility.name: NSLS-II
# Facility.energy: 3.0
# Facility.current: 400.6
# Facility.mode: top-off
# Facility.GUP: 123456
# Facility.SAF: 301027
# Facility.cycle: 2023-2
# Mono.name: Si(111)
# Mono.d_spacing: 3.1351860
# Mono.encoder_resolution: 0.0000050 deg/ct
# Mono.angle_offset: 16.0754326 deg
# Mono.scan_mode: pseudo channel cut
# Mono.scan_type: step
# Mono.direction: forward in energy
# Sample.name: CaFe(2+)2Fe(3+)(Si2O7)OOH
# Sample.prep: PEG pellet
# Sample.x: 142.329 mm
# Sample.y: 114.126 mm
# Sample.SDD_position: 205.000 mm
# Scan.experimenters: Bruce Ravel
# Scan.edge_energy: 7112.0
# Scan.start_time: 2023-05-05T19:26:02
# Scan.end_time: 2023-05-05T19:34:19
# Scan.transient_id: 74586
# Scan.uid: 17d95919-5ff0-4b7b-b6e3-35f2cf83b0e4
# Scan.plot_hint: ln(I0/It)  --  ln($5/$6)
# Column.1: energy eV
# Column.2: requested_energy eV
# Column.3: measurement_time seconds
# Column.4: xmu 
# Column.5: I0 nA
# Column.6: It nA
# Column.7: Ir nA
# ///////////
# courtesy Martin Stennett, University of Sheffield
# -----------
# energy  requested_energy  measurement_time  xmu  I0  It  Ir
  6911.999  6912.000  0.500  1.723868  154.476718  27.554773  5.176612
  6921.803  6922.000  0.500  1.714930  154.331845  27.776074  5.253500
  6932.015  6932.000  0.500  1.705387  154.289982  28.034811  5.341095
  6942.013  6942.000  0.500  1.696400  154.314192  28.292318  5.428331
  6952.010  6952.000  0.500  1.687114  154.290747  28.551935  5.516251
  6962.014  6962.000  0.500  1.677993  154.274528  28.810517  5.604866
  6972.026  6972.000  0.500  1.668969  154.266912  29.070256  5.695326
  6982.010  6982.000  0.500  1.659809  154.230634  29.330870  5.784962
  6992.004  6992.000  0.500  1.650688  154.222737  29.598095  5.877702
  7002.011  7002.000  0.500  1.641958  154.146817  29.842921  5.965257
  7012.006  7012.000  0.500  1.632965  154.085185  30.100468  6.057769
  7022.012  7022.000  0.500  1.624234  154.022483  30.352075  6.146768
  7032.006  7032.000  0.500  1.615243  153.958432  30.613467  6.240222
  7042.008  7042.000  0.500  1.607193  153.871336  30.843437  6.325991
  7052.009  7052.000  0.500  1.598643  153.770536  31.087884  6.413307
  7062.004  7062.000  0.500  1.590271  153.061620  31.204727  6.473725
  7072.009  7072.000  0.500  1.582388  153.551251  31.552285  6.577360
  7081.978  7082.000  0.500  1.574620  153.554878  31.799108  6.652794
  7083.978  7084.000  0.500  1.573082  153.327632  31.800920  6.656664
  7085.978  7086.000  0.500  1.571835  153.430490  31.861939  6.671472
  7087.988  7088.000  0.500  1.570536  153.451226  31.907676  6.681423
  7089.992  7090.000  0.500  1.569483  153.407792  31.932246  6.686778
  7091.989  7092.000  0.500  1.568325  153.412742  31.970276  6.691780
  7093.987  7094.000  0.500  1.567345  153.371968  31.993112  6.692712
  7096.150  7096.000  0.500  1.566179  153.328891  32.021462  6.690131
  7098.003  7098.000  0.500  1.565315  153.325158  32.048362  6.684020
  7099.992  7100.000  0.500  1.564707  153.294057  32.061353  6.669112
  7101.999  7102.000  0.500  1.564517  153.274928  32.063438  6.641033
  7102.294  7102.300  0.500  1.564404  153.263338  32.064619  6.636161
  7102.587  7102.600  0.500  1.564711  153.272552  32.056728  6.628945
  7102.884  7102.900  0.500  1.564823  153.243656  32.047083  6.621401
  7103.192  7103.200  0.500  1.564915  153.233523  32.042020  6.614073
  7103.485  7103.500  0.500  1.564774  153.218240  32.043327  6.606530
  7103.785  7103.800  0.500  1.564549  153.190660  32.044764  6.600292
  7104.089  7104.100  0.500  1.564694  153.207530  32.043662  6.592395
  7104.382  7104.400  0.500  1.564643  153.177635  32.039043  6.581391
  7104.688  7104.700  0.500  1.564685  153.194920  32.041319  6.572485
  7104.987  7105.000  0.500  1.564777  153.195939  32.038569  6.562196
  7105.291  7105.300  0.500  1.564888  153.199370  32.035743  6.548959
  7105.584  7105.600  0.500  1.564986  153.203504  32.033474  6.535190
  7105.884  7105.900  0.500  1.565283  153.190220  32.021191  6.519793
  7106.186  7106.200  0.500  1.565449  153.164025  32.010373  6.502399
  7106.490  7106.500  0.500  1.565629  153.161116  32.004002  6.484074
  7106.794  7106.800  0.500  1.565833  153.121061  31.989116  6.463190
  7107.094  7107.100  0.500  1.566492  153.129881  31.969887  6.438575
  7107.385  7107.400  0.500  1.566903  153.137591  31.958344  6.413374
  7107.685  7107.700  0.500  1.567182  153.114840  31.944702  6.383477
  7107.989  7108.000  0.500  1.567604  153.110016  31.930219  6.348810
  7108.289  7108.300  0.500  1.567707  153.088548  31.922435  6.310269
  7108.586  7108.600  0.500  1.567972  153.110496  31.918580  6.267128
  7108.886  7108.900  0.500  1.568669  153.095470  31.893182  6.211700
  7109.188  7109.200  0.500  1.569399  153.075093  31.865688  6.143067
  7109.493  7109.500  0.500  1.570108  153.061910  31.840366  6.057614
  7109.797  7109.800  0.500  1.571051  153.048510  31.807567  5.941857
  7110.093  7110.100  0.500  1.572355  153.026182  31.761469  5.790145
  7110.395  7110.400  0.500  1.574169  153.021214  31.702878  5.568628
  7110.695  7110.700  0.500  1.576760  153.005582  31.617622  5.265545
  7110.993  7111.000  0.500  1.580460  152.975219  31.494589  4.872279
  7111.299  7111.300  0.500  1.585127  152.935205  31.339746  4.395183
  7111.593  7111.600  0.500  1.589862  152.918321  31.188276  3.912763
  7111.889  7111.900  0.500  1.593709  152.877309  31.060182  3.486743
  7112.194  7112.200  0.500  1.596935  152.853196  30.955275  3.140143
  7112.490  7112.500  0.500  1.599199  152.823454  30.879257  2.887583
  7112.798  7112.800  0.500  1.600943  152.793807  30.819458  2.694018
  7113.094  7113.100  0.500  1.602718  152.773534  30.760734  2.541405
  7113.397  7113.400  0.500  1.604304  152.747839  30.706800  2.407904
  7113.695  7113.700  0.500  1.605652  152.734815  30.662824  2.288027
  7114.000  7114.000  0.500  1.606929  152.721043  30.620930  2.178124
  7114.302  7114.300  0.500  1.608076  152.705944  30.582800  2.082906
  7114.598  7114.600  0.500  1.609239  152.703774  30.546817  2.004830
  7114.899  7114.900  0.500  1.610817  152.691170  30.496148  1.942753
  7115.201  7115.200  0.500  1.612538  152.697250  30.444926  1.896262
  7115.500  7115.500  0.500  1.614998  152.667429  30.364187  1.861176
  7115.802  7115.800  0.500  1.618249  152.648154  30.261800  1.832376
  7116.094  7116.100  0.500  1.622770  152.657717  30.127200  1.806907
  7116.393  7116.400  0.500  1.628654  152.657755  29.950465  1.779407
  7116.693  7116.700  0.500  1.636325  152.619414  29.714111  1.741107
  7116.998  7117.000  0.500  1.645936  152.614061  29.428860  1.687767
  7117.299  7117.300  0.500  1.658588  152.603528  29.056888  1.615261
  7117.595  7117.600  0.500  1.674564  152.588827  28.593599  1.523307
  7117.898  7117.900  0.500  1.694696  152.567949  28.019873  1.411406
  7118.201  7118.200  0.500  1.720197  152.542766  27.309852  1.287244
  7118.504  7118.500  0.500  1.750963  152.540214  26.481989  1.158190
  7118.805  7118.800  0.500  1.787216  152.517234  25.535295  1.033094
  7119.104  7119.100  0.500  1.827467  152.509339  24.526607  0.918438
  7119.402  7119.400  0.500  1.872085  152.496454  23.454364  0.812615
  7119.699  7119.700  0.500  1.919933  152.456392  22.352656  0.715800
  7120.000  7120.000  0.500  1.969549  152.457730  21.270877  0.625915
  7120.301  7120.300  0.500  2.017356  152.440040  20.275552  0.546447
  7120.595  7120.600  0.500  2.060067  152.432430  19.426816  0.478859
  7120.896  7120.900  0.500  2.096782  152.418580  18.724793  0.422747
  7121.197  7121.200  0.500  2.129805  152.395628  18.113822  0.376331
  7121.502  7121.500  0.500  2.160560  152.384031  17.563870  0.337864
  7121.803  7121.800  0.500  2.190777  152.367284  17.039205  0.306074
  7122.105  7122.100  0.500  2.222005  152.349335  16.513384  0.278385
  7122.401  7122.400  0.500  2.255274  152.332762  15.971299  0.254138
  7122.700  7122.700  0.500  2.291815  152.309479  15.395880  0.231864
  7123.004  7123.000  0.500  2.331748  152.287074  14.791004  0.212269
  7123.305  7123.300  0.500  2.375342  152.268964  14.158372  0.194055
  7123.602  7123.600  0.500  2.417351  152.261206  13.575224  0.178483
  7123.897  7123.900  0.500  2.457869  152.231461  13.033627  0.164918
  7124.202  7124.200  0.500  2.496159  152.234610  12.544265  0.153180
  7124.499  7124.500  0.500  2.529569  152.190716  12.128594  0.143087
  7124.803  7124.800  0.500  2.557641  152.692715  11.831744  0.134712
  7125.095  7125.100  0.500  2.577394  152.662981  11.598074  0.128050
  7125.397  7125.400  0.500  2.590318  152.633562  11.446935  0.122341
  7125.700  7125.700  0.500  2.597651  152.536296  11.356065  0.117777
  7126.002  7126.000  0.500  2.601801  152.560178  11.310805  0.113756
  7126.303  7126.300  0.500  2.604003  152.522970  11.283175  0.110165
  7126.605  7126.600  0.500  2.605299  152.508853  11.267512  0.106301
  7126.904  7126.900  0.500  2.607566  152.477758  11.239712  0.102452
  7127.203  7127.200  0.500  2.611232  152.456549  11.197021  0.098163
  7127.507  7127.500  0.500  2.616871  152.434095  11.132422  0.093842
  7127.804  7127.800  0.500  2.624293  152.428199  11.049675  0.089179
  7128.099  7128.100  0.500  2.632924  152.393163  10.952191  0.084631
  7128.395  7128.400  0.500  2.643441  152.364497  10.835576  0.079963
  7128.703  7128.700  0.500  2.655265  152.289673  10.702953  0.075049
  7128.998  7129.000  0.500  2.667902  152.350496  10.572767  0.070481
  7129.302  7129.300  0.500  2.680813  152.294245  10.433287  0.066066
  7129.597  7129.600  0.500  2.692679  152.279281  10.309206  0.062060
  7129.903  7129.900  0.500  2.701925  152.235023  10.211352  0.058888
  7130.205  7130.200  0.500  2.707276  152.209473  10.155161  0.056325
  7130.505  7130.500  0.500  2.708139  152.178107  10.144307  0.054713
  7130.804  7130.800  0.500  2.704889  152.135521  10.174482  0.053731
  7131.104  7131.100  0.500  2.697811  152.122233  10.245859  0.053742
  7131.404  7131.400  0.500  2.688175  152.071325  10.341598  0.054470
  7131.704  7131.700  0.500  2.676698  152.056226  10.459934  0.056100
  7132.003  7132.000  0.500  2.665049  152.039175  10.581310  0.058283
  7132.299  7132.300  0.500  2.653196  152.023405  10.706362  0.060918
  7132.594  7132.600  0.500  2.641645  152.014225  10.830095  0.064219
  7132.901  7132.900  0.500  2.629884  152.019435  10.958596  0.067666
  7133.201  7133.200  0.500  2.617877  152.011052  11.090361  0.071423
  7133.501  7133.500  0.500  2.605768  152.000775  11.224708  0.075433
  7133.796  7133.800  0.500  2.594386  151.982457  11.351829  0.079565
  7134.103  7134.100  0.500  2.582929  152.000135  11.483969  0.083844
  7134.407  7134.400  0.500  2.572016  151.998551  11.609864  0.087570
  7134.703  7134.700  0.500  2.561632  152.007299  11.731726  0.091290
  7135.003  7135.000  0.500  2.552288  151.997144  11.841064  0.094555
  7135.301  7135.300  0.500  2.543994  151.985164  11.938744  0.097459
  7135.603  7135.600  0.500  2.536855  151.971302  12.023188  0.100086
  7135.903  7135.900  0.500  2.530684  151.963654  12.096995  0.102105
  7136.201  7136.200  0.500  2.525250  151.946982  12.161573  0.103665
  7136.497  7136.500  0.500  2.520967  151.948054  12.213864  0.104873
  7136.799  7136.800  0.500  2.516134  151.946081  12.272872  0.105836
  7136.996  7137.000  0.500  2.512700  151.956129  12.315907  0.106166
  7137.998  7137.990  0.500  2.497786  151.960738  12.501341  0.105870
  7139.003  7138.990  0.500  2.486605  151.954830  12.641419  0.102527
  7140.021  7140.010  0.500  2.478876  151.938119  12.738101  0.098401
  7141.085  7141.060  0.500  2.474914  151.932592  12.788199  0.095565
  7142.104  7142.120  0.500  2.471908  151.900427  12.823982  0.095058
  7143.184  7143.200  0.500  2.467281  151.881074  12.881811  0.096867
  7144.287  7144.300  0.500  2.459507  151.906906  12.984560  0.099453
  7145.420  7145.420  0.500  2.445969  151.898582  13.160813  0.100211
  7146.554  7146.560  0.500  2.427488  151.885068  13.405105  0.098478
  7147.703  7147.710  0.500  2.406749  151.874458  13.685063  0.094375
  7148.895  7148.890  0.500  2.384888  151.868069  13.986942  0.089950
  7150.080  7150.080  0.500  2.364332  151.854352  14.276147  0.087523
  7151.304  7151.300  0.500  2.348655  151.875114  14.503695  0.086261
  7152.529  7152.530  0.500  2.340111  151.855972  14.626309  0.085270
  7153.786  7153.780  0.500  2.337646  151.840595  14.660913  0.084532
  7155.052  7155.050  0.500  2.337771  151.813885  14.656512  0.085283
  7156.346  7156.340  0.500  2.338754  151.806534  14.641396  0.086733
  7157.652  7157.650  0.500  2.340401  151.797589  14.616438  0.087942
  7158.980  7158.980  0.500  2.343526  151.769455  14.568133  0.088326
  7160.334  7160.330  0.500  2.349808  151.752808  14.475319  0.087820
  7161.701  7161.700  0.500  2.358943  151.707380  14.339400  0.087601
  7163.082  7163.080  0.500  2.370677  151.689107  14.170415  0.088113
  7164.495  7164.490  0.500  2.385547  151.622692  13.955138  0.088525
  7165.911  7165.910  0.500  2.401854  151.562737  13.724000  0.088561
  7167.351  7167.350  0.500  2.419344  151.530142  13.483145  0.088257
  7168.818  7168.810  0.500  2.435493  151.499395  13.264470  0.087767
  7170.294  7170.290  0.500  2.448697  151.483631  13.089106  0.088078
  7171.795  7171.790  0.500  2.459094  151.448329  12.950707  0.089815
  7173.316  7173.310  0.500  2.464711  151.428586  12.876484  0.093045
  7174.849  7174.850  0.500  2.465728  151.388857  12.860025  0.098085
  7176.418  7176.410  0.500  2.463414  151.380479  12.889109  0.104159
  7177.985  7177.980  0.500  2.458492  151.350694  12.950156  0.110247
  7179.587  7179.580  0.500  2.453155  151.339298  13.018475  0.114500
  7181.197  7181.190  0.500  2.447909  151.307137  13.084172  0.116043
  7182.830  7182.830  0.500  2.442280  151.270305  13.154826  0.115668
  7184.490  7184.480  0.500  2.436121  151.243217  13.233717  0.113900
  7186.159  7186.150  0.500  2.429334  151.206025  13.320571  0.110333
  7187.842  7187.840  0.500  2.421788  151.188155  13.419878  0.105615
  7189.552  7189.550  0.500  2.413924  151.150593  13.522467  0.100531
  7191.290  7191.280  0.500  2.406029  149.585927  13.488557  0.094370
  7193.039  7193.030  0.500  2.399964  150.792848  13.680116  0.090705
  7194.796  7194.790  0.500  2.395951  150.954916  13.749884  0.089266
  7196.589  7196.580  0.500  2.393442  150.945165  13.783528  0.091325
  7198.387  7198.380  0.500  2.392028  150.897657  13.798697  0.095916
  7200.219  7200.210  0.500  2.391184  150.861242  13.807013  0.102777
  7202.057  7202.050  0.500  2.390738  150.821879  13.809564  0.110673
  7203.920  7203.910  0.500  2.390598  150.790178  13.808598  0.119896
  7205.799  7205.790  0.500  2.389510  150.711237  13.816388  0.128717
  7207.703  7207.690  0.500  2.387394  150.663173  13.841242  0.133192
  7209.620  7209.610  0.500  2.383238  150.595126  13.892611  0.129697
  7211.560  7211.550  0.500  2.378231  150.587267  13.961620  0.117215
  7213.518  7213.510  0.500  2.373140  150.524336  14.027005  0.099967
  7215.491  7215.480  0.500  2.369297  150.477058  14.076599  0.083746
  7217.494  7217.480  0.500  2.366783  150.445293  14.109046  0.072028
  7219.504  7219.490  0.500  2.364802  150.380614  14.130954  0.065412
  7221.533  7221.520  0.500  2.362717  150.316106  14.154372  0.064510
  7223.595  7223.580  0.500  2.360503  150.244985  14.179028  0.068562
  7225.660  7225.650  0.500  2.358158  150.139065  14.202305  0.077449
  7227.755  7227.740  0.500  2.355527  147.498726  13.989301  0.088038
  7229.862  7229.850  0.500  2.352644  150.298851  14.296034  0.104540
  7231.989  7231.980  0.500  2.349999  150.233754  14.327678  0.120875
  7234.128  7234.120  0.500  2.347832  150.182179  14.353839  0.135889
  7236.299  7236.290  0.500  2.346656  150.131392  14.365867  0.147032
  7238.491  7238.480  0.500  2.346799  150.096602  14.360486  0.151876
  7240.694  7240.680  0.500  2.348257  150.042553  14.334402  0.150640
  7242.910  7242.900  0.500  2.350558  150.018454  14.299150  0.145079
  7245.162  7245.150  0.500  2.353014  147.218805  13.997884  0.134768
  7247.416  7247.410  0.500  2.354912  149.760126  14.212518  0.130962
  7249.701  7249.690  0.500  2.356356  149.776779  14.193580  0.128170
  7252.000  7251.990  0.500  2.357442  149.684125  14.169410  0.129273
  7254.324  7254.310  0.500  2.358326  147.341114  13.935293  0.130814
  7256.662  7256.650  0.500  2.358116  149.767254  14.167727  0.135746
  7259.008  7259.000  0.500  2.355908  149.586645  14.181924  0.134873
  7261.394  7261.380  0.500  2.351608  149.167317  14.203106  0.131307
  7263.789  7263.770  0.500  2.347700  138.326875  13.222497  0.118845
  7266.207  7266.190  0.500  2.341109  149.329289  14.368592  0.126367
  7268.639  7268.620  0.500  2.335879  149.962380  14.505168  0.123984
  7271.085  7271.070  0.500  2.330792  149.887509  14.571877  0.118784
  7273.563  7273.550  0.500  2.326332  148.743221  14.525270  0.112149
  7276.053  7276.040  0.500  2.322575  149.914954  14.694788  0.109871
  7278.562  7278.550  0.500  2.319748  149.846340  14.729650  0.108171
  7281.080  7281.070  0.500  2.317650  149.804196  14.756433  0.105254
  7283.633  7283.620  0.500  2.315868  148.751158  14.678834  0.100883
  7286.200  7286.190  0.500  2.314048  149.430288  14.772722  0.097826
  7288.786  7288.770  0.500  2.311881  149.525857  14.814235  0.096785
  7291.398  7291.380  0.500  2.309272  149.488560  14.849235  0.100484
  7294.014  7294.000  0.500  2.306226  149.470416  14.892717  0.109507
  7296.668  7296.650  0.500  2.302547  149.385363  14.939105  0.121421
  7299.318  7299.310  0.500  2.298373  149.249019  14.987901  0.133244
  7302.001  7301.990  0.500  2.294134  147.530197  14.878232  0.142353
  7304.705  7304.690  0.500  2.290676  149.376088  15.116559  0.152797
  7307.426  7307.410  0.500  2.287867  149.302163  15.151591  0.158572
  7310.161  7310.150  0.500  2.285739  149.534765  15.207520  0.161256
  7312.916  7312.900  0.500  2.283959  149.617743  15.243072  0.161505
  7315.696  7315.680  0.500  2.282712  149.554241  15.255614  0.161467
  7318.481  7318.470  0.500  2.281585  149.476857  15.264900  0.162297
  7321.302  7321.290  0.500  2.279702  149.420984  15.287960  0.163390
  7324.141  7324.120  0.500  2.276975  149.376417  15.325144  0.164137
  7326.987  7326.970  0.500  2.273575  149.300057  15.369464  0.164980
  7329.859  7329.850  0.500  2.269625  149.247553  15.424872  0.166410
  7332.755  7332.740  0.500  2.265457  149.175355  15.481808  0.169950
  7335.663  7335.650  0.500  2.262008  149.104643  15.527926  0.174511
  7338.585  7338.570  0.500  2.258746  147.879572  15.450672  0.175826
  7341.532  7341.520  0.500  2.255412  148.870433  15.606134  0.176022
  7344.500  7344.490  0.500  2.253114  148.867166  15.641693  0.170085
  7347.481  7347.470  0.500  2.251041  148.807840  15.667906  0.161284
  7350.496  7350.480  0.500  2.249201  148.740137  15.689619  0.152821
  7353.517  7353.500  0.500  2.247814  148.684529  15.705528  0.145746
  7356.566  7356.550  0.500  2.245870  148.597120  15.726836  0.139924
  7359.621  7359.610  0.500  2.243522  148.524306  15.756087  0.135038
  7362.698  7362.690  0.500  2.240865  148.473473  15.792596  0.131557
  7365.802  7365.790  0.500  2.237876  148.396056  15.831609  0.130545
