# XDI/1.0 BlueSky/1.5.3
# Beamline.name: 6BM
# Beamline.xray_source: NSLS-II three-pole wiggler
# Beamline.collimation: paraboloid mirror, 5 nm Rh on 30 nm Pt
# Beamline.focusing: not in use
# Beamline.harmonic_rejection: flat mirror, Si stripe, pitch = 7.0 mrad relative to beam
# Detector.i0: 10 cm N2
# Detector.i1: 25 cm N2
# Detector.i2: 25 cm N2
# Element.symbol: Fe
# Element.edge: K
# Facility.name: NSLS-II
# Facility.energy: 3.0
# Facility.current: 400.4
# Facility.mode: top-off
# Facility.gup: 301027
# Facility.saf: 304793
# Facility.cycle: 2020-1
# Mono.name: Si(111)
# Mono.d_spacing: 3.1353241
# Mono.encoder_resolution: 0.0000050 deg/ct
# Mono.angle_offset: 16.0581090 deg
# Mono.scan_mode: fixed exit
# Mono.scan_type: step
# Mono.direction: forward in energy
# Sample.name: CaMnSi2O6
# Sample.prep: Powder in polyethylene glycol pellet
# Sample.x_position: -122.297 mm
# Sample.y_position: 119.848 mm
# Scan.experimenters: Bruce Ravel
# Scan.edge_energy: 7112.0
# Scan.start_time: 2020-01-14T21:38:46
# Scan.end_time: 2020-01-15T07:16:50
# Scan.transient_id: 19543
# Scan.uid: 09327789-7958-44d7-90ed-12e4cb02125b
# Scan.plot_hint: ln(I0/It)  --  ln($5/$6)
# Scan.sequence: merge of 4 scans
# Column.1: energy eV
# Column.2: requested_energy eV
# Column.3: measurement_time seconds
# Column.4: mutrans
# Column.5: i0
# Column.6: itrans
# Column.7: irefer
# /////
#  Broken Hill, NSW, Australia
# -----
# energy   requested_energy   measurement_time   mutrans   i0   itrans   irefer
6911.995000 6912.000000 0.500000 2.743674 71.578881 4.605112 1.269977
6922.010000 6922.000000 0.500000 2.731813 71.374944 4.646736 1.289583
6932.014000 6932.000000 0.500000 2.719107 71.236228 4.696998 1.308548
6942.010000 6942.000000 0.500000 2.706590 71.053523 4.743879 1.327622
6952.022000 6952.000000 0.500000 2.694275 70.871212 4.790384 1.345966
6962.019000 6962.000000 0.500000 2.681870 70.732196 4.840635 1.365333
6972.019000 6972.000000 0.500000 2.670007 70.567557 4.886978 1.384427
6982.010000 6982.000000 0.500000 2.657798 70.407218 4.935747 1.403554
6992.014000 6992.000000 0.500000 2.645678 70.248791 4.984718 1.424048
7002.013000 7002.000000 0.500000 2.633548 70.107620 5.035411 1.444194
7012.017000 7012.000000 0.500000 2.621454 69.955162 5.085599 1.463865
7022.013000 7022.000000 0.500000 2.609134 69.789094 5.136410 1.484589
7032.014000 7032.000000 0.500000 2.597184 69.648128 5.187655 1.504515
7042.011000 7042.000000 0.500000 2.585095 69.476526 5.237785 1.524964
7052.012000 7052.000000 0.500000 2.573325 69.306965 5.286862 1.544433
7062.011000 7062.000000 0.500000 2.561802 68.550627 5.289757 1.549202
7072.006000 7072.000000 0.500000 2.549833 69.038852 5.391559 1.583405
7082.014000 7082.000000 0.500000 2.538207 68.853780 5.440036 1.598727
7084.010000 7084.000000 0.500000 2.535689 68.865892 5.454696 1.602530
7086.010000 7086.000000 0.500000 2.533532 68.853141 5.465469 1.605391
7088.003000 7088.000000 0.500000 2.531339 68.834102 5.475949 1.608577
7090.007000 7090.000000 0.500000 2.529067 68.818891 5.487179 1.610072
7092.000000 7092.000000 0.500000 2.526706 68.782924 5.497260 1.612013
7094.002000 7094.000000 0.500000 2.524419 68.757377 5.507801 1.613253
7096.006000 7096.000000 0.500000 2.522164 68.735853 5.518546 1.613648
7098.004000 7098.000000 0.500000 2.520095 68.704511 5.527424 1.612001
7100.001000 7100.000000 0.500000 2.518042 68.660337 5.535212 1.608416
7101.998000 7102.000000 0.500000 2.515989 68.629960 5.544131 1.604075
7102.083000 7102.100000 0.500000 2.515613 68.631836 5.546336 1.603923
7102.182000 7102.200000 0.500000 2.515679 68.635706 5.546341 1.603868
7102.278000 7102.300000 0.500000 2.515493 68.607492 5.545070 1.602320
7102.381000 7102.400000 0.500000 2.515434 68.615503 5.546063 1.602363
7102.479000 7102.500000 0.500000 2.515291 68.606536 5.546110 1.601939
7102.580000 7102.600000 0.500000 2.515268 68.606909 5.546273 1.601003
7102.678000 7102.700000 0.500000 2.515023 68.584296 5.545761 1.600529
7102.783000 7102.800000 0.500000 2.514960 68.586130 5.546314 1.601038
7102.883000 7102.900000 0.500000 2.514815 68.574130 5.546139 1.599956
7102.984000 7103.000000 0.500000 2.514776 68.536300 5.543294 1.598524
7103.084000 7103.100000 0.500000 2.514701 68.553652 5.545116 1.598200
7103.185000 7103.200000 0.500000 2.514657 68.572973 5.546918 1.598329
7103.283000 7103.300000 0.500000 2.514521 68.555515 5.546246 1.596894
7103.388000 7103.400000 0.500000 2.514388 68.566089 5.547861 1.596908
7103.489000 7103.500000 0.500000 2.514225 68.540653 5.546690 1.596018
7103.587000 7103.600000 0.500000 2.514213 68.538910 5.546606 1.595395
7103.685000 7103.700000 0.500000 2.514002 68.534505 5.547427 1.595055
7103.792000 7103.800000 0.500000 2.513992 68.527783 5.546989 1.593790
7103.895000 7103.900000 0.500000 2.513866 68.517027 5.546790 1.592603
7103.993000 7104.000000 0.500000 2.513852 68.515325 5.546737 1.592171
7104.092000 7104.100000 0.500000 2.513689 68.520218 5.548052 1.591896
7104.192000 7104.200000 0.500000 2.513449 68.502188 5.547896 1.590737
7104.297000 7104.300000 0.500000 2.513472 68.506768 5.548147 1.590820
7104.396000 7104.400000 0.500000 2.513371 68.493064 5.547602 1.589682
7104.494000 7104.500000 0.500000 2.513368 68.483529 5.546869 1.588309
7104.597000 7104.600000 0.500000 2.513144 68.500233 5.549438 1.588325
7104.695000 7104.700000 0.500000 2.513019 68.467493 5.547470 1.586027
7104.794000 7104.800000 0.500000 2.513008 68.471551 5.547860 1.586155
7104.896000 7104.900000 0.500000 2.512770 68.477950 5.549692 1.585569
7104.999000 7105.000000 0.500000 2.512816 68.466220 5.548523 1.583797
7105.100000 7105.100000 0.500000 2.512608 68.463951 5.549492 1.583977
7105.198000 7105.200000 0.500000 2.512597 68.428112 5.546641 1.581411
7105.299000 7105.300000 0.500000 2.512417 68.463387 5.550482 1.582251
7105.399000 7105.400000 0.500000 2.512245 68.418938 5.547853 1.580296
7105.496000 7105.500000 0.500000 2.512059 68.430013 5.549740 1.579547
7105.594000 7105.600000 0.500000 2.512074 68.434221 5.550012 1.577935
7105.695000 7105.700000 0.500000 2.511950 68.422867 5.549772 1.576481
7105.797000 7105.800000 0.500000 2.511831 68.421281 5.550325 1.576310
7105.898000 7105.900000 0.500000 2.511788 68.419596 5.550428 1.574443
7105.996000 7106.000000 0.500000 2.511715 68.420362 5.550892 1.573595
7106.097000 7106.100000 0.500000 2.511532 68.421015 5.551947 1.572224
7106.196000 7106.200000 0.500000 2.511601 68.399652 5.549830 1.570773
7106.294000 7106.300000 0.500000 2.511442 68.393878 5.550250 1.569075
7106.392000 7106.400000 0.500000 2.511340 68.397662 5.551097 1.567081
7106.497000 7106.500000 0.500000 2.511311 68.393336 5.550948 1.565849
7106.594000 7106.600000 0.500000 2.511179 68.395506 5.551829 1.565386
7106.694000 7106.700000 0.500000 2.511178 68.353512 5.548455 1.561995
7106.793000 7106.800000 0.500000 2.511048 68.394676 5.552458 1.561661
7106.898000 7106.900000 0.500000 2.510967 68.407471 5.553979 1.559625
7106.996000 7107.000000 0.500000 2.510877 68.470732 5.559601 1.559820
7107.097000 7107.100000 0.500000 2.510769 68.445309 5.558158 1.556985
7107.195000 7107.200000 0.500000 2.510516 68.442685 5.559336 1.555704
7107.296000 7107.300000 0.500000 2.510416 68.443002 5.559919 1.552959
7107.397000 7107.400000 0.500000 2.510342 68.456297 5.561410 1.551338
7107.495000 7107.500000 0.500000 2.510282 68.431050 5.559690 1.548525
7107.600000 7107.600000 0.500000 2.510228 68.421432 5.559221 1.545771
7107.699000 7107.700000 0.500000 2.510185 68.416855 5.559138 1.543257
7107.797000 7107.800000 0.500000 2.509939 68.409316 5.559844 1.541358
7107.900000 7107.900000 0.500000 2.509742 68.422435 5.561988 1.538350
7108.003000 7108.000000 0.500000 2.509676 68.398816 5.560472 1.534516
7108.101000 7108.100000 0.500000 2.509629 68.465541 5.566135 1.533006
7108.198000 7108.200000 0.500000 2.509619 68.462350 5.565939 1.529255
7108.303000 7108.300000 0.500000 2.509527 68.464069 5.566616 1.526042
7108.403000 7108.400000 0.500000 2.509437 68.453826 5.566256 1.521545
7108.500000 7108.500000 0.500000 2.509419 68.532216 5.572747 1.519220
7108.603000 7108.600000 0.500000 2.509297 68.514282 5.571953 1.514587
7108.703000 7108.700000 0.500000 2.509200 68.522672 5.573186 1.509892
7108.802000 7108.800000 0.500000 2.509209 68.554547 5.575743 1.505518
7108.903000 7108.900000 0.500000 2.508977 68.557669 5.577275 1.499767
7109.003000 7109.000000 0.500000 2.508902 68.552495 5.577242 1.493981
7109.102000 7109.100000 0.500000 2.508986 68.577790 5.578865 1.488103
7109.200000 7109.200000 0.500000 2.508773 68.561422 5.578730 1.481001
7109.301000 7109.300000 0.500000 2.508741 68.552203 5.578118 1.472895
7109.402000 7109.400000 0.500000 2.508780 68.537109 5.576724 1.464746
7109.500000 7109.500000 0.500000 2.508565 68.548239 5.578790 1.456393
7109.599000 7109.600000 0.500000 2.508749 68.536744 5.576845 1.445749
7109.704000 7109.700000 0.500000 2.508694 68.522946 5.576072 1.433547
7109.800000 7109.800000 0.500000 2.508494 68.520938 5.576973 1.421593
7109.897000 7109.900000 0.500000 2.508379 68.501467 5.576029 1.407364
7109.995000 7110.000000 0.500000 2.508367 68.504589 5.576303 1.391827
7110.098000 7110.100000 0.500000 2.508332 68.482432 5.574732 1.372625
7110.197000 7110.200000 0.500000 2.508380 68.493708 5.575373 1.352324
7110.293000 7110.300000 0.500000 2.508505 68.489408 5.574357 1.329275
7110.400000 7110.400000 0.500000 2.508464 68.483715 5.574082 1.301135
7110.497000 7110.500000 0.500000 2.508602 68.470571 5.572274 1.272971
7110.593000 7110.600000 0.500000 2.508482 68.452298 5.571436 1.241845
7110.696000 7110.700000 0.500000 2.508656 68.456670 5.570859 1.206434
7110.797000 7110.800000 0.500000 2.508800 68.446534 5.569234 1.169168
7110.891000 7110.900000 0.500000 2.508845 68.430008 5.567602 1.131890
7111.001000 7111.000000 0.500000 2.508747 68.429000 5.568083 1.087604
7111.097000 7111.100000 0.500000 2.508819 68.418587 5.566835 1.050022
7111.198000 7111.200000 0.500000 2.508966 68.413940 5.565668 1.011115
7111.303000 7111.300000 0.500000 2.509092 68.410656 5.564656 0.971250
7111.399000 7111.400000 0.500000 2.508994 68.391377 5.563616 0.936878
7111.502000 7111.500000 0.500000 2.509229 68.391157 5.562329 0.902475
7111.603000 7111.600000 0.500000 2.509247 68.391907 5.562298 0.871108
7111.695000 7111.700000 0.500000 2.509203 68.383561 5.561847 0.843947
7111.800000 7111.800000 0.500000 2.509054 68.347709 5.559733 0.816397
7111.903000 7111.900000 0.500000 2.509030 68.370903 5.561786 0.791958
7111.998000 7112.000000 0.500000 2.508940 68.340836 5.559810 0.771244
7112.105000 7112.100000 0.500000 2.508777 68.332496 5.560044 0.749231
7112.201000 7112.200000 0.500000 2.508861 68.310166 5.557803 0.731744
7112.302000 7112.300000 0.500000 2.508453 68.309488 5.559953 0.715738
7112.405000 7112.400000 0.500000 2.508424 68.299899 5.559404 0.699300
7112.502000 7112.500000 0.500000 2.508289 68.305339 5.560583 0.685917
7112.605000 7112.600000 0.500000 2.508244 68.271987 5.558211 0.671483
7112.699000 7112.700000 0.500000 2.507912 68.272601 5.559981 0.660004
7112.802000 7112.800000 0.500000 2.507784 68.264063 5.559998 0.647775
7112.903000 7112.900000 0.500000 2.507817 68.266722 5.560081 0.635653
7112.999000 7113.000000 0.500000 2.507671 68.243406 5.558960 0.625375
7113.102000 7113.100000 0.500000 2.507645 68.236208 5.558520 0.614167
7113.197000 7113.200000 0.500000 2.507542 68.226207 5.558275 0.604689
7113.295000 7113.300000 0.500000 2.507463 68.224813 5.558605 0.595296
7113.403000 7113.400000 0.500000 2.507477 68.198759 5.556497 0.585027
7113.495000 7113.500000 0.500000 2.507157 68.188431 5.557292 0.576387
7113.600000 7113.600000 0.500000 2.507186 68.189762 5.557290 0.567602
7113.696000 7113.700000 0.500000 2.506934 68.167548 5.556820 0.559461
7113.795000 7113.800000 0.500000 2.506893 68.170301 5.557305 0.552225
7113.900000 7113.900000 0.500000 2.506800 68.176374 5.558352 0.544177
7113.997000 7114.000000 0.500000 2.506578 68.152251 5.557561 0.537304
7114.102000 7114.100000 0.500000 2.506468 68.154676 5.558414 0.530160
7114.201000 7114.200000 0.500000 2.506409 68.153757 5.558675 0.524289
7114.297000 7114.300000 0.500000 2.506383 68.137842 5.557519 0.518173
7114.400000 7114.400000 0.500000 2.506188 68.149508 5.559523 0.512636
7114.497000 7114.500000 0.500000 2.505978 68.130978 5.559172 0.507376
7114.604000 7114.600000 0.500000 2.506077 68.124621 5.558131 0.502295
7114.701000 7114.700000 0.500000 2.506022 68.115395 5.557685 0.498310
7114.802000 7114.800000 0.500000 2.506051 68.102810 5.556549 0.494224
7114.902000 7114.900000 0.500000 2.505905 68.116261 5.558400 0.490863
7115.001000 7115.000000 0.500000 2.506074 68.110708 5.557058 0.487947
7115.106000 7115.100000 0.500000 2.505866 68.135438 5.560141 0.485024
7115.201000 7115.200000 0.500000 2.505988 68.111676 5.557545 0.482696
7115.302000 7115.300000 0.500000 2.506179 68.094354 5.555125 0.480649
7115.403000 7115.400000 0.500000 2.506046 68.135278 5.559130 0.478958
7115.497000 7115.500000 0.500000 2.506122 68.135063 5.558751 0.477140
7115.604000 7115.600000 0.500000 2.506475 68.114069 5.555119 0.475252
7115.699000 7115.700000 0.500000 2.506272 68.124843 5.557044 0.474174
7115.802000 7115.800000 0.500000 2.506613 68.109528 5.553922 0.472307
7115.898000 7115.900000 0.500000 2.506788 68.102878 5.552431 0.470833
7115.993000 7116.000000 0.500000 2.507033 68.111152 5.551780 0.469609
7116.102000 7116.100000 0.500000 2.506989 68.086342 5.549863 0.467293
7116.195000 7116.200000 0.500000 2.507362 68.090171 5.548246 0.465433
7116.296000 7116.300000 0.500000 2.507558 68.083474 5.546604 0.463540
7116.397000 7116.400000 0.500000 2.508109 68.084449 5.543656 0.461030
7116.493000 7116.500000 0.500000 2.508250 68.065769 5.541327 0.458379
7116.601000 7116.600000 0.500000 2.508603 68.056627 5.538623 0.454605
7116.697000 7116.700000 0.500000 2.509008 68.070163 5.537449 0.451227
7116.798000 7116.800000 0.500000 2.509704 68.050589 5.532145 0.446509
7116.899000 7116.900000 0.500000 2.510237 68.043408 5.528510 0.441601
7116.998000 7117.000000 0.500000 2.510896 68.037464 5.524404 0.436134
7117.105000 7117.100000 0.500000 2.511743 68.015361 5.517683 0.429457
7117.200000 7117.200000 0.500000 2.512685 68.028037 5.513691 0.423014
7117.305000 7117.300000 0.500000 2.513396 68.010164 5.508016 0.415736
7117.402000 7117.400000 0.500000 2.514588 68.016092 5.502127 0.408139
7117.503000 7117.500000 0.500000 2.515844 67.990104 5.493191 0.399994
7117.601000 7117.600000 0.500000 2.516972 68.005414 5.488158 0.391345
7117.700000 7117.700000 0.500000 2.518354 67.985742 5.479065 0.383103
7117.805000 7117.800000 0.500000 2.519906 67.978837 5.469638 0.373768
7117.900000 7117.900000 0.500000 2.521519 67.965583 5.460127 0.365390
7118.003000 7118.000000 0.500000 2.523288 67.959493 5.449879 0.356557
7118.100000 7118.100000 0.500000 2.525155 67.962401 5.440264 0.347964
7118.199000 7118.200000 0.500000 2.527161 67.944284 5.427753 0.338861
7118.302000 7118.300000 0.500000 2.529274 67.949290 5.416754 0.329918
7118.398000 7118.400000 0.500000 2.531320 67.945404 5.405516 0.321541
7118.501000 7118.500000 0.500000 2.533657 67.938653 5.392358 0.312347
7118.594000 7118.600000 0.500000 2.536036 67.923235 5.378598 0.304179
7118.697000 7118.700000 0.500000 2.538381 67.894220 5.363760 0.295539
7118.796000 7118.800000 0.500000 2.540694 67.911059 5.352626 0.287394
7118.895000 7118.900000 0.500000 2.543384 67.899173 5.336941 0.279060
7118.998000 7119.000000 0.500000 2.545996 67.892055 5.322636 0.271120
7119.097000 7119.100000 0.500000 2.548984 67.839875 5.303244 0.262962
7119.200000 7119.200000 0.500000 2.551570 67.842447 5.289677 0.254894
7119.296000 7119.300000 0.500000 2.554207 67.841771 5.275981 0.247908
7119.402000 7119.400000 0.500000 2.557237 67.827395 5.258373 0.239446
7119.498000 7119.500000 0.500000 2.559929 67.821065 5.243974 0.232575
7119.602000 7119.600000 0.500000 2.562684 67.798608 5.227379 0.225363
7119.701000 7119.700000 0.500000 2.565384 67.795359 5.212880 0.218432
7119.799000 7119.800000 0.500000 2.568360 67.770904 5.195834 0.211485
7119.905000 7119.900000 0.500000 2.571053 67.830536 5.185776 0.205087
7120.001000 7120.000000 0.500000 2.573940 67.819829 5.170303 0.198984
7120.100000 7120.100000 0.500000 2.576901 67.806725 5.154108 0.192984
7120.203000 7120.200000 0.500000 2.579683 67.792794 5.138529 0.187240
7120.302000 7120.300000 0.500000 2.582410 67.776556 5.123362 0.181515
7120.406000 7120.400000 0.500000 2.585357 67.760588 5.106310 0.175393
7120.498000 7120.500000 0.500000 2.588246 67.727347 5.090055 0.170210
7120.601000 7120.600000 0.500000 2.590968 67.716736 5.075050 0.165570
7120.700000 7120.700000 0.500000 2.593880 67.690149 5.058454 0.160479
7120.799000 7120.800000 0.500000 2.596537 67.687415 5.044891 0.155604
7120.902000 7120.900000 0.500000 2.599219 67.666588 5.029856 0.150834
7120.997000 7121.000000 0.500000 2.601499 67.643171 5.016782 0.146789
7121.098000 7121.100000 0.500000 2.604097 67.694501 5.007636 0.142955
7121.197000 7121.200000 0.500000 2.606428 67.682337 4.994919 0.139446
7121.296000 7121.300000 0.500000 2.608466 67.655264 4.982780 0.135877
7121.399000 7121.400000 0.500000 2.610840 67.625809 4.968752 0.131915
7121.496000 7121.500000 0.500000 2.612687 67.607995 4.958363 0.128671
7121.599000 7121.600000 0.500000 2.614954 67.651826 4.950210 0.125904
7121.698000 7121.700000 0.500000 2.616557 67.637631 4.941374 0.122960
7121.795000 7121.800000 0.500000 2.618342 67.614145 4.931026 0.120205
7121.902000 7121.900000 0.500000 2.620323 67.657992 4.923965 0.117936
7121.995000 7122.000000 0.500000 2.621830 67.644157 4.916020 0.115970
7122.100000 7122.100000 0.500000 2.623798 67.609149 4.903436 0.113496
7122.199000 7122.200000 0.500000 2.625560 67.563852 4.891597 0.111179
7122.298000 7122.300000 0.500000 2.627517 67.540806 4.880624 0.109071
7122.401000 7122.400000 0.500000 2.629450 67.509597 4.868650 0.107126
7122.500000 7122.500000 0.500000 2.631305 67.480914 4.857693 0.105540
7122.597000 7122.600000 0.500000 2.633635 67.458194 4.844965 0.103597
7122.702000 7122.700000 0.500000 2.636049 67.437320 4.831382 0.101448
7122.803000 7122.800000 0.500000 2.638579 67.385704 4.815476 0.099343
7122.898000 7122.900000 0.500000 2.641189 67.345613 4.800518 0.098225
7123.006000 7123.000000 0.500000 2.644146 67.317564 4.783382 0.096275
7123.100000 7123.100000 0.500000 2.647495 67.274542 4.765187 0.094320
7123.199000 7123.200000 0.500000 2.650914 67.247784 4.747192 0.092925
7123.307000 7123.300000 0.500000 2.654497 67.205064 4.725960 0.090940
7123.401000 7123.400000 0.500000 2.658319 67.165294 4.706156 0.089849
7123.503000 7123.500000 0.500000 2.662537 67.125470 4.683357 0.088266
7123.604000 7123.600000 0.500000 2.666784 67.089607 4.660916 0.085877
7123.700000 7123.700000 0.500000 2.671208 67.058515 4.638219 0.085165
7123.799000 7123.800000 0.500000 2.676074 67.013176 4.612975 0.083432
7123.901000 7123.900000 0.500000 2.680818 66.976705 4.587897 0.081884
7124.000000 7124.000000 0.500000 2.685819 66.940356 4.562939 0.080599
7124.099000 7124.100000 0.500000 2.690911 66.917595 4.538624 0.079788
7124.202000 7124.200000 0.500000 2.695979 66.891242 4.512780 0.077994
7124.294000 7124.300000 0.500000 2.700938 66.858561 4.489974 0.077010
7124.396000 7124.400000 0.500000 2.705633 66.796403 4.464118 0.075540
7124.499000 7124.500000 0.500000 2.710589 66.805739 4.442514 0.074438
7124.596000 7124.600000 0.500000 2.715132 66.782392 4.421143 0.073038
7124.697000 7124.700000 0.500000 2.719660 66.760827 4.399545 0.072610
7124.800000 7124.800000 0.500000 2.723835 66.693175 4.376294 0.071160
7124.895000 7124.900000 0.500000 2.727544 66.669729 4.358988 0.070376
7124.996000 7125.000000 0.500000 2.731032 66.645339 4.342411 0.069256
7125.099000 7125.100000 0.500000 2.734336 66.628093 4.326509 0.068339
7125.196000 7125.200000 0.500000 2.737103 66.586000 4.312231 0.067456
7125.297000 7125.300000 0.500000 2.739515 66.564581 4.300361 0.066773
7125.403000 7125.400000 0.500000 2.741540 66.518279 4.288371 0.065941
7125.500000 7125.500000 0.500000 2.743037 66.506695 4.281338 0.065229
7125.599000 7125.600000 0.500000 2.744412 66.475137 4.273448 0.064468
