# XDI/1.0 BlueSky/1.10.0 BMM/2023-1.0-py310-tiled
# Beamline.name: BMM (06BM) -- Beamline for Materials Measurement (NIST)
# Beamline.xray_source: NSLS-II three-pole wiggler
# Beamline.collimation: paraboloid mirror, 5 nm Rh on 30 nm Pt
# Beamline.focusing: not in use
# Beamline.harmonic_rejection: flat mirror, Si stripe, pitch = 7.0 mrad relative to beam
# Beamline.software: Bluesky 1.10.0, Ophyd 1.7.0, DataBroker 2.0.0b13, Python 3.10.8, 2023-1.0-py310-tiled
# Detector.I0: 10 cm N2
# Detector.I1: 25 cm N2
# Detector.I2: 25 cm N2
# Element.symbol: Fe
# Element.edge: K
# Element.reference: Fe
# Element.reference_material: Fe foil
# Facility.name: NSLS-II
# Facility.energy: 3.0
# Facility.current: 399.8
# Facility.mode: top-off
# Facility.GUP: 123456
# Facility.SAF: 301027
# Facility.cycle: 2023-2
# Mono.name: Si(111)
# Mono.d_spacing: 3.1351860
# Mono.encoder_resolution: 0.0000050 deg/ct
# Mono.angle_offset: 16.0754326 deg
# Mono.scan_mode: pseudo channel cut
# Mono.scan_type: step
# Mono.direction: forward in energy
# Sample.name: (Fe,Mg)Al2(OH,PO4)2
# Sample.prep: PEG pellet
# Sample.x: 142.329 mm
# Sample.y: 114.126 mm
# Sample.SDD_position: 205.000 mm
# Scan.experimenters: Bruce Ravel
# Scan.edge_energy: 7112.0
# Scan.start_time: 2023-05-05T21:05:32
# Scan.end_time: 2023-05-05T21:13:43
# Scan.transient_id: 74641
# Scan.uid: e7aacf35-d461-4eba-bad8-bccb82b463f0
# Scan.plot_hint: ln(I0/It)  --  ln($5/$6)
# Column.1: energy eV
# Column.2: requested_energy eV
# Column.3: measurement_time seconds
# Column.4: xmu 
# Column.5: I0 nA
# Column.6: It nA
# Column.7: Ir nA
# ///////////
# courtesy Martin Stennett, University of Sheffield
# -----------
# energy  requested_energy  measurement_time  xmu  I0  It  Ir
  6911.999  6912.000  0.500  1.473500  154.786406  35.465010  6.656562
  6922.009  6922.000  0.500  1.464409  154.649512  35.757234  6.759438
  6932.015  6932.000  0.500  1.455101  154.570880  36.073272  6.866768
  6942.027  6942.000  0.500  1.445989  154.579076  36.405375  6.979397
  6951.997  6952.000  0.500  1.436798  154.550324  36.734700  7.091537
  6962.004  6962.000  0.500  1.427862  154.542183  37.062484  7.203748
  6972.012  6972.000  0.500  1.418793  154.556800  37.403670  7.321239
  6982.019  6982.000  0.500  1.409870  154.508965  37.727234  7.434234
  6992.014  6992.000  0.500  1.401043  154.496019  38.058537  7.551370
  7002.009  7002.000  0.500  1.392307  154.456924  38.382751  7.666047
  7012.008  7012.000  0.500  1.383558  154.402287  38.706336  7.781371
  7022.018  7022.000  0.500  1.375214  154.336209  39.013965  7.896107
  7032.010  7032.000  0.500  1.366200  154.264143  39.348848  8.013938
  7042.008  7042.000  0.500  1.357560  154.195841  39.672721  8.130093
  7052.007  7052.000  0.500  1.348864  154.100238  39.994413  8.245260
  7062.010  7062.000  0.500  1.340609  153.337053  40.126183  8.317467
  7072.013  7072.000  0.500  1.332052  153.856175  40.608061  8.458317
  7081.986  7082.000  0.500  1.323691  153.804039  40.935136  8.556763
  7083.987  7084.000  0.500  1.322071  153.554964  40.935070  8.561532
  7085.985  7086.000  0.500  1.320510  153.701160  41.038067  8.586399
  7087.983  7088.000  0.500  1.318958  153.720669  41.107037  8.600857
  7089.990  7090.000  0.500  1.317427  153.690073  41.161811  8.612714
  7091.997  7092.000  0.500  1.315902  153.654269  41.215024  8.619698
  7093.993  7094.000  0.500  1.314210  153.622312  41.276240  8.627400
  7095.986  7096.000  0.500  1.312522  153.642224  41.351336  8.632753
  7098.262  7098.000  0.500  1.310896  153.607651  41.409308  8.626674
  7100.003  7100.000  0.500  1.309354  154.059427  41.595201  8.644393
  7102.003  7102.000  0.500  1.308192  154.044337  41.639477  8.617677
  7102.290  7102.300  0.500  1.307685  154.039724  41.659345  8.614722
  7102.587  7102.600  0.500  1.307373  154.036587  41.671473  8.609649
  7102.884  7102.900  0.500  1.307072  154.027623  41.681615  8.605964
  7103.197  7103.200  0.500  1.307014  154.017212  41.681195  8.595594
  7103.488  7103.500  0.500  1.306716  153.995501  41.687732  8.588871
  7103.785  7103.800  0.500  1.306363  154.005696  41.705235  8.581941
  7104.082  7104.100  0.500  1.306159  154.010516  41.715062  8.572522
  7104.382  7104.400  0.500  1.305949  154.000766  41.721179  8.563168
  7104.690  7104.700  0.500  1.306057  154.002625  41.717184  8.548828
  7104.987  7105.000  0.500  1.305601  153.990610  41.732944  8.538720
  7105.289  7105.300  0.500  1.305395  153.990122  41.741395  8.526362
  7105.589  7105.600  0.500  1.305258  153.983804  41.745404  8.510447
  7105.884  7105.900  0.500  1.305004  153.972004  41.752807  8.494236
  7106.190  7106.200  0.500  1.304755  153.967701  41.762056  8.476417
  7106.492  7106.500  0.500  1.304701  153.948824  41.759188  8.453178
  7106.790  7106.800  0.500  1.304450  153.942956  41.768077  8.431401
  7107.087  7107.100  0.500  1.304192  153.946528  41.779824  8.406399
  7107.385  7107.400  0.500  1.303964  153.935779  41.786441  8.378893
  7107.689  7107.700  0.500  1.303804  153.925387  41.790285  8.342785
  7107.989  7108.000  0.500  1.303696  153.909176  41.790388  8.302823
  7108.287  7108.300  0.500  1.303336  153.908382  41.805226  8.257277
  7108.584  7108.600  0.500  1.303487  153.886216  41.792912  8.199276
  7108.888  7108.900  0.500  1.303268  153.872331  41.798282  8.133215
  7109.195  7109.200  0.500  1.303155  153.868057  41.801838  8.050148
  7109.491  7109.500  0.500  1.302922  153.855567  41.808196  7.947186
  7109.793  7109.800  0.500  1.303077  153.826326  41.793770  7.803914
  7110.091  7110.100  0.500  1.302804  153.805694  41.799583  7.614934
  7110.395  7110.400  0.500  1.302680  153.794672  41.801749  7.337206
  7110.701  7110.700  0.500  1.302834  153.762153  41.786479  6.949040
  7110.995  7111.000  0.500  1.302866  153.739897  41.779082  6.453647
  7111.293  7111.300  0.500  1.303006  153.705369  41.763882  5.861680
  7111.595  7111.600  0.500  1.303067  153.679330  41.754260  5.233535
  7111.893  7111.900  0.500  1.303079  153.658427  41.748056  4.670217
  7112.196  7112.200  0.500  1.302873  153.625603  41.747729  4.226441
  7112.492  7112.500  0.500  1.302681  153.585933  41.744981  3.896641
  7112.788  7112.800  0.500  1.302602  153.551114  41.738795  3.650153
  7113.092  7113.100  0.500  1.302578  153.529615  41.733969  3.445225
  7113.397  7113.400  0.500  1.302656  153.518032  41.727578  3.268845
  7113.701  7113.700  0.500  1.302604  153.510372  41.727644  3.107798
  7114.000  7114.000  0.500  1.302446  153.507341  41.733429  2.965490
  7114.298  7114.300  0.500  1.302344  153.500283  41.735748  2.841000
  7114.596  7114.600  0.500  1.302034  153.476032  41.742091  2.736322
  7114.901  7114.900  0.500  1.301672  153.467994  41.755053  2.654992
  7115.204  7115.200  0.500  1.301511  153.445876  41.755745  2.595725
  7115.498  7115.500  0.500  1.301421  153.422059  41.753016  2.553794
  7115.798  7115.800  0.500  1.301110  153.429907  41.768145  2.524457
  7116.094  7116.100  0.500  1.301200  153.425661  41.763209  2.500797
  7116.391  7116.400  0.500  1.301318  153.410988  41.754290  2.475722
  7116.696  7116.700  0.500  1.301655  153.403016  41.738083  2.440249
  7116.996  7117.000  0.500  1.302532  153.385163  41.696644  2.386947
  7117.295  7117.300  0.500  1.302986  153.371843  41.674072  2.312641
  7117.600  7117.600  0.500  1.303768  153.354089  41.636673  2.212183
  7117.896  7117.900  0.500  1.304689  153.332831  41.592606  2.088603
  7118.203  7118.200  0.500  1.306128  153.332202  41.532600  1.947588
  7118.502  7118.500  0.500  1.307903  153.310371  41.453031  1.806802
  7118.801  7118.800  0.500  1.310617  153.273254  41.330692  1.667366
  7119.099  7119.100  0.500  1.314247  153.261544  41.177780  1.535734
  7119.402  7119.400  0.500  1.319210  153.259397  40.973337  1.409857
  7119.703  7119.700  0.500  1.326054  153.233804  40.687076  1.292944
  7120.000  7120.000  0.500  1.334647  153.227315  40.337258  1.179922
  7120.294  7120.300  0.500  1.345706  153.223507  39.892645  1.071295
  7120.595  7120.600  0.500  1.359077  153.192667  39.354874  0.965374
  7120.898  7120.900  0.500  1.372869  153.187673  38.814553  0.872670
  7121.201  7121.200  0.500  1.386614  153.178616  38.282397  0.791560
  7121.500  7121.500  0.500  1.398155  153.153126  37.836852  0.725385
  7121.799  7121.800  0.500  1.407802  153.140137  37.470408  0.670531
  7122.102  7122.100  0.500  1.415950  153.133839  37.164799  0.623360
  7122.401  7122.400  0.500  1.422649  153.104032  36.909478  0.584197
  7122.705  7122.700  0.500  1.428267  153.089897  36.699326  0.550107
  7123.006  7123.000  0.500  1.433155  153.078643  36.517688  0.520947
  7123.301  7123.300  0.500  1.438024  153.054470  36.334593  0.495408
  7123.602  7123.600  0.500  1.442959  153.047946  36.154174  0.472368
  7123.905  7123.900  0.500  1.448268  153.036431  35.960011  0.452640
  7124.198  7124.200  0.500  1.452806  153.013086  35.791764  0.434278
  7124.493  7124.500  0.500  1.456161  153.001011  35.669056  0.418466
  7124.796  7124.800  0.500  1.457563  152.999240  35.618671  0.403896
  7125.100  7125.100  0.500  1.457162  152.959941  35.623821  0.390805
  7125.401  7125.400  0.500  1.455963  152.933910  35.660466  0.378911
  7125.698  7125.700  0.500  1.454926  152.892051  35.687716  0.368058
  7125.997  7126.000  0.500  1.454902  152.891354  35.688378  0.356988
  7126.299  7126.300  0.500  1.456379  152.871406  35.631085  0.345626
  7126.607  7126.600  0.500  1.459516  152.829942  35.509853  0.333140
  7126.906  7126.900  0.500  1.464124  152.821142  35.344553  0.320053
  7127.201  7127.200  0.500  1.469127  152.820433  35.167985  0.306748
  7127.503  7127.500  0.500  1.473762  152.803572  35.001516  0.293114
  7127.802  7127.800  0.500  1.476575  152.780488  34.897902  0.280053
  7128.102  7128.100  0.500  1.477531  152.762189  34.860378  0.267450
  7128.405  7128.400  0.500  1.477243  152.735980  34.864460  0.255010
  7128.703  7128.700  0.500  1.476663  152.719426  34.880886  0.243027
  7128.994  7129.000  0.500  1.476545  152.678734  34.875716  0.230657
  7129.293  7129.300  0.500  1.477290  152.665881  34.846807  0.219207
  7129.599  7129.600  0.500  1.478682  152.639419  34.792293  0.208105
  7129.903  7129.900  0.500  1.479887  152.602503  34.741994  0.198735
  7130.201  7130.200  0.500  1.480924  152.568923  34.698367  0.191323
  7130.498  7130.500  0.500  1.480611  152.547857  34.704426  0.185386
  7130.800  7130.800  0.500  1.479330  152.517630  34.742032  0.182136
  7131.104  7131.100  0.500  1.476960  152.482884  34.816544  0.181012
  7131.404  7131.400  0.500  1.474163  152.463132  34.909525  0.182384
  7131.704  7131.700  0.500  1.471256  152.439883  35.005809  0.185806
  7132.001  7132.000  0.500  1.468512  152.422459  35.097981  0.191450
  7132.297  7132.300  0.500  1.466844  152.411109  35.153972  0.198351
  7132.599  7132.600  0.500  1.465640  152.406670  35.195292  0.206217
  7132.899  7132.900  0.500  1.465155  152.392429  35.209073  0.215255
  7133.198  7133.200  0.500  1.465513  152.387313  35.195292  0.224654
  7133.494  7133.500  0.500  1.466258  152.389778  35.169649  0.234462
  7133.798  7133.800  0.500  1.466492  152.371096  35.157098  0.244476
  7134.107  7134.100  0.500  1.466108  152.372905  35.171030  0.254171
  7134.400  7134.400  0.500  1.464552  152.370488  35.225232  0.263771
  7134.701  7134.700  0.500  1.462505  152.385164  35.300827  0.272284
  7135.001  7135.000  0.500  1.460383  152.368411  35.371910  0.280346
  7135.301  7135.300  0.500  1.458826  152.370531  35.427536  0.287173
  7135.605  7135.600  0.500  1.456848  152.378026  35.499422  0.293397
  7135.903  7135.900  0.500  1.455290  152.357231  35.549908  0.298159
  7136.203  7136.200  0.500  1.453816  152.357456  35.602427  0.301777
  7136.499  7136.500  0.500  1.452294  152.351828  35.655330  0.304262
  7136.799  7136.800  0.500  1.450847  152.323396  35.700277  0.305709
  7136.996  7137.000  0.500  1.449690  152.332437  35.743733  0.306355
  7138.000  7137.990  0.500  1.445416  152.325364  35.895169  0.302143
  7139.005  7138.990  0.500  1.440166  152.315389  36.081759  0.290925
  7140.028  7140.010  0.500  1.432649  152.329661  36.357408  0.278707
  7141.083  7141.060  0.500  1.422999  152.324359  36.708693  0.271972
  7142.110  7142.120  0.500  1.414228  152.280596  37.021414  0.272861
  7143.188  7143.200  0.500  1.407254  152.273640  37.278815  0.278673
  7144.292  7144.300  0.500  1.401439  152.285787  37.499214  0.285103
  7145.415  7145.420  0.500  1.395674  152.264549  37.710758  0.285764
  7146.561  7146.560  0.500  1.390575  152.259161  37.902181  0.276757
  7147.711  7147.710  0.500  1.387081  152.274337  38.038643  0.260452
  7148.888  7148.890  0.500  1.384200  152.726548  38.261699  0.244553
  7150.087  7150.080  0.500  1.381588  152.700825  38.355285  0.233541
  7151.297  7151.300  0.500  1.378756  152.697098  38.463136  0.227245
  7152.534  7152.530  0.500  1.376316  152.693557  38.556207  0.223244
  7153.792  7153.780  0.500  1.374465  152.674636  38.622842  0.221264
  7155.043  7155.050  0.500  1.374025  152.670669  38.638847  0.223052
  7156.342  7156.340  0.500  1.374856  152.639390  38.598850  0.227248
  7157.656  7157.650  0.500  1.376729  152.628488  38.523872  0.230138
  7158.975  7158.980  0.500  1.380002  152.601394  38.391166  0.230819
  7160.328  7160.330  0.500  1.384481  152.586359  38.215812  0.230387
  7161.707  7161.700  0.500  1.389044  152.529788  38.027735  0.230793
  7163.080  7163.080  0.500  1.391970  152.478427  37.903849  0.233888
  7164.497  7164.490  0.500  1.392817  152.473349  37.870516  0.238840
  7165.911  7165.910  0.500  1.391997  152.425404  37.889645  0.243085
  7167.353  7167.350  0.500  1.392076  152.391724  37.878288  0.245817
  7168.820  7168.810  0.500  1.393248  152.352914  37.824296  0.248708
  7170.294  7170.290  0.500  1.395000  152.335589  37.753807  0.252455
  7171.797  7171.790  0.500  1.397313  152.296616  37.656921  0.259329
  7173.318  7173.310  0.500  1.398565  152.263817  37.601719  0.270410
  7174.858  7174.850  0.500  1.398634  152.221601  37.588682  0.284962
  7176.418  7176.410  0.500  1.397792  152.205285  37.616322  0.301758
  7177.985  7177.980  0.500  1.396007  152.166011  37.673801  0.318290
  7179.592  7179.580  0.500  1.393579  152.145194  37.760214  0.329956
  7181.197  7181.190  0.500  1.391269  152.104511  37.837418  0.333686
  7182.839  7182.830  0.500  1.389050  152.089846  37.917835  0.331658
  7184.494  7184.480  0.500  1.386543  152.053142  38.003838  0.325678
  7186.157  7186.150  0.500  1.383601  152.007621  38.104413  0.313897
  7187.849  7187.840  0.500  1.380157  151.976840  38.228098  0.299007
  7189.552  7189.550  0.500  1.377060  151.948142  38.339450  0.283743
  7191.288  7191.280  0.500  1.374470  150.415633  38.051188  0.265027
  7193.037  7193.030  0.500  1.372131  151.573100  38.433803  0.253202
  7194.803  7194.790  0.500  1.369663  151.757163  38.575560  0.248955
  7196.596  7196.580  0.500  1.366914  151.741839  38.677826  0.254791
  7198.392  7198.380  0.500  1.364657  151.698647  38.754213  0.268100
  7200.224  7200.210  0.500  1.362438  151.655244  38.829162  0.287133
  7202.061  7202.050  0.500  1.360298  151.611217  38.901068  0.310030
  7203.924  7203.910  0.500  1.358056  151.576657  38.979480  0.336601
  7205.792  7205.790  0.500  1.355902  151.518609  39.048584  0.361817
  7207.703  7207.690  0.500  1.353967  151.437191  39.103186  0.374156
  7209.618  7209.610  0.500  1.352334  151.400589  39.157642  0.363653
  7211.562  7211.550  0.500  1.350839  151.340619  39.200671  0.327643
  7213.518  7213.510  0.500  1.349787  151.307707  39.233412  0.278034
  7215.495  7215.480  0.500  1.349002  151.253432  39.250114  0.232088
  7217.489  7217.480  0.500  1.347546  151.210374  39.296146  0.199285
  7219.506  7219.490  0.500  1.346729  151.139118  39.309714  0.181113
  7221.527  7221.520  0.500  1.345589  151.091024  39.342025  0.177697
  7223.590  7223.580  0.500  1.344013  151.022605  39.386240  0.189270
  7225.662  7225.650  0.500  1.342091  150.879654  39.424648  0.213302
  7227.755  7227.740  0.500  1.340074  148.237472  38.812467  0.242653
  7229.856  7229.850  0.500  1.338069  151.049769  39.628178  0.287774
  7231.995  7231.980  0.500  1.335806  150.993985  39.703284  0.332395
  7234.130  7234.120  0.500  1.333687  150.938055  39.772780  0.374350
  7236.305  7236.290  0.500  1.331716  150.877488  39.835269  0.405294
  7238.494  7238.480  0.500  1.329760  150.836319  39.902364  0.420016
  7240.697  7240.680  0.500  1.328351  150.806405  39.950677  0.417855
  7242.914  7242.900  0.500  1.327593  150.787192  39.975889  0.403878
  7245.160  7245.150  0.500  1.326660  147.949536  39.260214  0.376575
  7247.423  7247.410  0.500  1.325689  150.505031  39.977118  0.366504
  7249.696  7249.690  0.500  1.325025  150.532628  40.011004  0.358721
  7252.003  7251.990  0.500  1.324049  150.427695  40.022188  0.362612
  7254.319  7254.310  0.500  1.323205  148.094967  39.434795  0.368329
  7256.666  7256.650  0.500  1.321613  150.494829  40.137690  0.382867
  7259.008  7259.000  0.500  1.319643  150.346660  40.177232  0.380235
  7261.397  7261.380  0.500  1.317743  149.898383  40.133621  0.369195
  7263.782  7263.770  0.500  1.315527  139.331999  37.387360  0.334229
  7266.198  7266.190  0.500  1.313618  150.028202  40.334404  0.352838
  7268.630  7268.620  0.500  1.311527  150.701060  40.600108  0.345389
  7271.085  7271.070  0.500  1.308992  150.620319  40.681370  0.329993
  7273.563  7273.550  0.500  1.306666  149.467958  40.464132  0.310944
  7276.051  7276.040  0.500  1.303963  150.661839  40.897762  0.304469
  7278.564  7278.550  0.500  1.300925  150.592861  41.003394  0.299305
  7281.089  7281.070  0.500  1.297884  150.542080  41.114413  0.291728
  7283.633  7283.620  0.500  1.295481  149.523635  40.934491  0.279431
  7286.200  7286.190  0.500  1.292956  150.149062  41.209664  0.271464
  7288.786  7288.770  0.500  1.290761  150.250736  41.328177  0.268348
  7291.395  7291.380  0.500  1.288674  150.218378  41.405610  0.278459
  7294.016  7294.000  0.500  1.286487  150.180683  41.485820  0.303286
  7296.666  7296.650  0.500  1.284078  150.107849  41.565724  0.335772
  7299.322  7299.310  0.500  1.281805  150.013431  41.634097  0.368612
  7302.003  7301.990  0.500  1.279510  148.287868  41.249756  0.393480
  7304.705  7304.690  0.500  1.277119  150.141594  41.865387  0.421165
  7307.419  7307.410  0.500  1.274706  150.050839  41.941174  0.436679
  7310.163  7310.150  0.500  1.272255  149.971613  42.021890  0.443696
  7312.916  7312.900  0.500  1.269957  149.896937  42.097613  0.444007
  7315.692  7315.680  0.500  1.267867  149.842017  42.170229  0.444398
  7318.481  7318.470  0.500  1.265894  149.778357  42.235572  0.446949
  7321.304  7321.290  0.500  1.263998  149.719125  42.298976  0.449887
  7324.134  7324.120  0.500  1.262034  149.652758  42.363369  0.452064
  7326.983  7326.970  0.500  1.259979  149.594476  42.433963  0.453447
  7329.861  7329.850  0.500  1.258149  149.523873  42.491631  0.456603
  7332.762  7332.740  0.500  1.256083  149.473430  42.565147  0.465510
  7335.661  7335.650  0.500  1.254421  149.414865  42.619236  0.477238
  7338.582  7338.570  0.500  1.252477  148.189212  42.351891  0.480168
  7341.536  7341.520  0.500  1.250467  149.169701  42.717897  0.479744
  7344.502  7344.490  0.500  1.247944  149.191011  42.831902  0.463717
  7347.486  7347.470  0.500  1.245594  149.103506  42.907502  0.439832
  7350.496  7350.480  0.500  1.242959  149.068810  43.010685  0.417153
  7353.517  7353.500  0.500  1.240363  148.966569  43.092923  0.397950
  7356.564  7356.550  0.500  1.237641  148.900775  43.191308  0.382251
  7359.621  7359.610  0.500  1.234977  148.827312  43.285141  0.369222
  7362.703  7362.690  0.500  1.232547  148.780191  43.376737  0.359908
  7365.797  7365.790  0.500  1.230205  148.692257  43.452755  0.356641
