# XDI/1.0 BlueSky/1.10.0 BMM/2023-1.0-py310-tiled
# Beamline.name: BMM (06BM) -- Beamline for Materials Measurement (NIST)
# Beamline.xray_source: NSLS-II three-pole wiggler
# Beamline.collimation: paraboloid mirror, 5 nm Rh on 30 nm Pt
# Beamline.focusing: not in use
# Beamline.harmonic_rejection: flat mirror, Pt stripe, pitch = 7.0 mrad relative to beam
# Beamline.software: Bluesky 1.10.0, Ophyd 1.7.0, DataBroker 2.0.0b13, Python 3.10.8, 2023-1.0-py310-tiled
# Detector.I0: 10 cm N2
# Detector.I1: 25 cm N2
# Detector.I2: 25 cm N2
# Element.symbol: Bi
# Element.edge: L1
# Element.reference: Bi
# Element.reference_material: BiO2
# Facility.name: NSLS-II
# Facility.energy: 3.0
# Facility.current: 400.0
# Facility.mode: top-off
# Facility.GUP: 301027
# Facility.SAF: 310583
# Facility.cycle: 2023-2
# Mono.name: Si(111)
# Mono.d_spacing: 3.1351860
# Mono.encoder_resolution: 0.0000050 deg/ct
# Mono.angle_offset: 16.0754326 deg
# Mono.scan_mode: pseudo channel cut
# Mono.scan_type: step
# Mono.direction: forward in energy
# Sample.name: BiF3
# Sample.prep: powder on tape
# Sample.x: 143.785 mm
# Sample.y: 114.695 mm
# Sample.SDD_position: 205.000 mm
# Scan.experimenters: Bruce Ravel
# Scan.edge_energy: 16387.5
# Scan.start_time: 2023-06-23T18:58:11
# Scan.end_time: 2023-06-23T19:06:00
# Scan.transient_id: 84953
# Scan.uid: 103accd8-b539-4ba7-ac20-512e32a08f51
# Scan.plot_hint: ln(I0/It)  --  ln($5/$6)
# Column.1: energy eV
# Column.2: requested_energy eV
# Column.3: measurement_time seconds
# Column.4: xmu 
# Column.5: I0 nA
# Column.6: It nA
# Column.7: Ir nA
# ///////////
# BMM standards collection
# -----------
# energy  requested_energy  measurement_time  xmu  I0  It  Ir
  16187.438  16187.500  0.500  1.088096  20.422346  6.879416  2.598060
  16197.591  16197.500  0.500  1.085780  20.405982  6.889844  2.605398
  16207.538  16207.500  0.500  1.083730  20.374941  6.893481  2.610279
  16217.624  16217.500  0.500  1.081570  20.348047  6.899264  2.616345
  16227.642  16227.500  0.500  1.079142  20.314025  6.904473  2.621292
  16237.604  16237.500  0.500  1.077057  20.210780  6.883723  2.617585
  16247.623  16247.500  0.500  1.074852  20.208149  6.898017  2.626436
  16257.598  16257.500  0.500  1.072548  20.156062  6.896104  2.628114
  16267.585  16267.500  0.500  1.070455  20.123215  6.899292  2.632475
  16277.630  16277.500  0.500  1.068522  20.085943  6.899843  2.635309
  16287.526  16287.500  0.500  1.066585  20.050206  6.900919  2.638604
  16297.491  16297.500  0.500  1.064746  19.994783  6.894510  2.638519
  16307.551  16307.500  0.500  1.063374  19.925332  6.879997  2.637171
  16317.576  16317.500  0.500  1.062104  19.912147  6.884179  2.640008
  16327.591  16327.500  0.500  1.061327  19.872607  6.875848  2.638813
  16337.583  16337.500  0.500  1.060922  19.842694  6.868279  2.636344
  16347.552  16347.500  0.500  1.061770  19.797983  6.846993  2.627680
  16357.568  16357.500  0.500  1.065090  19.745037  6.806050  2.608099
  16359.503  16359.500  0.500  1.066216  19.747289  6.799168  2.604877
  16361.508  16361.500  0.500  1.067487  19.726046  6.783228  2.595812
  16363.525  16363.500  0.500  1.069181  19.721054  6.770033  2.588518
  16365.496  16365.500  0.500  1.071156  19.720197  6.756379  2.580322
  16367.527  16367.500  0.500  1.073615  19.711117  6.736685  2.569606
  16369.522  16369.500  0.500  1.076771  19.684027  6.706226  2.554096
  16371.495  16371.500  0.500  1.081035  19.638633  6.662293  2.531754
  16373.479  16373.500  0.500  1.086357  19.607282  6.616351  2.508495
  16375.488  16375.500  0.500  1.093240  19.625809  6.577178  2.485538
  16377.521  16377.500  0.500  1.102250  19.649253  6.525969  2.455552
  16377.744  16377.800  0.500  1.103408  19.648806  6.518269  2.450603
  16378.073  16378.100  0.500  1.105214  19.650284  6.506993  2.444533
  16378.367  16378.400  0.500  1.107090  19.645879  6.493342  2.437360
  16378.684  16378.700  0.500  1.108847  19.651267  6.483722  2.431096
  16378.966  16379.000  0.500  1.110882  19.639234  6.466578  2.422380
  16379.260  16379.300  0.500  1.112925  19.648264  6.456352  2.415908
  16379.577  16379.600  0.500  1.114997  19.666901  6.449097  2.411468
  16379.871  16379.900  0.500  1.117259  19.640952  6.426038  2.399090
  16380.153  16380.200  0.500  1.119365  19.644192  6.413577  2.393399
  16380.471  16380.500  0.500  1.122403  19.653411  6.397121  2.384306
  16380.800  16380.800  0.500  1.125090  19.650065  6.378867  2.372411
  16381.070  16381.100  0.500  1.127913  19.642972  6.358589  2.363034
  16381.364  16381.400  0.500  1.130834  19.638015  6.338444  2.352097
  16381.682  16381.700  0.500  1.133859  19.641404  6.320387  2.342064
  16381.987  16382.000  0.500  1.137606  19.631208  6.293484  2.328706
  16382.270  16382.300  0.500  1.140734  19.628575  6.272983  2.316543
  16382.599  16382.600  0.500  1.144589  19.628022  6.248675  2.302935
  16382.905  16382.900  0.500  1.148728  19.640529  6.226826  2.290848
  16383.163  16383.200  0.500  1.152355  19.620769  6.198042  2.275455
  16383.481  16383.500  0.500  1.157177  19.618548  6.167528  2.260183
  16383.775  16383.800  0.500  1.161995  19.621823  6.138913  2.244027
  16384.057  16384.100  0.500  1.166622  19.624257  6.111332  2.228902
  16384.351  16384.400  0.500  1.171636  19.619547  6.079303  2.211913
  16384.692  16384.700  0.500  1.177782  19.620335  6.042298  2.192187
  16384.963  16385.000  0.500  1.183470  19.616077  6.006723  2.173696
  16385.245  16385.300  0.500  1.189263  19.611450  5.970621  2.153846
  16385.563  16385.600  0.500  1.195783  19.608703  5.930986  2.132973
  16385.821  16385.900  0.500  1.201890  19.609124  5.895004  2.114031
  16386.174  16386.200  0.500  1.209299  19.610516  5.851901  2.089598
  16386.480  16386.500  0.500  1.217136  19.608704  5.805685  2.067012
  16386.751  16386.800  0.500  1.223863  19.613862  5.768275  2.046835
  16387.080  16387.100  0.500  1.232021  19.608418  5.719825  2.021714
  16387.398  16387.400  0.500  1.239892  19.609133  5.675189  1.997180
  16387.668  16387.700  0.500  1.247752  19.607958  5.630417  1.974387
  16388.021  16388.000  0.500  1.257948  19.612428  5.574569  1.946008
  16388.304  16388.300  0.500  1.265891  19.599808  5.526909  1.922282
  16388.586  16388.600  0.500  1.274157  19.611434  5.484665  1.899938
  16388.916  16388.900  0.500  1.283366  19.598454  5.430788  1.873127
  16389.163  16389.200  0.500  1.290971  19.591535  5.387742  1.851305
  16389.516  16389.500  0.500  1.300445  19.594895  5.337858  1.824977
  16389.810  16389.800  0.500  1.308626  19.592169  5.293630  1.803737
  16390.092  16390.100  0.500  1.316469  19.580168  5.249056  1.782084
  16390.398  16390.400  0.500  1.324290  19.586527  5.209857  1.761014
  16390.704  16390.700  0.500  1.331661  19.584453  5.171044  1.743249
  16391.011  16391.000  0.500  1.338208  19.583049  5.136936  1.725595
  16391.328  16391.300  0.500  1.344844  19.579942  5.102147  1.708958
  16391.611  16391.600  0.500  1.349446  19.581350  5.079087  1.696667
  16391.882  16391.900  0.500  1.353464  19.574967  5.057070  1.685743
  16392.188  16392.200  0.500  1.357807  19.574641  5.035074  1.675320
  16392.482  16392.500  0.500  1.360652  19.572227  5.020148  1.668232
  16392.765  16392.800  0.500  1.362629  19.569037  5.009418  1.662208
  16393.106  16393.100  0.500  1.363894  19.654010  5.024808  1.665508
  16393.377  16393.400  0.500  1.364169  19.643986  5.020867  1.663653
  16393.683  16393.700  0.500  1.363931  19.658271  5.025713  1.665169
  16393.977  16394.000  0.500  1.362562  19.656663  5.032185  1.667828
  16394.272  16394.300  0.500  1.360647  19.637010  5.036790  1.669484
  16394.578  16394.600  0.500  1.357912  19.637854  5.050802  1.676164
  16394.872  16394.900  0.500  1.354798  19.634572  5.065709  1.682182
  16395.167  16395.200  0.500  1.350844  19.638244  5.086730  1.691135
  16395.485  16395.500  0.500  1.346371  19.626936  5.106590  1.700710
  16395.791  16395.800  0.500  1.341456  19.627720  5.131956  1.711267
  16396.085  16396.100  0.500  1.336519  19.619268  5.155137  1.722294
  16396.415  16396.400  0.500  1.330706  19.614383  5.183898  1.734354
  16396.710  16396.700  0.500  1.325824  19.624576  5.211975  1.747958
  16396.980  16397.000  0.500  1.319904  19.616392  5.240735  1.760133
  16397.310  16397.300  0.500  1.314088  19.625297  5.273694  1.775376
  16397.617  16397.600  0.500  1.309395  19.628481  5.299362  1.787064
  16397.888  16397.900  0.500  1.303736  19.611144  5.324732  1.799448
  16398.217  16398.200  0.500  1.298375  19.615472  5.354533  1.812671
  16398.512  16398.500  0.500  1.293838  19.610609  5.377551  1.823737
  16398.818  16398.800  0.500  1.288926  19.613902  5.404934  1.835874
  16399.125  16399.100  0.500  1.284296  19.597822  5.425568  1.846148
  16399.396  16399.400  0.500  1.280400  19.601445  5.447756  1.855374
  16399.702  16399.700  0.500  1.276503  19.610298  5.471497  1.866648
  16400.044  16400.000  0.500  1.272197  19.596605  5.491268  1.877048
  16400.315  16400.300  0.500  1.269424  19.608673  5.509905  1.885444
  16400.609  16400.600  0.500  1.266037  19.604743  5.527495  1.893548
  16400.928  16400.900  0.500  1.262737  19.580854  5.539006  1.899126
  16401.199  16401.200  0.500  1.260681  19.601722  5.556322  1.907496
  16401.493  16401.500  0.500  1.258058  19.574871  5.563283  1.912843
  16401.811  16401.800  0.500  1.255533  19.574036  5.577110  1.918372
  16402.118  16402.100  0.500  1.253756  19.568533  5.585458  1.922921
  16402.377  16402.400  0.500  1.251599  19.559177  5.594845  1.927478
  16402.684  16402.700  0.500  1.250071  19.551147  5.601097  1.932229
  16402.978  16403.000  0.500  1.248426  19.555029  5.611433  1.935603
  16403.261  16403.300  0.500  1.246776  19.554666  5.620596  1.940892
  16403.615  16403.600  0.500  1.245495  19.565725  5.630983  1.946395
  16403.898  16403.900  0.500  1.244018  19.562846  5.638477  1.949888
  16404.157  16404.200  0.500  1.243002  19.561968  5.643957  1.952853
  16404.487  16404.500  0.500  1.241535  19.563219  5.652603  1.956917
  16404.759  16404.800  0.500  1.240636  19.570493  5.659791  1.959221
  16405.089  16405.100  0.500  1.239543  19.560907  5.663206  1.962072
  16405.395  16405.400  0.500  1.238576  19.578531  5.673793  1.967053
  16405.678  16405.700  0.500  1.237676  19.568966  5.676127  1.968387
  16405.949  16406.000  0.500  1.237020  19.567772  5.679503  1.970677
  16406.303  16406.300  0.500  1.236012  19.569753  5.685808  1.973692
  16406.563  16406.600  0.500  1.235451  19.567901  5.688461  1.975303
  16406.905  16406.900  0.500  1.234603  19.576539  5.695800  1.978128
  16407.211  16407.200  0.500  1.233836  19.564240  5.696586  1.979093
  16407.494  16407.500  0.500  1.232929  19.562341  5.701203  1.980626
  16407.813  16407.800  0.500  1.233073  19.578673  5.705143  1.984247
  16408.108  16408.100  0.500  1.232133  19.560486  5.705203  1.984982
  16408.367  16408.400  0.500  1.232148  19.564935  5.706414  1.986152
  16408.709  16408.700  0.500  1.231513  19.557810  5.707959  1.986962
  16409.028  16409.000  0.500  1.230989  19.555133  5.710167  1.988327
  16409.299  16409.300  0.500  1.230782  19.554292  5.711105  1.989422
  16409.606  16409.600  0.500  1.230901  19.561693  5.712586  1.990790
  16409.901  16409.900  0.500  1.230239  19.543976  5.711192  1.990593
  16410.208  16410.200  0.500  1.230217  19.548910  5.712761  1.991857
  16410.503  16410.500  0.500  1.229940  19.556842  5.716662  1.993468
  16410.821  16410.800  0.500  1.229819  19.547133  5.714515  1.994237
  16411.104  16411.100  0.500  1.229810  19.557695  5.717655  1.995090
  16411.399  16411.400  0.500  1.229676  19.549033  5.715888  1.995381
  16411.694  16411.700  0.500  1.229768  19.560010  5.718570  1.996438
  16411.989  16412.000  0.500  1.229899  19.545392  5.713547  1.995410
  16412.261  16412.300  0.500  1.229948  19.535868  5.710486  1.994189
  16412.497  16412.500  0.500  1.229802  19.538252  5.712016  1.996218
  16413.476  16413.490  0.500  1.230244  19.533827  5.708202  1.996400
  16414.433  16414.490  0.500  1.230769  19.536345  5.705939  1.995432
  16415.471  16415.510  0.500  1.231467  19.517427  5.696439  1.994136
  16416.534  16416.560  0.500  1.232600  19.511405  5.688231  1.991418
  16417.597  16417.620  0.500  1.233739  19.512361  5.682034  1.988643
  16418.707  16418.700  0.500  1.234618  19.507644  5.675666  1.984827
  16419.805  16419.800  0.500  1.235923  19.489535  5.663005  1.979606
  16420.916  16420.920  0.500  1.237119  19.476591  5.652477  1.974800
  16422.026  16422.060  0.500  1.238089  19.467562  5.644380  1.969886
  16423.161  16423.210  0.500  1.239176  19.493044  5.645627  1.968962
  16424.485  16424.390  0.500  1.240372  19.482912  5.635951  1.963531
  16425.572  16425.580  0.500  1.241666  19.481407  5.628229  1.959722
  16426.742  16426.800  0.500  1.242843  19.478268  5.620699  1.955927
  16428.090  16428.030  0.500  1.244679  19.473775  5.609097  1.950764
  16429.320  16429.280  0.500  1.246330  19.458702  5.595510  1.944962
  16430.585  16430.550  0.500  1.247856  19.448822  5.584142  1.940784
  16431.934  16431.840  0.500  1.248926  19.447468  5.577778  1.937073
  16433.235  16433.150  0.500  1.249914  19.443466  5.571124  1.935185
  16434.537  16434.480  0.500  1.250267  19.424134  5.563621  1.932569
  16435.898  16435.830  0.500  1.250515  19.414617  5.559516  1.931073
  16437.259  16437.200  0.500  1.249938  19.399423  5.558371  1.930260
  16438.621  16438.580  0.500  1.249515  19.399992  5.560888  1.930672
  16440.053  16439.990  0.500  1.248663  19.386825  5.561850  1.932350
  16441.463  16441.410  0.500  1.247196  19.376910  5.567167  1.934737
  16442.884  16442.850  0.500  1.246312  19.361525  5.567664  1.934936
  16444.341  16444.310  0.500  1.245056  19.331675  5.566067  1.934177
  16445.811  16445.790  0.500  1.243800  19.347222  5.577544  1.938622
  16447.280  16447.290  0.500  1.242250  19.359758  5.589819  1.943573
  16448.833  16448.810  0.500  1.241048  19.367988  5.598922  1.946373
  16450.386  16450.350  0.500  1.240017  19.355004  5.600940  1.948250
  16451.951  16451.910  0.500  1.238792  19.351761  5.606863  1.952148
  16453.505  16453.480  0.500  1.237382  19.358849  5.616830  1.956048
  16455.118  16455.080  0.500  1.236349  19.347579  5.619361  1.958059
  16456.732  16456.690  0.500  1.234669  19.310610  5.618056  1.959565
  16458.381  16458.330  0.500  1.233448  19.312784  5.625552  1.963233
  16460.007  16459.980  0.500  1.232535  19.299341  5.626770  1.965460
  16461.693  16461.650  0.500  1.231584  19.297740  5.631658  1.968919
  16463.356  16463.340  0.500  1.230360  19.293054  5.637189  1.971347
  16465.102  16465.050  0.500  1.229810  19.295611  5.641037  1.975242
  16466.800  16466.780  0.500  1.229373  19.287354  5.641087  1.976359
  16468.559  16468.530  0.500  1.228841  19.273382  5.640000  1.975853
  16470.294  16470.290  0.500  1.228325  19.277720  5.644180  1.978631
  16472.065  16472.080  0.500  1.228104  19.261783  5.640764  1.977932
  16473.896  16473.880  0.500  1.228003  19.256243  5.639707  1.978096
  16475.728  16475.710  0.500  1.227878  19.252209  5.639231  1.979244
  16477.595  16477.550  0.500  1.227684  19.237093  5.635896  1.978590
  16479.439  16479.410  0.500  1.227603  19.237059  5.636345  1.978669
  16481.355  16481.290  0.500  1.227615  19.224603  5.632626  1.976938
  16483.212  16483.190  0.500  1.227682  19.217027  5.630032  1.976414
  16485.141  16485.110  0.500  1.227723  19.208239  5.627226  1.975567
  16487.070  16487.050  0.500  1.227367  19.205012  5.628280  1.976355
  16489.012  16489.010  0.500  1.227352  19.191050  5.624273  1.975373
  16490.966  16490.980  0.500  1.227090  19.183571  5.623556  1.976010
  16492.956  16492.980  0.500  1.226731  19.178178  5.623993  1.975463
  16494.970  16494.990  0.500  1.226450  19.176905  5.625199  1.976177
  16497.021  16497.020  0.500  1.226011  19.158990  5.622413  1.975489
  16499.096  16499.080  0.500  1.225820  19.150499  5.620995  1.976104
  16501.184  16501.150  0.500  1.225263  19.137902  5.620429  1.975910
  16503.260  16503.240  0.500  1.224570  19.127652  5.621310  1.976402
  16505.361  16505.350  0.500  1.224047  19.117529  5.621276  1.976870
  16507.509  16507.480  0.500  1.223581  19.112223  5.622335  1.978414
  16509.623  16509.620  0.500  1.222962  19.110131  5.625201  1.979594
  16511.785  16511.790  0.500  1.222222  19.092229  5.624089  1.979728
  16513.948  16513.980  0.500  1.221435  19.092079  5.628476  1.980837
  16516.170  16516.180  0.500  1.220732  19.083740  5.629972  1.982844
  16518.394  16518.400  0.500  1.219760  19.083211  5.635291  1.984756
  16520.654  16520.650  0.500  1.219106  19.055600  5.630818  1.985085
  16522.926  16522.910  0.500  1.218267  19.050142  5.633930  1.987156
  16525.223  16525.190  0.500  1.217677  19.039577  5.634131  1.987739
  16527.521  16527.490  0.500  1.216507  19.046057  5.642646  1.991619
  16529.831  16529.810  0.500  1.215558  19.012047  5.637919  1.990327
  16532.202  16532.150  0.500  1.214893  19.003408  5.639106  1.992822
  16534.514  16534.500  0.500  1.213684  18.980780  5.639204  1.992370
  16536.886  16536.880  0.500  1.213148  18.987620  5.644260  1.995494
  16539.283  16539.270  0.500  1.212227  18.969497  5.644071  1.997376
  16541.693  16541.690  0.500  1.211574  18.965645  5.646610  1.999137
  16544.115  16544.120  0.500  1.210587  18.954067  5.648733  1.999636
  16546.574  16546.570  0.500  1.209967  18.915529  5.640745  1.998831
  16549.082  16549.050  0.500  1.209020  18.914985  5.645930  2.000651
  16551.554  16551.540  0.500  1.208710  18.928679  5.651769  2.004706
  16554.063  16554.050  0.500  1.207759  18.916765  5.653581  2.005136
  16556.597  16556.570  0.500  1.207048  18.914203  5.656839  2.006784
  16559.132  16559.120  0.500  1.206342  18.889602  5.653470  2.007052
  16561.692  16561.690  0.500  1.205804  18.879358  5.653444  2.007839
  16564.276  16564.270  0.500  1.205197  18.868855  5.653730  2.009310
  16566.874  16566.880  0.500  1.204569  18.866646  5.656621  2.011057
  16569.520  16569.500  0.500  1.204172  18.852455  5.654612  2.012204
  16572.155  16572.150  0.500  1.203351  18.841374  5.655931  2.013221
  16574.839  16574.810  0.500  1.202461  18.833752  5.658674  2.013741
  16577.488  16577.490  0.500  1.202043  18.834641  5.661306  2.015986
  16580.162  16580.190  0.500  1.201349  18.815173  5.659383  2.015529
  16582.897  16582.910  0.500  1.200747  18.851649  5.673765  2.022535
  16585.669  16585.650  0.500  1.200375  18.858458  5.677931  2.024346
  16588.417  16588.400  0.500  1.199602  18.840125  5.676794  2.024960
  16591.179  16591.180  0.500  1.198909  18.808889  5.671313  2.023247
  16593.978  16593.970  0.500  1.198289  18.798718  5.671759  2.022620
  16596.802  16596.790  0.500  1.197773  18.806533  5.677050  2.025973
  16599.603  16599.620  0.500  1.196833  18.773718  5.672471  2.024585
  16602.477  16602.470  0.500  1.196281  18.762006  5.672061  2.025223
  16605.364  16605.350  0.500  1.195518  18.748111  5.672187  2.025562
  16608.265  16608.240  0.500  1.194679  18.742729  5.675318  2.028267
  16611.178  16611.150  0.500  1.193931  18.748699  5.681374  2.032397
  16614.081  16614.070  0.500  1.193248  18.717421  5.675773  2.031365
  16617.032  16617.020  0.500  1.192097  18.702959  5.677918  2.032539
  16619.997  16619.990  0.500  1.191456  18.686390  5.676527  2.033005
  16622.976  16622.970  0.500  1.190576  18.683907  5.680771  2.035789
  16626.016  16625.980  0.500  1.189507  18.665809  5.681334  2.036116
  16629.044  16629.000  0.500  1.188894  18.649234  5.679771  2.037317
  16632.062  16632.050  0.500  1.187987  18.649289  5.684942  2.040960
  16635.105  16635.110  0.500  1.187227  18.634422  5.684730  2.041599
  16638.198  16638.190  0.500  1.186500  18.618012  5.683854  2.042328
  16641.317  16641.290  0.500  1.185221  18.600807  5.685869  2.042980
