# XDI/1.0 BlueSky/1.10.0 BMM/2023-1.0-py310-tiled
# Beamline.name: BMM (06BM) -- Beamline for Materials Measurement (NIST)
# Beamline.xray_source: NSLS-II three-pole wiggler
# Beamline.collimation: paraboloid mirror, 5 nm Rh on 30 nm Pt
# Beamline.focusing: not in use
# Beamline.harmonic_rejection: flat mirror, Pt stripe, pitch = 7.0 mrad relative to beam
# Beamline.software: Bluesky 1.10.0, Ophyd 1.7.0, DataBroker 2.0.0b13, Python 3.10.8, 2023-1.0-py310-tiled
# Detector.I0: 10 cm N2
# Detector.I1: 25 cm N2
# Detector.I2: 25 cm N2
# Element.symbol: Bi
# Element.edge: L3
# Element.reference: Bi
# Element.reference_material: BiO2
# Facility.name: NSLS-II
# Facility.energy: 3.0
# Facility.current: 399.2
# Facility.mode: top-off
# Facility.GUP: 301027
# Facility.SAF: 310583
# Facility.cycle: 2023-2
# Mono.name: Si(111)
# Mono.d_spacing: 3.1351860
# Mono.encoder_resolution: 0.0000050 deg/ct
# Mono.angle_offset: 16.0754326 deg
# Mono.scan_mode: pseudo channel cut
# Mono.scan_type: step
# Mono.direction: forward in energy
# Sample.name: BiO2
# Sample.prep: powder on tape
# Sample.x: 109.138 mm
# Sample.y: 153.150 mm
# Sample.SDD_position: 205.000 mm
# Scan.experimenters: Bruce Ravel
# Scan.edge_energy: 13418.6
# Scan.start_time: 2023-05-28T20:33:55
# Scan.end_time: 2023-05-28T20:41:37
# Scan.transient_id: 78994
# Scan.uid: c397426a-9ce3-438d-89a4-edf12d9f0932
# Scan.plot_hint: ln(It/Ir)  --  ln($6/$7)
# Column.1: energy eV
# Column.2: requested_energy eV
# Column.3: measurement_time seconds
# Column.4: xmu 
# Column.5: I0 nA
# Column.6: It nA
# Column.7: Ir nA
# ///////////
# Welcome to BMM
# -----------
# energy  requested_energy  measurement_time  xmu  I0  It  Ir
  13218.613  13218.600  0.500  0.702281  45.217113  79.487226  39.382256
  13228.655  13228.600  0.500  0.700779  45.181749  79.454445  39.425203
  13238.651  13238.600  0.500  0.699282  45.115832  79.351149  39.432921
  13248.671  13248.600  0.500  0.697740  44.992507  79.148030  39.392666
  13258.675  13258.600  0.500  0.696294  44.849536  78.923660  39.337864
  13268.701  13268.600  0.500  0.694912  44.619098  78.532732  39.197142
  13278.621  13278.600  0.500  0.693439  44.065559  77.568761  38.773082
  13288.624  13288.600  0.500  0.692050  43.873536  77.248887  38.666859
  13298.604  13298.600  0.500  0.690701  43.799096  77.138084  38.663485
  13308.630  13308.600  0.500  0.689277  43.690989  76.968524  38.633500
  13318.625  13318.600  0.500  0.688015  43.612694  76.848901  38.622147
  13328.628  13328.600  0.500  0.686785  43.423304  76.531371  38.509900
  13338.638  13338.600  0.500  0.685588  43.388165  76.486706  38.533554
  13348.578  13348.600  0.500  0.684554  43.310437  76.366486  38.512783
  13358.587  13358.600  0.500  0.683755  43.205444  76.198927  38.458980
  13368.595  13368.600  0.500  0.683097  43.093713  76.018622  38.393252
  13378.596  13378.600  0.500  0.682974  42.985754  75.844972  38.310233
  13388.604  13388.600  0.500  0.683629  42.886308  75.691965  38.207940
  13390.529  13390.600  0.500  0.683871  42.861950  75.650284  38.177659
  13392.548  13392.600  0.500  0.684307  42.842951  75.615645  38.143517
  13394.529  13394.600  0.500  0.684703  42.813982  75.563330  38.102055
  13396.519  13396.600  0.500  0.685256  42.792792  75.532697  38.065535
  13398.540  13398.600  0.500  0.686063  42.775837  75.502151  38.019449
  13400.547  13400.600  0.500  0.686965  42.755530  75.474775  37.971415
  13402.538  13402.600  0.500  0.688001  42.735330  75.441221  37.915232
  13404.530  13404.600  0.500  0.689448  42.712423  75.406120  37.842773
  13406.530  13406.600  0.500  0.691124  42.681070  75.352386  37.752511
  13408.539  13408.600  0.500  0.693553  42.680809  75.361273  37.665335
  13408.830  13408.900  0.500  0.693838  42.677900  75.355175  37.651573
  13409.120  13409.200  0.500  0.694247  42.674252  75.354154  37.635660
  13409.426  13409.500  0.500  0.694568  42.670695  75.339255  37.616136
  13409.740  13409.800  0.500  0.695131  42.665579  75.337455  37.594070
  13410.030  13410.100  0.500  0.695622  42.663445  75.333052  37.573440
  13410.337  13410.400  0.500  0.696114  42.658274  75.325452  37.551166
  13410.643  13410.700  0.500  0.696524  42.654109  75.315835  37.530976
  13410.957  13411.000  0.500  0.697107  42.653534  75.306247  37.504327
  13411.263  13411.300  0.500  0.697632  42.650547  75.303914  37.483488
  13411.553  13411.600  0.500  0.698138  42.638643  75.292638  37.458887
  13411.844  13411.900  0.500  0.698716  42.634718  75.277103  37.429523
  13412.150  13412.200  0.500  0.699535  42.633005  75.286025  37.403338
  13412.480  13412.500  0.500  0.700137  42.634447  75.280554  37.378110
  13412.755  13412.800  0.500  0.700839  42.630679  75.276553  37.349864
  13413.053  13413.100  0.500  0.701628  42.630722  75.263638  37.314007
  13413.352  13413.400  0.500  0.702317  42.622911  75.260675  37.286851
  13413.674  13413.700  0.500  0.703219  42.619222  75.252288  37.249064
  13413.964  13414.000  0.500  0.704196  42.612317  75.245766  37.209471
  13414.263  13414.300  0.500  0.705042  42.604476  75.234924  37.172649
  13414.561  13414.600  0.500  0.706062  42.600359  75.223696  37.129236
  13414.876  13414.900  0.500  0.707194  42.601969  75.227367  37.089024
  13415.174  13415.200  0.500  0.708281  42.600327  75.218855  37.044548
  13415.465  13415.500  0.500  0.709509  42.595829  75.219618  36.999465
  13415.763  13415.800  0.500  0.710601  42.587398  75.200356  36.949591
  13416.062  13416.100  0.500  0.712019  42.588794  75.205055  36.899558
  13416.368  13416.400  0.500  0.713450  42.583534  75.199152  36.843887
  13416.683  13416.700  0.500  0.715080  42.574067  75.180646  36.774848
  13416.973  13417.000  0.500  0.716684  42.583115  75.198997  36.724843
  13417.264  13417.300  0.500  0.718349  42.576850  75.182630  36.655794
  13417.563  13417.600  0.500  0.720241  42.570128  75.177251  36.583878
  13417.869  13417.900  0.500  0.722400  42.562569  75.176469  36.504606
  13418.176  13418.200  0.500  0.724638  42.563254  75.170182  36.419947
  13418.467  13418.500  0.500  0.727006  42.557055  75.154054  36.326012
  13418.765  13418.800  0.500  0.729669  42.550541  75.146782  36.225896
  13419.072  13419.100  0.500  0.732575  42.547007  75.142948  36.118944
  13419.386  13419.400  0.500  0.735806  42.538694  75.129188  35.995845
  13419.669  13419.700  0.500  0.739179  42.539015  75.129793  35.874918
  13419.960  13420.000  0.500  0.742773  42.533917  75.119200  35.741160
  13420.275  13420.300  0.500  0.746861  42.534274  75.113102  35.592481
  13420.573  13420.600  0.500  0.751325  42.529408  75.105622  35.430403
  13420.888  13420.900  0.500  0.756132  42.522000  75.103973  35.259723
  13421.179  13421.200  0.500  0.760907  42.519535  75.099127  35.089512
  13421.478  13421.500  0.500  0.765980  42.512214  75.082376  34.904153
  13421.792  13421.800  0.500  0.771350  42.508707  75.077719  34.715062
  13422.099  13422.100  0.500  0.776839  42.503248  75.068381  34.520735
  13422.390  13422.400  0.500  0.782175  42.502781  75.072622  34.338989
  13422.689  13422.700  0.500  0.787538  42.490412  75.051209  34.145548
  13422.987  13423.000  0.500  0.792713  42.491880  75.045206  33.966603
  13423.294  13423.300  0.500  0.798302  42.488192  75.036723  33.773456
  13423.609  13423.600  0.500  0.803737  42.482180  75.026949  33.586038
  13423.892  13423.900  0.500  0.808712  42.480516  75.016929  33.414913
  13424.199  13424.200  0.500  0.813816  42.472396  75.013067  33.243087
  13424.506  13424.500  0.500  0.819120  42.472753  75.009932  33.065818
  13424.820  13424.800  0.500  0.824361  42.463846  75.005237  32.890928
  13425.119  13425.100  0.500  0.829432  42.460197  75.000126  32.722348
  13425.387  13425.400  0.500  0.834419  42.452596  74.991406  32.555762
  13425.694  13425.700  0.500  0.839719  42.449258  74.977998  32.377872
  13425.993  13426.000  0.500  0.845332  42.447385  74.970991  32.193651
  13426.315  13426.300  0.500  0.851762  42.436757  74.962766  31.983799
  13426.599  13426.600  0.500  0.858001  42.431174  74.948006  31.778616
  13426.898  13426.900  0.500  0.864775  42.420973  74.933234  31.557849
  13427.189  13427.200  0.500  0.872085  42.415586  74.926477  31.325171
  13427.511  13427.500  0.500  0.880999  42.402322  74.898805  31.035731
  13427.818  13427.800  0.500  0.889870  42.386449  74.875050  30.751869
  13428.102  13428.100  0.500  0.898698  42.369613  74.838079  30.466519
  13428.401  13428.400  0.500  0.909129  42.359926  74.823032  30.144330
  13428.692  13428.700  0.500  0.919645  42.335728  74.789992  29.815822
  13428.991  13429.000  0.500  0.930898  42.331786  74.781833  29.478959
  13429.298  13429.300  0.500  0.942646  42.330998  74.784462  29.135698
  13429.582  13429.600  0.500  0.954484  42.330083  74.775923  28.789547
  13429.897  13429.900  0.500  0.967108  42.328820  74.775094  28.428072
  13430.196  13430.200  0.500  0.980085  42.338788  74.786950  28.065980
  13430.503  13430.500  0.500  0.992421  42.346904  74.801398  27.727253
  13430.810  13430.800  0.500  1.004271  42.348451  74.807373  27.402798
  13431.078  13431.100  0.500  1.015088  42.351581  74.812907  27.109997
  13431.393  13431.400  0.500  1.026920  42.355175  74.821688  26.794250
  13431.708  13431.700  0.500  1.037829  42.354666  74.822930  26.503989
  13431.991  13432.000  0.500  1.047712  42.346451  74.808996  26.238457
  13432.275  13432.300  0.500  1.057126  42.344644  74.798373  25.988909
  13432.574  13432.600  0.500  1.066363  42.331832  74.789616  25.746937
  13432.897  13432.900  0.500  1.075498  42.333623  74.786207  25.511660
  13433.196  13433.200  0.500  1.083965  42.328190  74.779286  25.294208
  13433.488  13433.500  0.500  1.091507  42.316762  74.763849  25.098987
  13433.779  13433.800  0.500  1.098729  42.320174  74.771019  24.920764
  13434.087  13434.100  0.500  1.106212  42.315128  74.757332  24.730441
  13434.394  13434.400  0.500  1.113282  42.311225  74.753506  24.554974
  13434.678  13434.700  0.500  1.119914  42.309757  74.749573  24.391384
  13434.977  13435.000  0.500  1.126322  42.302260  74.736972  24.231475
  13435.284  13435.300  0.500  1.132614  42.299514  74.732881  24.078173
  13435.599  13435.600  0.500  1.139159  42.292291  74.724684  23.918478
  13435.891  13435.900  0.500  1.144892  42.289030  74.709279  23.776849
  13436.190  13436.200  0.500  1.150786  42.281041  74.702376  23.634941
  13436.490  13436.500  0.500  1.156254  42.275943  74.693425  23.503244
  13436.805  13436.800  0.500  1.161871  42.271521  74.690199  23.370572
  13437.097  13437.100  0.500  1.167600  42.270813  74.687415  23.236213
  13437.388  13437.400  0.500  1.172445  42.270258  74.679091  23.121328
  13437.688  13437.700  0.500  1.177286  42.264809  74.669016  23.006559
  13437.995  13438.000  0.500  1.182444  42.255567  74.658409  22.884943
  13438.311  13438.300  0.500  1.187220  42.255360  74.659995  22.776394
  13438.610  13438.600  0.500  1.191504  42.251133  74.653032  22.676899
  13438.910  13438.900  0.500  1.195574  42.243313  74.645988  22.582674
  13439.202  13439.200  0.500  1.199400  42.237663  74.633603  22.492696
  13439.517  13439.500  0.500  1.203447  42.234559  74.626603  22.399759
  13439.801  13439.800  0.500  1.206679  42.232762  74.622496  22.326257
  13440.093  13440.100  0.500  1.209872  42.231482  74.616015  22.253151
  13440.408  13440.400  0.500  1.213178  42.223535  74.608951  22.177599
  13440.716  13440.700  0.500  1.216105  42.219863  74.603082  22.111040
  13441.007  13441.000  0.500  1.218731  42.213097  74.596435  22.051091
  13441.299  13441.300  0.500  1.221244  42.204956  74.577451  21.990145
  13441.607  13441.600  0.500  1.224009  42.202446  74.578306  21.929664
  13441.914  13441.900  0.500  1.226494  42.202349  74.577068  21.874883
  13442.206  13442.200  0.500  1.228569  42.199785  74.568897  21.827142
  13442.490  13442.500  0.500  1.230761  42.191504  74.560189  21.776822
  13442.806  13442.800  0.500  1.233143  42.196242  74.559932  21.724930
  13443.113  13443.100  0.500  1.235270  42.186295  74.552099  21.676490
  13443.390  13443.400  0.500  1.237092  42.185531  74.546474  21.635393
  13443.595  13443.600  0.500  1.238561  42.180966  74.532164  21.599483
  13444.589  13444.590  0.500  1.244808  42.168949  74.522782  21.462277
  13445.575  13445.590  0.500  1.249487  42.153299  74.502750  21.356351
  13446.609  13446.610  0.500  1.251783  42.145126  74.478314  21.300387
  13447.659  13447.660  0.500  1.251074  42.128135  74.450070  21.307414
  13448.733  13448.720  0.500  1.247459  42.183060  74.547310  21.412500
  13449.815  13449.800  0.500  1.241439  42.226631  74.624637  21.564145
  13450.920  13450.900  0.500  1.234225  42.213451  74.608497  21.715575
  13452.034  13452.020  0.500  1.226133  42.223236  74.627176  21.897481
  13453.164  13453.160  0.500  1.218278  42.217454  74.614612  22.066445
  13454.317  13454.310  0.500  1.210830  42.208252  74.597204  22.226217
  13455.487  13455.490  0.500  1.204341  42.202911  74.593867  22.369914
  13456.689  13456.680  0.500  1.199537  42.188610  74.570363  22.470571
  13457.898  13457.900  0.500  1.196001  42.170582  74.548709  22.543603
  13459.140  13459.130  0.500  1.193975  42.161661  74.531666  22.584164
  13460.381  13460.380  0.500  1.192864  42.146277  74.495002  22.598141
  13461.663  13461.650  0.500  1.192839  42.134023  74.487942  22.596569
  13462.952  13462.940  0.500  1.192790  42.118216  74.457755  22.588518
  13464.290  13464.250  0.500  1.193011  42.104223  74.431891  22.575682
  13465.619  13465.580  0.500  1.193138  42.090366  74.409425  22.565997
  13466.949  13466.930  0.500  1.193218  42.067942  74.369050  22.551961
  13468.303  13468.300  0.500  1.193431  42.056752  74.358627  22.543991
  13469.674  13469.680  0.500  1.193355  42.030029  74.311676  22.531465
  13471.092  13471.090  0.500  1.193233  41.978025  74.225093  22.507969
  13472.534  13472.510  0.500  1.192968  41.997660  74.270293  22.527636
  13473.960  13473.950  0.500  1.192610  41.994120  74.255378  22.531187
  13475.419  13475.410  0.500  1.192226  41.984232  74.236761  22.534188
  13476.933  13476.890  0.500  1.191962  41.944765  74.168049  22.519278
  13478.400  13478.390  0.500  1.192070  41.899690  74.092901  22.494027
  13479.907  13479.910  0.500  1.192256  41.898516  74.091864  22.489523
  13481.462  13481.450  0.500  1.193182  41.646992  73.651120  22.335065
  13483.009  13483.010  0.500  1.194836  41.712853  73.772838  22.335002
  13484.597  13484.580  0.500  1.197124  41.858150  74.025620  22.360309
  13486.193  13486.180  0.500  1.200270  41.870889  74.057554  22.299693
  13487.821  13487.790  0.500  1.203490  41.879364  74.065571  22.230395
  13489.457  13489.430  0.500  1.206823  41.855421  74.037092  22.147903
  13491.102  13491.080  0.500  1.209878  41.830546  73.987013  22.065422
  13492.762  13492.750  0.500  1.212142  41.761658  73.878461  21.983217
  13494.448  13494.440  0.500  1.213647  41.789224  73.928284  21.964961
  13496.157  13496.150  0.500  1.214526  41.781724  73.915649  21.941902
  13497.891  13497.880  0.500  1.214719  41.757734  73.876950  21.926188
  13499.649  13499.630  0.500  1.214545  41.715256  73.803626  21.908233
  13501.432  13501.390  0.500  1.213815  41.719278  73.815823  21.927854
  13503.191  13503.180  0.500  1.212468  41.703908  73.783926  21.947923
  13504.998  13504.980  0.500  1.210861  41.678065  73.745327  21.971727
  13506.806  13506.810  0.500  1.209185  41.663813  73.720051  22.001033
  13508.662  13508.650  0.500  1.207444  41.633305  73.671042  22.024717
  13510.534  13510.510  0.500  1.205773  41.607779  73.631668  22.049762
  13512.399  13512.390  0.500  1.204318  41.592546  73.603820  22.073515
  13514.305  13514.290  0.500  1.203143  41.566784  73.566573  22.088286
  13516.235  13516.210  0.500  1.201647  41.537964  73.517025  22.106468
  13518.149  13518.150  0.500  1.200201  41.520463  73.487142  22.129452
  13520.096  13520.110  0.500  1.199010  41.497640  73.446459  22.143565
  13522.092  13522.080  0.500  1.197653  41.468492  73.406530  22.161576
  13524.112  13524.080  0.500  1.196242  41.437716  73.353071  22.176703
  13526.116  13526.090  0.500  1.195210  41.414262  73.312694  22.187375
  13528.145  13528.120  0.500  1.194033  41.375459  73.248258  22.193985
  13530.183  13530.180  0.500  1.192912  41.360337  73.226851  22.212381
  13532.246  13532.250  0.500  1.191960  41.346799  73.205437  22.227053
  13534.357  13534.340  0.500  1.190882  41.296357  73.123937  22.226242
  13536.493  13536.450  0.500  1.190215  41.199629  72.959335  22.191014
  13538.605  13538.580  0.500  1.189600  40.451262  71.630164  21.800139
  13540.750  13540.720  0.500  1.189105  40.988114  72.579003  22.099847
  13542.904  13542.890  0.500  1.188912  41.276369  73.091143  22.260091
  13545.082  13545.080  0.500  1.188876  41.258461  73.064584  22.252801
  13547.278  13547.280  0.500  1.189006  41.229728  73.023575  22.237412
  13549.530  13549.500  0.500  1.189306  41.199994  72.966073  22.213242
  13551.774  13551.750  0.500  1.189699  41.161059  72.901600  22.184892
  13554.020  13554.010  0.500  1.189961  41.112379  72.819886  22.154225
  13556.298  13556.290  0.500  1.190273  40.848119  72.359600  22.007327
  13558.610  13558.590  0.500  1.190872  40.657188  72.027122  21.893088
  13560.938  13560.910  0.500  1.190971  41.087308  72.777382  22.118939
  13563.283  13563.250  0.500  1.191335  41.062694  72.746661  22.101560
  13565.621  13565.600  0.500  1.191259  40.928581  72.513132  22.032280
  13567.991  13567.980  0.500  1.191185  40.898061  72.461092  22.018098
  13570.379  13570.370  0.500  1.190882  40.976517  72.601452  22.067432
  13572.800  13572.790  0.500  1.190537  40.902893  72.482984  22.039028
  13575.229  13575.220  0.500  1.189983  40.297614  71.416650  21.726825
  13577.692  13577.670  0.500  1.189486  40.835493  72.370981  22.028109
  13580.180  13580.150  0.500  1.189291  40.898602  72.487082  22.067757
  13582.652  13582.640  0.500  1.188778  40.869459  72.433968  22.062907
  13585.174  13585.150  0.500  1.188440  40.831114  72.369527  22.050723
  13587.697  13587.670  0.500  1.188040  40.798267  72.315351  22.043027
  13590.253  13590.220  0.500  1.187663  40.740031  72.226555  22.024258
  13592.802  13592.790  0.500  1.187212  40.435644  71.688443  21.870046
  13595.368  13595.370  0.500  1.186704  40.002885  70.914295  21.644867
  13598.024  13597.980  0.500  1.186072  40.684474  72.127724  22.029140
  13600.624  13600.600  0.500  1.185192  40.691650  72.150267  22.055440
  13603.258  13603.250  0.500  1.184190  40.652136  72.079803  22.055981
  13605.917  13605.910  0.500  1.183122  40.607883  72.015701  22.059906
  13608.585  13608.590  0.500  1.181768  40.590578  71.981259  22.079246
  13611.335  13611.290  0.500  1.180458  40.562993  71.937582  22.094778
  13614.021  13614.010  0.500  1.179395  40.515781  71.851730  22.091871
  13616.765  13616.750  0.500  1.178174  40.507556  71.850971  22.118638
  13619.502  13619.500  0.500  1.177100  40.479992  71.798639  22.126263
  13622.322  13622.280  0.500  1.176213  40.434025  71.723053  22.122588
  13625.094  13625.070  0.500  1.175325  40.427904  71.708645  22.137796
  13627.899  13627.890  0.500  1.174824  40.397362  71.669064  22.136656
  13630.722  13630.720  0.500  1.174481  40.336511  71.569698  22.113561
  13633.594  13633.570  0.500  1.174406  40.338117  71.571041  22.115627
  13636.485  13636.450  0.500  1.174484  40.304657  71.513592  22.096159
  13639.376  13639.340  0.500  1.174742  40.272630  71.464114  22.075180
  13642.252  13642.250  0.500  1.175046  40.248130  71.418743  22.054439
  13645.195  13645.170  0.500  1.175339  40.206249  71.351097  22.027101
  13648.147  13648.120  0.500  1.175277  40.171657  71.297614  22.011965
  13651.109  13651.090  0.500  1.175326  40.090269  71.152284  21.966003
