# XDI/1.0 BlueSky/1.10.0 BMM/2023-1.0-py310-tiled
# Beamline.name: BMM (06BM) -- Beamline for Materials Measurement (NIST)
# Beamline.xray_source: NSLS-II three-pole wiggler
# Beamline.collimation: paraboloid mirror, 5 nm Rh on 30 nm Pt
# Beamline.focusing: not in use
# Beamline.harmonic_rejection: flat mirror, Pt stripe, pitch = 7.0 mrad relative to beam
# Beamline.software: Bluesky 1.10.0, Ophyd 1.7.0, DataBroker 2.0.0b13, Python 3.10.8, 2023-1.0-py310-tiled
# Detector.I0: 10 cm N2
# Detector.I1: 25 cm N2
# Detector.I2: 25 cm N2
# Element.symbol: Bi
# Element.edge: L3
# Element.reference: Bi
# Element.reference_material: BiO2
# Facility.name: NSLS-II
# Facility.energy: 3.0
# Facility.current: 400.8
# Facility.mode: top-off
# Facility.GUP: 301027
# Facility.SAF: 310583
# Facility.cycle: 2023-2
# Mono.name: Si(111)
# Mono.d_spacing: 3.1351860
# Mono.encoder_resolution: 0.0000050 deg/ct
# Mono.angle_offset: 16.0754326 deg
# Mono.scan_mode: pseudo channel cut
# Mono.scan_type: step
# Mono.direction: forward in energy
# Sample.name: BiF3
# Sample.prep: powder on tape
# Sample.x: 143.785 mm
# Sample.y: 114.695 mm
# Sample.SDD_position: 205.000 mm
# Scan.experimenters: Bruce Ravel
# Scan.edge_energy: 13418.6
# Scan.start_time: 2023-06-23T17:43:27
# Scan.end_time: 2023-06-23T17:51:35
# Scan.transient_id: 84909
# Scan.uid: 38751a03-b4de-44f2-bad1-bf2b981ad846
# Scan.plot_hint: ln(I0/It)  --  ln($5/$6)
# Column.1: energy eV
# Column.2: requested_energy eV
# Column.3: measurement_time seconds
# Column.4: xmu 
# Column.5: I0 nA
# Column.6: It nA
# Column.7: Ir nA
# ///////////
# BMM standards collection
# -----------
# energy  requested_energy  measurement_time  xmu  I0  It  Ir
  13218.621  13218.600  0.500  0.467458  45.205873  28.325674  14.397263
  13228.670  13228.600  0.500  0.465079  45.111667  28.333980  14.423894
  13238.667  13238.600  0.500  0.462668  45.007562  28.336826  14.447384
  13248.678  13248.600  0.500  0.460504  44.890078  28.324088  14.462724
  13258.690  13258.600  0.500  0.458122  44.742296  28.298181  14.469500
  13268.663  13268.600  0.500  0.455686  44.527074  28.230737  14.452507
  13278.697  13278.600  0.500  0.453474  43.991330  27.952846  14.329486
  13288.624  13288.600  0.500  0.451234  43.792825  27.889108  14.316752
  13298.643  13298.600  0.500  0.449099  43.724060  27.904823  14.345335
  13308.630  13308.600  0.500  0.446876  43.628536  27.905825  14.362510
  13318.625  13318.600  0.500  0.444901  43.557216  27.915279  14.388137
  13328.636  13328.600  0.500  0.442958  43.386350  27.859846  14.376992
  13338.630  13338.600  0.500  0.441050  43.355122  27.892979  14.407159
  13348.648  13348.600  0.500  0.439541  43.293275  27.895248  14.424390
  13358.641  13358.600  0.500  0.438121  43.197791  27.873281  14.425153
  13368.642  13368.600  0.500  0.437442  43.096131  27.826569  14.408638
  13378.666  13378.600  0.500  0.437311  42.998522  27.767180  14.376854
  13388.651  13388.600  0.500  0.438989  42.914739  27.666600  14.315045
  13390.591  13390.600  0.500  0.439546  42.889614  27.635019  14.296476
  13392.580  13392.600  0.500  0.440233  42.873661  27.605771  14.276292
  13394.569  13394.600  0.500  0.440994  42.861044  27.576642  14.251768
  13396.589  13396.600  0.500  0.442070  42.831905  27.528262  14.217731
  13398.595  13398.600  0.500  0.443482  42.822113  27.483138  14.184031
  13400.594  13400.600  0.500  0.445016  42.801209  27.427604  14.141962
  13402.585  13402.600  0.500  0.446932  42.780510  27.361869  14.092190
  13404.593  13404.600  0.500  0.449485  42.762980  27.280931  14.034139
  13406.593  13406.600  0.500  0.452352  42.727382  27.180165  13.955081
  13408.586  13408.600  0.500  0.456030  42.732917  27.083914  13.876672
  13408.861  13408.900  0.500  0.456513  42.726325  27.066650  13.859120
  13409.175  13409.200  0.500  0.457337  42.733315  27.048767  13.846859
  13409.465  13409.500  0.500  0.457984  42.723884  27.025318  13.828322
  13409.764  13409.800  0.500  0.458706  42.719353  27.002942  13.811735
  13410.070  13410.100  0.500  0.459363  42.716872  26.983641  13.793595
  13410.360  13410.400  0.500  0.460085  42.717321  26.964442  13.777859
  13410.666  13410.700  0.500  0.460930  42.704479  26.933590  13.755070
  13410.965  13411.000  0.500  0.461778  42.707718  26.912781  13.736548
  13411.263  13411.300  0.500  0.462482  42.704343  26.891713  13.716591
  13411.569  13411.600  0.500  0.463451  42.700897  26.863509  13.695647
  13411.868  13411.900  0.500  0.464337  42.690186  26.832992  13.671910
  13412.150  13412.200  0.500  0.465412  42.696343  26.808028  13.650921
  13412.480  13412.500  0.500  0.466542  42.685840  26.771172  13.623839
  13412.763  13412.800  0.500  0.467481  42.681424  26.743262  13.596854
  13413.053  13413.100  0.500  0.468523  42.688505  26.719842  13.573903
  13413.375  13413.400  0.500  0.469861  42.671451  26.673462  13.542781
  13413.666  13413.700  0.500  0.471048  42.681587  26.648152  13.519565
  13413.964  13414.000  0.500  0.472480  42.676146  26.606635  13.485349
  13414.294  13414.300  0.500  0.473779  42.670221  26.568380  13.449630
  13414.585  13414.600  0.500  0.475191  42.665606  26.528023  13.416919
  13414.883  13414.900  0.500  0.476759  42.662708  26.484673  13.379551
  13415.198  13415.200  0.500  0.478466  42.661746  26.438904  13.343319
  13415.473  13415.500  0.500  0.479958  42.651462  26.393112  13.302840
  13415.787  13415.800  0.500  0.481620  42.649688  26.348206  13.260434
  13416.093  13416.100  0.500  0.483672  42.642782  26.289936  13.215992
  13416.392  13416.400  0.500  0.485353  42.648933  26.249573  13.176434
  13416.698  13416.700  0.500  0.487590  42.640378  26.185651  13.122449
  13416.997  13417.000  0.500  0.489685  42.639286  26.130183  13.075533
  13417.296  13417.300  0.500  0.491859  42.631942  26.068937  13.016451
  13417.618  13417.600  0.500  0.494592  42.626352  25.994376  12.956750
  13417.893  13417.900  0.500  0.496958  42.620868  25.929633  12.899176
  13418.207  13418.200  0.500  0.499837  42.630533  25.860929  12.834797
  13418.490  13418.500  0.500  0.503062  42.612428  25.766736  12.754646
  13418.781  13418.800  0.500  0.506106  42.615291  25.690147  12.682840
  13419.111  13419.100  0.500  0.509635  42.612551  25.597995  12.599637
  13419.394  13419.400  0.500  0.513258  42.611411  25.504732  12.514853
  13419.693  13419.700  0.500  0.517354  42.607362  25.398059  12.418536
  13419.992  13420.000  0.500  0.521666  42.600248  25.284560  12.316908
  13420.251  13420.300  0.500  0.526197  42.607759  25.174709  12.217391
  13420.597  13420.600  0.500  0.531529  42.596686  25.034308  12.090102
  13420.872  13420.900  0.500  0.536797  42.589380  24.898507  11.972115
  13421.187  13421.200  0.500  0.542538  42.587790  24.755060  11.846472
  13421.470  13421.500  0.500  0.548500  42.581875  24.604485  11.718515
  13421.792  13421.800  0.500  0.555344  42.575439  24.432978  11.567331
  13422.083  13422.100  0.500  0.561903  42.576468  24.273818  11.434036
  13422.382  13422.400  0.500  0.568808  42.573189  24.104942  11.290998
  13422.696  13422.700  0.500  0.576319  42.566487  23.920806  11.142295
  13422.980  13423.000  0.500  0.583377  42.568241  23.753536  11.008145
  13423.310  13423.300  0.500  0.591707  42.567111  23.555860  10.853996
  13423.593  13423.600  0.500  0.599275  42.563708  23.376402  10.717162
  13423.908  13423.900  0.500  0.607895  42.555293  23.171173  10.566696
  13424.199  13424.200  0.500  0.615591  42.555541  22.993667  10.433995
  13424.521  13424.500  0.500  0.624562  42.556394  22.788783  10.287259
  13424.797  13424.800  0.500  0.632504  42.545938  22.602938  10.154133
  13425.119  13425.100  0.500  0.641797  42.537786  22.389591  10.004059
  13425.403  13425.400  0.500  0.650641  42.532339  22.189595  9.864480
  13425.709  13425.700  0.500  0.659951  42.530039  21.982787  9.717260
  13426.001  13426.000  0.500  0.669545  42.523666  21.769634  9.568789
  13426.292  13426.300  0.500  0.679533  42.518819  21.550817  9.414750
  13426.591  13426.600  0.500  0.690030  42.516964  21.324861  9.258866
  13426.890  13426.900  0.500  0.700956  42.506489  21.087928  9.092477
  13427.197  13427.200  0.500  0.713338  42.497673  20.824112  8.911450
  13427.480  13427.500  0.500  0.725765  42.488482  20.562470  8.732210
  13427.795  13427.800  0.500  0.740416  42.475993  20.257455  8.524852
  13428.078  13428.100  0.500  0.755080  42.462021  19.955996  8.325143
  13428.401  13428.400  0.500  0.773076  42.442881  19.591245  8.084228
  13428.684  13428.700  0.500  0.790305  42.444459  19.257320  7.868761
  13428.999  13429.000  0.500  0.811753  42.425774  18.840389  7.608293
  13429.283  13429.300  0.500  0.832132  42.434236  18.464012  7.375289
  13429.613  13429.600  0.500  0.858594  42.432878  17.981249  7.085895
  13429.881  13429.900  0.500  0.881856  42.426288  17.565074  6.847406
  13430.204  13430.200  0.500  0.911102  42.433537  17.061706  6.562262
  13430.495  13430.500  0.500  0.938810  42.446618  16.600578  6.310489
  13430.834  13430.800  0.500  0.970993  42.452114  16.076904  6.032490
  13431.101  13431.100  0.500  1.000514  42.446230  15.607073  5.790989
  13431.409  13431.400  0.500  1.033244  42.448192  15.105224  5.541408
  13431.692  13431.700  0.500  1.063543  42.446547  14.653846  5.319469
  13432.023  13432.000  0.500  1.096023  42.446689  14.185583  5.096219
  13432.314  13432.300  0.500  1.128077  42.443532  13.737064  4.885416
  13432.606  13432.600  0.500  1.158973  42.443218  13.319032  4.693345
  13432.905  13432.900  0.500  1.188251  42.439726  12.933669  4.518484
  13433.189  13433.200  0.500  1.215959  42.435825  12.579067  4.358770
  13433.512  13433.500  0.500  1.244921  42.421323  12.215794  4.197552
  13433.795  13433.800  0.500  1.268628  42.425413  11.930758  4.070227
  13434.095  13434.100  0.500  1.293184  42.417422  11.639154  3.939851
  13434.378  13434.400  0.500  1.314257  42.421335  11.397499  3.832643
  13434.701  13434.700  0.500  1.335123  42.412037  11.159706  3.726513
  13434.985  13435.000  0.500  1.352319  42.408430  10.968505  3.638912
  13435.268  13435.300  0.500  1.367595  42.410275  10.802695  3.562014
  13435.576  13435.600  0.500  1.381146  42.407469  10.656587  3.491037
  13435.899  13435.900  0.500  1.393683  42.393944  10.520464  3.424771
  13436.198  13436.200  0.500  1.403695  42.394219  10.415732  3.370550
  13436.498  13436.500  0.500  1.412405  42.391305  10.324696  3.322045
  13436.805  13436.800  0.500  1.419983  42.385206  10.245274  3.278198
  13437.081  13437.100  0.500  1.426397  42.387147  10.180238  3.240264
  13437.420  13437.400  0.500  1.432780  42.381721  10.114168  3.201307
  13437.704  13437.700  0.500  1.438178  42.379481  10.059182  3.168460
  13438.019  13438.000  0.500  1.443389  42.366850  10.003927  3.135177
  13438.303  13438.300  0.500  1.448476  42.375664  9.955229  3.107388
  13438.626  13438.600  0.500  1.454054  42.362318  9.896740  3.073902
  13438.902  13438.900  0.500  1.458941  42.374387  9.851298  3.048254
  13439.210  13439.200  0.500  1.464742  42.354187  9.789645  3.016894
  13439.493  13439.500  0.500  1.470398  42.350558  9.733597  2.988402
  13439.817  13439.800  0.500  1.476636  42.359268  9.675063  2.960137
  13440.116  13440.100  0.500  1.482775  42.345388  9.612693  2.931923
  13440.400  13440.400  0.500  1.488742  42.345556  9.555542  2.905201
  13440.708  13440.700  0.500  1.495177  42.344078  9.493915  2.877770
  13440.992  13441.000  0.500  1.500747  42.336467  9.439488  2.854214
  13441.307  13441.300  0.500  1.507140  42.334956  9.379003  2.828862
  13441.599  13441.600  0.500  1.512171  42.338672  9.332751  2.807992
  13441.883  13441.900  0.500  1.517299  42.331290  9.283393  2.785798
  13442.183  13442.200  0.500  1.521837  42.326829  9.240391  2.767253
  13442.474  13442.500  0.500  1.525763  42.321146  9.202944  2.749528
  13442.790  13442.800  0.500  1.529258  42.315269  9.169571  2.734023
  13443.090  13443.100  0.500  1.531620  42.309324  9.146644  2.720496
  13443.405  13443.400  0.500  1.533586  42.307462  9.128279  2.709100
  13443.579  13443.600  0.500  1.534164  42.299721  9.121339  2.703462
  13444.613  13444.590  0.500  1.532965  42.299176  9.132163  2.689354
  13445.615  13445.590  0.500  1.523629  42.291394  9.216128  2.702022
  13446.649  13446.610  0.500  1.508380  42.278787  9.354951  2.737998
  13447.683  13447.660  0.500  1.490461  42.260666  9.520012  2.788121
  13448.709  13448.720  0.500  1.473715  42.248420  9.677971  2.845086
  13449.783  13449.800  0.500  1.458833  42.230075  9.818807  2.904175
  13450.912  13450.900  0.500  1.446804  42.209827  9.932869  2.959657
  13452.042  13452.020  0.500  1.438382  42.211228  10.017209  3.009373
  13453.172  13453.160  0.500  1.431291  42.214324  10.089231  3.053847
  13454.317  13454.310  0.500  1.424133  42.202449  10.158847  3.098739
  13455.503  13455.490  0.500  1.415941  42.182338  10.237535  3.143025
  13456.696  13456.680  0.500  1.406690  42.349128  10.373536  3.199771
  13457.898  13457.900  0.500  1.396678  42.327422  10.472547  3.240104
  13459.148  13459.130  0.500  1.387973  42.321589  10.562654  3.276090
  13460.389  13460.380  0.500  1.381117  42.309118  10.632181  3.300579
  13461.679  13461.650  0.500  1.377005  42.291870  10.671644  3.313459
  13462.952  13462.940  0.500  1.375064  42.277886  10.688845  3.318650
  13464.266  13464.250  0.500  1.374478  42.270474  10.693229  3.319257
  13465.572  13465.580  0.500  1.374608  42.254864  10.687893  3.316054
  13466.942  13466.930  0.500  1.375710  42.239699  10.672286  3.310074
  13468.311  13468.300  0.500  1.377724  42.233415  10.649232  3.304422
  13469.705  13469.680  0.500  1.380965  42.201066  10.606646  3.290510
  13471.084  13471.090  0.500  1.384879  42.150718  10.552602  3.273943
  13472.502  13472.510  0.500  1.389953  42.171831  10.504451  3.261004
  13473.936  13473.950  0.500  1.395397  42.172506  10.447590  3.244747
  13475.426  13475.410  0.500  1.400708  42.154298  10.387760  3.227341
  13476.885  13476.890  0.500  1.406084  42.125785  10.325085  3.207803
  13478.384  13478.390  0.500  1.411218  42.075647  10.259981  3.187573
  13479.867  13479.910  0.500  1.416062  42.074833  10.210205  3.171052
  13481.462  13481.450  0.500  1.421155  41.823717  10.097710  3.132781
  13482.994  13483.010  0.500  1.425814  41.920503  10.074035  3.120688
  13484.581  13484.580  0.500  1.430636  42.037562  10.053571  3.108012
  13486.185  13486.180  0.500  1.435129  42.051959  10.011925  3.084483
  13487.789  13487.790  0.500  1.439041  42.063323  9.975526  3.062087
  13489.425  13489.430  0.500  1.442009  42.041816  9.940885  3.042609
  13491.062  13491.080  0.500  1.443457  42.013756  9.919870  3.026166
  13492.739  13492.750  0.500  1.443904  41.957984  9.902274  3.013762
  13494.392  13494.440  0.500  1.442810  41.970469  9.916070  3.013227
  13496.117  13496.150  0.500  1.440665  41.956011  9.933936  3.017009
  13497.867  13497.880  0.500  1.437526  41.941192  9.961651  3.024073
  13499.625  13499.630  0.500  1.434099  41.907782  9.987878  3.033317
  13501.861  13501.390  0.500  1.429804  41.903693  10.029896  3.048317
  13503.103  13503.180  0.500  1.427130  41.874023  10.049627  3.057253
  13505.093  13504.980  0.500  1.423440  41.857706  10.082854  3.072009
  13506.949  13506.810  0.500  1.420473  41.830964  10.106348  3.085429
  13508.701  13508.650  0.500  1.417491  41.810894  10.131670  3.099341
  13510.494  13510.510  0.500  1.414914  41.793011  10.153466  3.109781
  13512.375  13512.390  0.500  1.412403  41.769278  10.173217  3.121053
  13514.265  13514.290  0.500  1.409825  41.758423  10.196828  3.132789
  13516.171  13516.210  0.500  1.407193  41.730073  10.216755  3.142678
  13518.117  13518.150  0.500  1.404911  41.711741  10.235597  3.152825
  13520.080  13520.110  0.500  1.402616  41.682299  10.251876  3.162207
  13522.084  13522.080  0.500  1.400703  41.665902  10.267468  3.171174
  13524.064  13524.080  0.500  1.399117  41.639913  10.277350  3.178138
  13526.084  13526.090  0.500  1.397755  41.612554  10.284593  3.184390
  13528.114  13528.120  0.500  1.396489  41.578630  10.289226  3.189412
  13530.143  13530.180  0.500  1.395592  41.574793  10.297509  3.195445
  13532.238  13532.250  0.500  1.395131  41.543994  10.294627  3.196889
  13534.333  13534.340  0.500  1.394820  41.512351  10.289981  3.197743
  13536.461  13536.450  0.500  1.395348  41.423859  10.262630  3.192849
  13538.581  13538.580  0.500  1.395914  40.666834  10.069378  3.135595
  13540.718  13540.720  0.500  1.396262  41.158365  10.187541  3.173282
  13542.888  13542.890  0.500  1.397299  41.487472  10.258356  3.195962
  13545.066  13545.080  0.500  1.397979  41.466652  10.246241  3.191958
  13547.261  13547.280  0.500  1.398769  41.438141  10.231103  3.186836
  13549.473  13549.500  0.500  1.399360  41.415009  10.219350  3.182494
  13551.758  13551.750  0.500  1.399763  41.369365  10.203975  3.176042
  13554.012  13554.010  0.500  1.400395  41.328876  10.187546  3.170067
  13556.282  13556.290  0.500  1.400937  41.070424  10.118357  3.147864
  13558.602  13558.590  0.500  1.400706  40.845062  10.065155  3.129162
  13560.890  13560.910  0.500  1.401137  41.309162  10.175140  3.163050
  13563.243  13563.250  0.500  1.401094  41.285483  10.169744  3.160535
  13565.588  13565.600  0.500  1.400767  41.165521  10.143506  3.152261
  13567.983  13567.980  0.500  1.400123  41.107693  10.135788  3.149578
  13570.379  13570.370  0.500  1.399535  41.191959  10.162538  3.158983
  13572.808  13572.790  0.500  1.398472  41.116034  10.154598  3.157345
  13575.221  13575.220  0.500  1.397539  40.495314  10.010623  3.113152
  13577.644  13577.670  0.500  1.396057  41.051713  10.163226  3.162744
  13580.140  13580.150  0.500  1.394981  41.130320  10.193644  3.174057
  13582.644  13582.640  0.500  1.393360  41.095036  10.201424  3.178030
  13585.158  13585.150  0.500  1.391729  41.058284  10.208942  3.180862
  13587.673  13587.670  0.500  1.390251  41.021801  10.214955  3.185037
  13590.245  13590.220  0.500  1.388352  40.967913  10.220931  3.186757
  13592.794  13592.790  0.500  1.386868  40.668546  10.161303  3.170483
  13595.360  13595.370  0.500  1.385229  40.286398  10.082337  3.145791
  13597.992  13597.980  0.500  1.383622  40.891377  10.250195  3.201879
  13600.616  13600.600  0.500  1.382283  40.923201  10.271923  3.210377
  13603.258  13603.250  0.500  1.380869  40.879312  10.275423  3.215668
  13605.909  13605.910  0.500  1.379727  40.842537  10.277908  3.219960
  13608.569  13608.590  0.500  1.378710  40.829461  10.285073  3.225643
  13611.286  13611.290  0.500  1.377804  40.804767  10.288176  3.231233
  13614.013  13614.010  0.500  1.376840  40.757108  10.286065  3.234280
  13616.765  13616.750  0.500  1.375807  40.757859  10.296886  3.240451
  13619.486  13619.500  0.500  1.375162  40.726410  10.295584  3.244208
  13622.273  13622.280  0.500  1.374374  40.676760  10.291131  3.245712
  13625.085  13625.070  0.500  1.373633  40.673581  10.297963  3.249756
  13627.899  13627.890  0.500  1.373285  40.645280  10.294373  3.251672
  13630.714  13630.720  0.500  1.372534  40.589022  10.287856  3.249849
  13633.578  13633.570  0.500  1.372331  40.585848  10.289133  3.251142
  13636.436  13636.450  0.500  1.371907  40.560564  10.287082  3.249731
  13639.352  13639.340  0.500  1.371645  40.535081  10.283313  3.247991
  13642.261  13642.250  0.500  1.371355  40.506610  10.279069  3.245052
  13645.163  13645.170  0.500  1.371075  40.469448  10.272523  3.242941
  13648.131  13648.120  0.500  1.370782  40.437138  10.267323  3.240851
  13651.109  13651.090  0.500  1.370557  40.379988  10.255121  3.236839
  13654.088  13654.070  0.500  1.370222  40.179158  10.207540  3.223396
  13657.084  13657.080  0.500  1.369778  40.369851  10.260533  3.240043
  13660.099  13660.100  0.500  1.369268  40.337639  10.257583  3.241368
