# XDI/1.0 BlueSky/1.10.0 BMM/2023-1.0-py310-tiled
# Beamline.name: BMM (06BM) -- Beamline for Materials Measurement (NIST)
# Beamline.xray_source: NSLS-II three-pole wiggler
# Beamline.collimation: paraboloid mirror, 5 nm Rh on 30 nm Pt
# Beamline.focusing: not in use
# Beamline.harmonic_rejection: flat mirror, Pt stripe, pitch = 7.0 mrad relative to beam
# Beamline.software: Bluesky 1.10.0, Ophyd 1.7.0, DataBroker 2.0.0b13, Python 3.10.8, 2023-1.0-py310-tiled
# Detector.I0: 10 cm N2
# Detector.I1: 25 cm N2
# Detector.I2: 25 cm N2
# Element.symbol: Yb
# Element.edge: L1
# Element.reference: Yb
# Element.reference_material: Yb2O3
# Facility.name: NSLS-II
# Facility.energy: 3.0
# Facility.current: 400.4
# Facility.mode: top-off
# Facility.GUP: 301027
# Facility.SAF: 310583
# Facility.cycle: 2023-2
# Mono.name: Si(111)
# Mono.d_spacing: 3.1351860
# Mono.encoder_resolution: 0.0000050 deg/ct
# Mono.angle_offset: 16.0754326 deg
# Mono.scan_mode: pseudo channel cut
# Mono.scan_type: step
# Mono.direction: forward in energy
# Sample.name: Yb2O3
# Sample.prep: PEG pellet
# Sample.x: 109.138 mm
# Sample.y: 153.150 mm
# Sample.SDD_position: 205.000 mm
# Scan.experimenters: Bruce Ravel
# Scan.edge_energy: 10486.4
# Scan.start_time: 2023-05-28T18:03:52
# Scan.end_time: 2023-05-28T18:12:03
# Scan.transient_id: 78896
# Scan.uid: 62291971-9033-411c-9faa-ce55508e6a2a
# Scan.plot_hint: ln(It/Ir)  --  ln($6/$7)
# Column.1: energy eV
# Column.2: requested_energy eV
# Column.3: measurement_time seconds
# Column.4: xmu 
# Column.5: I0 nA
# Column.6: It nA
# Column.7: Ir nA
# ///////////
# sample courtesy Martin Stennett, University of Sheffield
# -----------
# energy  requested_energy  measurement_time  xmu  I0  It  Ir
  10286.342  10286.400  0.500  1.454984  90.395509  141.324798  32.985783
  10296.425  10296.400  0.500  1.452081  90.260071  141.206298  33.053931
  10306.426  10306.400  0.500  1.449528  90.084293  141.018239  33.094317
  10316.476  10316.400  0.500  1.445825  89.912052  140.827706  33.172190
  10326.466  10326.400  0.500  1.441941  89.738575  140.659182  33.261445
  10336.440  10336.400  0.500  1.438666  89.551627  140.450860  33.321128
  10346.470  10346.400  0.500  1.435560  89.407868  140.322925  33.394352
  10356.394  10356.400  0.500  1.431994  89.215664  140.118750  33.464864
  10366.417  10366.400  0.500  1.428783  89.010083  139.886644  33.516872
  10376.428  10376.400  0.500  1.426034  88.800912  139.642041  33.550385
  10386.425  10386.400  0.500  1.422933  88.617281  139.441763  33.606319
  10396.428  10396.400  0.500  1.419525  88.523037  139.371677  33.704098
  10406.432  10406.400  0.500  1.415858  88.288381  139.093771  33.760464
  10416.436  10416.400  0.500  1.412464  88.110576  138.898409  33.827646
  10426.427  10426.400  0.500  1.408798  87.958937  138.730810  33.910937
  10436.438  10436.400  0.500  1.405404  87.780743  138.542430  33.980010
  10446.440  10446.400  0.500  1.402856  87.635683  138.396549  34.030844
  10456.433  10456.400  0.500  1.400952  87.508033  138.297450  34.071278
  10458.381  10458.400  0.500  1.400651  87.451102  138.222697  34.063132
  10460.377  10460.400  0.500  1.400314  87.399707  138.157033  34.058425
  10462.374  10462.400  0.500  1.399970  87.363446  138.116813  34.060212
  10464.367  10464.400  0.500  1.399471  87.320418  138.067343  34.064998
  10466.370  10466.400  0.500  1.399129  87.297007  138.039857  34.069880
  10468.369  10468.400  0.500  1.398606  87.254721  137.986759  34.074585
  10470.378  10470.400  0.500  1.398199  87.225850  137.963922  34.082809
  10472.379  10472.400  0.500  1.397930  87.186722  137.922468  34.081743
  10474.371  10474.400  0.500  1.397567  87.157126  137.891353  34.086413
  10476.387  10476.400  0.500  1.397315  87.106717  137.824571  34.078504
  10476.659  10476.700  0.500  1.397313  87.146364  137.881679  34.092690
  10476.968  10477.000  0.500  1.397206  87.101442  137.821828  34.081537
  10477.263  10477.300  0.500  1.397238  87.104664  137.816602  34.079143
  10477.558  10477.600  0.500  1.397241  87.096759  137.822999  34.080626
  10477.858  10477.900  0.500  1.397215  87.152776  137.905209  34.101838
  10478.162  10478.200  0.500  1.397157  87.133884  137.878044  34.097100
  10478.471  10478.500  0.500  1.397210  87.082412  137.789284  34.073360
  10478.766  10478.800  0.500  1.397186  87.078754  137.786320  34.073436
  10479.066  10479.100  0.500  1.397193  87.094177  137.810749  34.079230
  10479.366  10479.400  0.500  1.397165  87.054726  137.762740  34.068319
  10479.666  10479.700  0.500  1.397224  87.025770  137.729163  34.058006
  10479.975  10480.000  0.500  1.397256  87.028069  137.735882  34.058595
  10480.280  10480.300  0.500  1.397245  87.039616  137.744011  34.060973
  10480.566  10480.600  0.500  1.397319  87.006480  137.688160  34.044644
  10480.870  10480.900  0.500  1.397308  87.002412  137.695910  34.046935
  10481.180  10481.200  0.500  1.397347  87.017364  137.706899  34.048324
  10481.466  10481.500  0.500  1.397396  87.016644  137.716964  34.049127
  10481.775  10481.800  0.500  1.397499  86.992447  137.675771  34.035445
  10482.070  10482.100  0.500  1.397492  86.997892  137.686282  34.038278
  10482.370  10482.400  0.500  1.397643  86.977517  137.659151  34.026441
  10482.666  10482.700  0.500  1.397552  86.971963  137.655931  34.028737
  10482.970  10483.000  0.500  1.397709  86.963302  137.647090  34.021215
  10483.285  10483.300  0.500  1.397780  86.957468  137.649851  34.019492
  10483.571  10483.600  0.500  1.397853  86.952012  137.634112  34.013106
  10483.880  10483.900  0.500  1.397911  86.950084  137.621246  34.007938
  10484.180  10484.200  0.500  1.398026  86.968585  137.654110  34.012169
  10484.490  10484.500  0.500  1.398210  86.919712  137.608731  33.994680
  10484.790  10484.800  0.500  1.398386  86.925999  137.615243  33.990302
  10485.090  10485.100  0.500  1.398470  86.916101  137.578495  33.978403
  10485.400  10485.400  0.500  1.398662  86.901436  137.561862  33.967756
  10485.691  10485.700  0.500  1.398917  86.901116  137.568736  33.960778
  10486.001  10486.000  0.500  1.399211  86.901892  137.574828  33.952324
  10486.286  10486.300  0.500  1.399480  86.894889  137.562041  33.940018
  10486.587  10486.600  0.500  1.399757  86.891569  137.562038  33.930634
  10486.882  10486.900  0.500  1.400085  86.878889  137.547730  33.915983
  10487.197  10487.200  0.500  1.400533  86.886819  137.568474  33.905908
  10487.492  10487.500  0.500  1.401045  86.847373  137.501751  33.872102
  10487.793  10487.800  0.500  1.401477  86.893611  137.571237  33.874565
  10488.093  10488.100  0.500  1.402035  86.858949  137.529031  33.845312
  10488.384  10488.400  0.500  1.402648  86.858028  137.534676  33.825947
  10488.689  10488.700  0.500  1.403289  86.883974  137.583394  33.816249
  10488.980  10489.000  0.500  1.404096  86.835320  137.490511  33.766169
  10489.280  10489.300  0.500  1.404938  86.851645  137.528666  33.747081
  10489.586  10489.600  0.500  1.405995  86.857619  137.542417  33.714821
  10489.886  10489.900  0.500  1.407103  86.832873  137.504022  33.668093
  10490.196  10490.200  0.500  1.408266  86.845136  137.498825  33.627690
  10490.487  10490.500  0.500  1.409467  86.820095  137.467822  33.579749
  10490.792  10490.800  0.500  1.410939  86.824951  137.472931  33.531581
  10491.107  10491.100  0.500  1.412450  86.889906  137.582186  33.507578
  10491.393  10491.400  0.500  1.413970  87.063123  137.872195  33.527204
  10491.704  10491.700  0.500  1.415582  87.093256  137.923596  33.485684
  10491.995  10492.000  0.500  1.417217  87.054445  137.868656  33.417675
  10492.290  10492.300  0.500  1.418823  87.083011  137.915094  33.375281
  10492.601  10492.600  0.500  1.420466  87.053810  137.864767  33.308333
  10492.901  10492.900  0.500  1.421926  87.054068  137.866435  33.260116
  10493.202  10493.200  0.500  1.423469  87.051310  137.867076  33.208999
  10493.493  10493.500  0.500  1.424765  87.042319  137.854781  33.163043
  10493.779  10493.800  0.500  1.426204  87.026571  137.843056  33.112542
  10494.099  10494.100  0.500  1.427700  87.010144  137.814260  33.056114
  10494.390  10494.400  0.500  1.429073  86.990360  137.789752  33.004911
  10494.686  10494.700  0.500  1.430501  86.984568  137.786154  32.956931
  10495.001  10495.000  0.500  1.431894  86.992909  137.797471  32.913765
  10495.288  10495.300  0.500  1.433487  86.988463  137.794029  32.860557
  10495.593  10495.600  0.500  1.435002  86.961298  137.741378  32.798267
  10495.904  10495.900  0.500  1.436545  86.989414  137.779574  32.756786
  10496.200  10496.200  0.500  1.438132  86.981979  137.786408  32.706479
  10496.501  10496.500  0.500  1.439810  86.964148  137.766139  32.646820
  10496.806  10496.800  0.500  1.441435  86.948904  137.749497  32.589891
  10497.102  10497.100  0.500  1.443220  86.977296  137.791631  32.541714
  10497.403  10497.400  0.500  1.444983  86.933860  137.727655  32.469296
  10497.699  10497.700  0.500  1.446762  86.931066  137.714528  32.408516
  10498.005  10498.000  0.500  1.448587  86.917329  137.706693  32.347570
  10498.306  10498.300  0.500  1.450285  86.923870  137.711485  32.293823
  10498.598  10498.600  0.500  1.452077  86.923276  137.710325  32.235722
  10498.903  10498.900  0.500  1.454044  86.944836  137.751428  32.181986
  10499.185  10499.200  0.500  1.455906  86.887868  137.667566  32.102570
  10499.491  10499.500  0.500  1.457806  86.888775  137.676288  32.043639
  10499.797  10499.800  0.500  1.459939  86.883843  137.658268  31.971181
  10500.084  10500.100  0.500  1.461972  86.899620  137.692255  31.914138
  10500.394  10500.400  0.500  1.464412  86.894255  137.683251  31.834268
  10500.686  10500.700  0.500  1.466718  86.858513  137.644383  31.751994
  10501.001  10501.000  0.500  1.469408  86.871245  137.678497  31.674534
  10501.293  10501.300  0.500  1.472121  86.868032  137.661966  31.584919
  10501.599  10501.600  0.500  1.474913  86.866345  137.656919  31.495704
  10501.905  10501.900  0.500  1.478072  86.815441  137.579053  31.378622
  10502.201  10502.200  0.500  1.480874  86.848619  137.630490  31.302524
  10502.502  10502.500  0.500  1.483784  86.795134  137.540593  31.191167
  10502.803  10502.800  0.500  1.486544  86.817150  137.580695  31.114283
  10503.095  10503.100  0.500  1.489265  86.823751  137.571577  31.027683
  10503.396  10503.400  0.500  1.491782  86.780984  137.512732  30.936422
  10503.698  10503.700  0.500  1.494089  86.795088  137.555459  30.874739
  10503.999  10504.000  0.500  1.496085  86.826588  137.608182  30.824986
  10504.295  10504.300  0.500  1.497697  86.795653  137.556845  30.763852
  10504.582  10504.600  0.500  1.498937  86.793261  137.560127  30.726453
  10504.898  10504.900  0.500  1.500046  86.760870  137.507522  30.680679
  10505.185  10505.200  0.500  1.500533  86.763543  137.515245  30.667462
  10505.486  10505.500  0.500  1.500930  86.754554  137.503823  30.652720
  10505.802  10505.800  0.500  1.500801  86.760563  137.514970  30.659160
  10506.094  10506.100  0.500  1.500475  86.750443  137.511353  30.668368
  10506.400  10506.400  0.500  1.499917  86.729815  137.469180  30.676080
  10506.687  10506.700  0.500  1.499345  86.706413  137.439956  30.687104
  10507.003  10507.000  0.500  1.498574  86.735608  137.475579  30.718733
  10507.300  10507.300  0.500  1.497742  86.696754  137.419870  30.731847
  10507.601  10507.600  0.500  1.496876  86.695505  137.430679  30.760891
  10507.908  10507.900  0.500  1.496111  86.698084  137.439498  30.786387
  10508.200  10508.200  0.500  1.495283  86.688279  137.421469  30.807851
  10508.506  10508.500  0.500  1.494669  86.679872  137.420710  30.826618
  10508.803  10508.800  0.500  1.494095  86.676611  137.411346  30.842206
  10509.099  10509.100  0.500  1.493656  86.670727  137.400841  30.853376
  10509.411  10509.400  0.500  1.493448  86.663541  137.387585  30.856820
  10509.688  10509.700  0.500  1.493164  86.665989  137.374674  30.862693
  10509.995  10510.000  0.500  1.493053  86.659596  137.394351  30.870541
  10510.292  10510.300  0.500  1.493151  86.646416  137.377593  30.863750
  10510.593  10510.600  0.500  1.493264  86.651855  137.383735  30.861647
  10510.885  10510.900  0.500  1.493372  86.618103  137.324045  30.844910
  10511.192  10511.200  0.500  1.493510  86.588983  137.275016  30.829642
  10511.383  10511.400  0.500  1.493729  86.559939  137.239762  30.814966
  10512.380  10512.390  0.500  1.494329  86.542525  137.231213  30.794553
  10513.371  10513.390  0.500  1.494523  86.588608  137.306038  30.805371
  10514.545  10514.410  0.500  1.494163  86.541083  137.233358  30.800145
  10515.408  10515.460  0.500  1.493222  86.560538  137.282307  30.840147
  10516.549  10516.520  0.500  1.491467  86.519518  137.232549  30.883114
  10517.575  10517.600  0.500  1.489204  86.475866  137.146186  30.933628
  10518.697  10518.700  0.500  1.485991  86.463284  137.133327  31.030268
  10519.829  10519.820  0.500  1.482668  86.451305  137.130279  31.132842
  10520.952  10520.960  0.500  1.479156  86.460233  137.168929  31.251190
  10522.099  10522.110  0.500  1.475622  86.401605  137.065739  31.338224
  10523.284  10523.290  0.500  1.472223  86.381863  137.062586  31.444198
  10524.484  10524.480  0.500  1.469131  86.316937  136.975664  31.521562
  10525.699  10525.700  0.500  1.466092  86.101235  136.635324  31.538961
  10526.948  10526.930  0.500  1.463478  86.175575  136.767303  31.652050
  10528.183  10528.180  0.500  1.461432  86.250442  136.911574  31.750346
  10529.456  10529.450  0.500  1.460031  86.282078  136.951395  31.804080
  10530.735  10530.740  0.500  1.459062  86.250069  136.915506  31.826592
  10532.062  10532.050  0.500  1.458478  86.227229  136.896856  31.840849
  10533.370  10533.380  0.500  1.458278  86.216279  136.871567  31.841329
  10534.736  10534.730  0.500  1.458302  86.199585  136.847696  31.835018
  10536.103  10536.100  0.500  1.458491  86.158221  136.800056  31.817898
  10537.484  10537.480  0.500  1.458987  86.123335  136.769058  31.794920
  10538.904  10538.890  0.500  1.459409  86.075413  136.697793  31.764956
  10540.301  10540.310  0.500  1.459911  85.988872  136.565495  31.718280
  10541.746  10541.750  0.500  1.460415  86.028696  136.635091  31.718473
  10543.220  10543.210  0.500  1.460888  86.036262  136.655390  31.708164
  10544.700  10544.690  0.500  1.461424  85.997244  136.606447  31.679829
  10546.199  10546.190  0.500  1.462006  85.971337  136.573943  31.653864
  10547.718  10547.710  0.500  1.462774  85.935597  136.534765  31.620477
  10549.257  10549.250  0.500  1.463794  85.922299  136.537852  31.588957
  10550.810  10550.810  0.500  1.464812  85.882623  136.475408  31.542386
  10552.379  10552.380  0.500  1.465665  85.854607  136.451199  31.509894
  10553.977  10553.980  0.500  1.466666  85.807919  136.394472  31.465308
  10555.590  10555.590  0.500  1.467702  85.703609  136.243981  31.398047
  10557.228  10557.230  0.500  1.468816  85.667466  136.206402  31.354414
  10558.866  10558.880  0.500  1.469717  85.578758  136.075648  31.296120
  10560.539  10560.550  0.500  1.470052  85.715749  136.303358  31.337971
  10562.236  10562.240  0.500  1.470035  85.694977  136.284800  31.334260
  10563.954  10563.950  0.500  1.469442  85.647420  136.220793  31.338102
  10565.686  10565.680  0.500  1.468475  85.607203  136.174031  31.357672
  10567.438  10567.430  0.500  1.467135  85.610947  136.190568  31.403537
  10569.181  10569.190  0.500  1.465362  85.541222  136.078111  31.433268
  10570.979  10570.980  0.500  1.462991  85.505095  136.032608  31.497366
  10572.786  10572.780  0.500  1.460486  85.478784  136.010092  31.571134
  10574.613  10574.610  0.500  1.458013  85.456837  136.004426  31.647999
  10576.475  10576.450  0.500  1.455746  85.412936  135.953225  31.707856
  10578.314  10578.310  0.500  1.454101  85.416989  135.964574  31.762735
  10580.192  10580.190  0.500  1.452933  85.350942  135.873152  31.778452
  10582.104  10582.090  0.500  1.451923  85.316409  135.840612  31.802956
  10584.018  10584.010  0.500  1.451329  85.309241  135.845012  31.822875
  10585.966  10585.950  0.500  1.450924  85.068252  135.466474  31.747048
  10587.919  10587.910  0.500  1.450597  85.203412  135.694817  31.810970
  10589.873  10589.880  0.500  1.450250  85.222890  135.730295  31.830332
  10591.892  10591.880  0.500  1.449867  85.136765  135.617341  31.816039
  10593.911  10593.890  0.500  1.449081  85.123546  135.610586  31.839461
  10595.926  10595.920  0.500  1.448101  85.075504  135.561705  31.859177
  10597.971  10597.980  0.500  1.447133  85.001900  135.461459  31.866467
  10600.056  10600.050  0.500  1.445996  84.985843  135.458647  31.902040
  10602.151  10602.140  0.500  1.444900  84.944359  135.411484  31.925906
  10604.237  10604.250  0.500  1.443886  84.926301  135.410849  31.958155
  10606.383  10606.380  0.500  1.442884  84.829019  135.257462  31.953948
  10608.525  10608.520  0.500  1.441951  84.847527  135.285268  31.990360
  10610.702  10610.690  0.500  1.441069  84.755346  135.158383  31.988545
  10612.870  10612.880  0.500  1.440217  84.762260  135.194354  32.024333
  10615.083  10615.080  0.500  1.439742  84.765926  135.217921  32.045130
  10617.306  10617.300  0.500  1.439481  84.686931  135.109734  32.027854
  10619.555  10619.550  0.500  1.439420  84.426861  134.715184  31.936299
  10621.800  10621.810  0.500  1.439602  84.624085  135.058784  32.011903
  10624.095  10624.090  0.500  1.439698  84.805323  135.360873  32.080442
  10626.396  10626.390  0.500  1.439968  84.767338  135.314797  32.060854
  10628.708  10628.710  0.500  1.440299  84.726904  135.271402  32.039962
  10631.055  10631.050  0.500  1.440649  84.699934  135.246152  32.022794
  10633.418  10633.400  0.500  1.440518  84.669267  135.203221  32.016794
  10635.782  10635.780  0.500  1.439905  84.639010  135.186657  32.032519
  10638.161  10638.170  0.500  1.438961  84.572812  135.093726  32.040733
  10640.596  10640.590  0.500  1.438020  84.532887  135.045543  32.059441
  10643.037  10643.020  0.500  1.437085  83.905274  134.068645  31.857320
  10645.464  10645.470  0.500  1.436052  84.508704  135.034361  32.119944
  10647.971  10647.950  0.500  1.435158  84.438359  134.955234  32.129839
  10650.455  10650.440  0.500  1.434015  84.412742  134.931920  32.161019
  10652.954  10652.950  0.500  1.432632  84.365398  134.874547  32.191827
  10655.480  10655.470  0.500  1.430978  84.308151  134.794954  32.226092
  10658.036  10658.020  0.500  1.429083  84.238315  134.705475  32.265809
  10660.588  10660.590  0.500  1.427140  84.169216  134.612388  32.306225
  10663.181  10663.170  0.500  1.425194  83.979556  134.325784  32.300222
  10665.796  10665.780  0.500  1.423496  84.158311  134.627119  32.427703
  10668.411  10668.400  0.500  1.422166  84.097678  134.556781  32.453875
  10671.067  10671.050  0.500  1.421276  84.030910  134.470379  32.461937
  10673.725  10673.710  0.500  1.420779  83.986060  134.431140  32.468586
  10676.399  10676.390  0.500  1.420431  83.917956  134.344284  32.458918
  10679.094  10679.090  0.500  1.419989  83.347313  133.439292  32.254515
  10681.825  10681.810  0.500  1.419486  83.878449  134.310493  32.481433
  10684.572  10684.550  0.500  1.418906  83.817234  134.230099  32.480809
  10687.311  10687.300  0.500  1.418123  83.778219  134.178684  32.493797
  10690.081  10690.080  0.500  1.417175  83.708327  134.083486  32.501536
  10692.867  10692.870  0.500  1.416256  83.662994  134.038794  32.520570
  10695.700  10695.690  0.500  1.415221  83.594637  133.962472  32.535719
  10698.533  10698.520  0.500  1.414162  82.996279  133.029025  32.343254
  10701.374  10701.370  0.500  1.413146  83.512217  133.862276  32.578930
  10704.266  10704.250  0.500  1.412076  83.469470  133.823992  32.604457
  10707.154  10707.140  0.500  1.410887  83.416981  133.763860  32.628584
