# XDI/1.0 BlueSky/1.10.0 BMM/2023-1.0-py310-tiled
# Beamline.name: BMM (06BM) -- Beamline for Materials Measurement (NIST)
# Beamline.xray_source: NSLS-II three-pole wiggler
# Beamline.collimation: paraboloid mirror, 5 nm Rh on 30 nm Pt
# Beamline.focusing: not in use
# Beamline.harmonic_rejection: flat mirror, Pt stripe, pitch = 7.0 mrad relative to beam
# Beamline.software: Bluesky 1.10.0, Ophyd 1.7.0, DataBroker 2.0.0b13, Python 3.10.8, 2023-1.0-py310-tiled
# Detector.I0: 10 cm N2
# Detector.I1: 25 cm N2
# Detector.I2: 25 cm N2
# Element.symbol: Yb
# Element.edge: L3
# Element.reference: Yb
# Element.reference_material: Yb2O3
# Facility.name: NSLS-II
# Facility.energy: 3.0
# Facility.current: 398.8
# Facility.mode: top-off
# Facility.GUP: 301027
# Facility.SAF: 310583
# Facility.cycle: 2023-2
# Mono.name: Si(111)
# Mono.d_spacing: 3.1351860
# Mono.encoder_resolution: 0.0000050 deg/ct
# Mono.angle_offset: 16.0754326 deg
# Mono.scan_mode: pseudo channel cut
# Mono.scan_type: step
# Mono.direction: forward in energy
# Sample.name: Yb2O3
# Sample.prep: PEG pellet
# Sample.x: 109.138 mm
# Sample.y: 153.150 mm
# Sample.SDD_position: 205.000 mm
# Scan.experimenters: Bruce Ravel
# Scan.edge_energy: 8943.6
# Scan.start_time: 2023-05-28T15:49:33
# Scan.end_time: 2023-05-28T15:57:37
# Scan.transient_id: 78812
# Scan.uid: 2be40b9f-a1fb-42f0-8736-52bc1fdddaac
# Scan.plot_hint: ln(It/Ir)  --  ln($6/$7)
# Column.1: energy eV
# Column.2: requested_energy eV
# Column.3: measurement_time seconds
# Column.4: xmu 
# Column.5: I0 nA
# Column.6: It nA
# Column.7: Ir nA
# ///////////
# sample courtesy Martin Stennett, University of Sheffield
# -----------
# energy  requested_energy  measurement_time  xmu  I0  It  Ir
  8743.613  8743.600  0.500  1.441573  123.716000  167.823033  39.699424
  8753.616  8753.600  0.500  1.436900  123.548918  167.766728  39.872022
  8763.660  8763.600  0.500  1.432181  123.355123  167.748462  40.056236
  8773.647  8773.600  0.500  1.427603  123.598273  168.267492  40.364569
  8783.651  8783.600  0.500  1.422876  123.413248  168.243590  40.550047
  8793.636  8793.600  0.500  1.418240  123.195508  168.157406  40.717609
  8803.627  8803.600  0.500  1.413599  123.022558  168.118030  40.897421
  8813.672  8813.600  0.500  1.408950  122.837266  168.072756  41.076953
  8823.626  8823.600  0.500  1.404428  122.654119  168.014476  41.248801
  8833.620  8833.600  0.500  1.399935  122.447503  167.980213  41.426092
  8843.614  8843.600  0.500  1.395517  122.272578  167.893569  41.588051
  8853.628  8853.600  0.500  1.391117  122.080460  167.823391  41.753978
  8863.618  8863.600  0.500  1.386842  121.886009  167.757462  41.916396
  8873.620  8873.600  0.500  1.382673  121.697200  167.735202  42.085943
  8883.622  8883.600  0.500  1.378702  121.502702  167.663870  42.235405
  8893.617  8893.600  0.500  1.375085  121.306774  167.597559  42.371679
  8903.625  8903.600  0.500  1.372264  121.095122  167.529902  42.474241
  8913.573  8913.600  0.500  1.370751  120.928525  167.436412  42.514810
  8915.567  8915.600  0.500  1.370849  120.818700  167.317227  42.480388
  8917.576  8917.600  0.500  1.371091  119.774006  165.913860  42.113874
  8919.578  8919.600  0.500  1.371612  120.852922  167.446538  42.480796
  8921.571  8921.600  0.500  1.372478  120.759866  167.356132  42.421124
  8923.884  8923.600  0.500  1.373769  118.887866  164.815135  41.723136
  8925.872  8925.600  0.500  1.375414  120.801626  167.490341  42.330682
  8927.652  8927.600  0.500  1.377932  120.704189  167.417623  42.205889
  8929.642  8929.600  0.500  1.381303  120.555914  167.253561  42.022635
  8931.616  8931.600  0.500  1.386629  118.242284  164.079651  41.006196
  8933.584  8933.600  0.500  1.394858  120.585635  167.368651  41.485375
  8933.876  8933.900  0.500  1.396506  120.571230  167.375307  41.418693
  8934.164  8934.200  0.500  1.398225  120.556828  167.362961  41.344540
  8934.474  8934.500  0.500  1.400279  120.546458  167.340583  41.254185
  8934.769  8934.800  0.500  1.402427  120.541084  167.333099  41.163797
  8935.071  8935.100  0.500  1.404745  120.522410  167.334996  41.068980
  8935.381  8935.400  0.500  1.407127  120.491084  167.293317  40.961068
  8935.676  8935.700  0.500  1.409715  120.417423  167.178503  40.827157
  8935.972  8936.000  0.500  1.412452  120.294282  167.015789  40.675907
  8936.278  8936.300  0.500  1.415426  120.203278  166.897854  40.526484
  8936.580  8936.600  0.500  1.418309  120.154705  166.818208  40.390524
  8936.883  8936.900  0.500  1.421171  120.148007  166.825676  40.276900
  8937.178  8937.200  0.500  1.424018  120.209499  166.912351  40.183285
  8937.488  8937.500  0.500  1.426843  120.312590  167.064113  40.106353
  8937.783  8937.800  0.500  1.429627  120.369192  167.141048  40.013264
  8938.086  8938.100  0.500  1.432434  120.384592  167.149658  39.903146
  8938.382  8938.400  0.500  1.435460  120.381623  167.155374  39.783962
  8938.684  8938.700  0.500  1.438754  120.386279  167.187924  39.660865
  8938.977  8939.000  0.500  1.442421  120.369982  167.201898  39.518966
  8939.283  8939.300  0.500  1.446772  120.362277  167.188967  39.344367
  8939.575  8939.600  0.500  1.451423  120.362529  167.152866  39.153352
  8939.888  8939.900  0.500  1.457088  120.345106  167.143556  38.929983
  8940.177  8940.200  0.500  1.462971  120.343151  167.151112  38.703383
  8940.480  8940.500  0.500  1.470089  120.335199  167.156459  38.430094
  8940.783  8940.800  0.500  1.477846  120.331680  167.156802  38.133245
  8941.092  8941.100  0.500  1.487052  120.314789  167.150290  37.782307
  8941.385  8941.400  0.500  1.496687  120.307694  167.148183  37.419556
  8941.694  8941.700  0.500  1.508075  120.299714  167.137935  36.993570
  8941.994  8942.000  0.500  1.520156  120.295211  167.131386  36.547911
  8942.300  8942.300  0.500  1.534236  120.282088  167.134368  36.037580
  8942.586  8942.600  0.500  1.548940  120.280318  167.128895  35.510395
  8942.902  8942.900  0.500  1.567354  120.273309  167.113447  34.859279
  8943.185  8943.200  0.500  1.586657  120.267560  167.087931  34.187598
  8943.501  8943.500  0.500  1.610887  120.255038  167.090045  33.369630
  8943.794  8943.800  0.500  1.636958  120.242230  167.081237  32.509156
  8944.101  8944.100  0.500  1.667834  120.236785  167.081471  31.520789
  8944.390  8944.400  0.500  1.701608  120.221103  167.081415  30.473978
  8944.703  8944.700  0.500  1.741815  120.215937  167.093420  29.275113
  8944.992  8945.000  0.500  1.784552  120.212349  167.093236  28.050307
  8945.292  8945.300  0.500  1.832612  120.205094  167.082243  26.732331
  8945.585  8945.600  0.500  1.884042  120.200381  167.064606  25.389579
  8945.895  8945.900  0.500  1.944752  120.190494  167.055720  23.892766
  8946.191  8946.200  0.500  2.005799  120.182529  167.048216  22.476786
  8946.484  8946.500  0.500  2.072399  120.164029  167.045349  21.028242
  8946.784  8946.800  0.500  2.139042  120.154710  167.047845  19.672825
  8947.097  8947.100  0.500  2.208639  120.148176  167.023249  18.347521
  8947.390  8947.400  0.500  2.270475  120.138855  166.989033  17.243806
  8947.700  8947.700  0.500  2.326179  120.134436  167.010326  16.311602
  8947.990  8948.000  0.500  2.372120  120.125124  166.989732  15.577268
  8948.303  8948.300  0.500  2.410477  120.106250  166.989430  14.991056
  8948.600  8948.600  0.500  2.438255  120.110403  167.005743  14.581788
  8948.896  8948.900  0.500  2.460434  120.099917  166.999578  14.261412
  8949.196  8949.200  0.500  2.477418  120.089861  166.997657  14.021080
  8949.503  8949.500  0.500  2.491994  120.081743  166.994358  13.817911
  8949.799  8949.800  0.500  2.503105  120.073330  166.973477  13.663527
  8950.103  8950.100  0.500  2.510851  120.067267  166.983312  13.558901
  8950.399  8950.400  0.500  2.513888  120.058669  166.955084  13.515498
  8950.703  8950.700  0.500  2.510701  120.045101  166.954857  13.558621
  8950.999  8951.000  0.500  2.500344  120.037162  166.971641  13.701156
  8951.299  8951.300  0.500  2.482013  120.018763  166.917581  13.950108
  8951.603  8951.600  0.500  2.455697  119.994254  166.862713  14.317388
  8951.896  8951.900  0.500  2.422845  119.899116  166.748848  14.785447
  8952.193  8952.200  0.500  2.383141  119.795458  166.605783  15.371107
  8952.489  8952.500  0.500  2.339358  119.716759  166.504354  16.049265
  8952.793  8952.800  0.500  2.292792  119.672906  166.456818  16.809497
  8953.093  8953.100  0.500  2.244560  119.715271  166.516131  17.646404
  8953.393  8953.400  0.500  2.195315  119.789745  166.629501  18.549774
  8953.694  8953.700  0.500  2.149529  119.881781  166.759324  19.433968
  8954.001  8954.000  0.500  2.103711  119.925630  166.818134  20.352287
  8954.294  8954.300  0.500  2.063113  119.934843  166.840124  21.198346
  8954.601  8954.600  0.500  2.024020  119.927341  166.823523  22.041270
  8954.891  8954.900  0.500  1.990878  119.924146  166.820701  22.783603
  8955.209  8955.200  0.500  1.960378  119.909110  166.836736  23.491476
  8955.509  8955.500  0.500  1.935373  119.915313  166.871420  24.091296
  8955.806  8955.800  0.500  1.912691  119.907388  166.875109  24.644516
  8956.103  8956.100  0.500  1.894116  119.896325  166.856003  25.103696
  8956.410  8956.400  0.500  1.876732  119.881620  166.839298  25.541358
  8956.697  8956.700  0.500  1.862188  119.883104  166.823038  25.913030
  8957.008  8957.000  0.500  1.847950  119.866756  166.826623  26.285177
  8957.301  8957.300  0.500  1.835940  119.864784  166.840562  26.604983
  8957.605  8957.600  0.500  1.824618  119.861542  166.830676  26.906316
  8957.899  8957.900  0.500  1.814834  119.853455  166.834079  27.171411
  8958.203  8958.200  0.500  1.805629  119.849552  166.820746  27.420494
  8958.493  8958.500  0.500  1.797553  119.834745  166.793733  27.638369
  8958.804  8958.800  0.500  1.790067  119.831474  166.780506  27.843834
  8959.097  8959.100  0.500  1.783555  119.833618  166.784750  28.026447
  8959.402  8959.400  0.500  1.777626  119.819949  166.784274  28.193048
  8959.688  8959.700  0.500  1.772688  119.812009  166.802208  28.335653
  8959.999  8960.000  0.500  1.767869  119.808867  166.793267  28.471013
  8960.293  8960.300  0.500  1.763753  119.796215  166.789938  28.587853
  8960.601  8960.600  0.500  1.759841  119.789028  166.776023  28.697509
  8960.895  8960.900  0.500  1.756602  119.782301  166.789654  28.792978
  8961.202  8961.200  0.500  1.753473  119.777025  166.781007  28.881719
  8961.496  8961.500  0.500  1.750988  119.769632  166.788083  28.954802
  8961.804  8961.800  0.500  1.748451  119.762904  166.786092  29.028019
  8962.098  8962.100  0.500  1.746724  119.746759  166.783145  29.077657
  8962.412  8962.400  0.500  1.745222  119.742882  166.776213  29.120163
  8962.706  8962.700  0.500  1.744263  119.742343  166.752211  29.143902
  8963.007  8963.000  0.500  1.743674  119.728305  166.739211  29.158797
  8963.301  8963.300  0.500  1.743581  119.721103  166.735759  29.160923
  8963.602  8963.600  0.500  1.744022  119.714455  166.730322  29.147118
  8963.899  8963.900  0.500  1.744794  119.701984  166.724695  29.123618
  8964.207  8964.200  0.500  1.745990  119.690470  166.713759  29.086917
  8964.498  8964.500  0.500  1.747430  120.072121  167.267500  29.141539
  8964.802  8964.800  0.500  1.749146  120.070839  167.269100  29.091847
  8965.096  8965.100  0.500  1.750782  120.024159  167.212109  29.034408
  8965.408  8965.400  0.500  1.752586  119.926434  167.077017  28.958634
  8965.695  8965.700  0.500  1.754206  119.853733  166.972949  28.893751
  8965.999  8966.000  0.500  1.755605  119.807320  166.908817  28.842300
  8966.293  8966.300  0.500  1.756755  119.816258  166.930364  28.812859
  8966.595  8966.600  0.500  1.757668  119.888039  167.042364  28.805868
  8966.896  8966.900  0.500  1.758343  119.976709  167.182809  28.810645
  8967.190  8967.200  0.500  1.758736  120.026939  167.238227  28.808879
  8967.491  8967.500  0.500  1.758928  120.045456  167.263009  28.807615
  8967.796  8967.800  0.500  1.758908  120.047220  167.275906  28.810397
  8968.100  8968.100  0.500  1.758595  120.042043  167.291056  28.822030
  8968.402  8968.400  0.500  1.758046  120.040326  167.292841  28.838180
  8968.602  8968.600  0.500  1.757551  120.024252  167.282391  28.850656
  8969.603  8969.590  0.500  1.753414  120.008967  167.257995  28.966009
  8970.604  8970.590  0.500  1.747819  119.991491  167.258354  29.128597
  8971.630  8971.610  0.500  1.741920  119.971039  167.247241  29.299001
  8972.666  8972.660  0.500  1.737732  119.945187  167.231525  29.419204
  8973.730  8973.720  0.500  1.737299  119.925230  167.223912  29.430585
  8974.801  8974.800  0.500  1.741333  119.901434  167.196549  29.307314
  8975.911  8975.900  0.500  1.749542  119.875408  167.198155  29.067989
  8977.039  8977.020  0.500  1.759632  119.851641  167.187060  28.774270
  8978.177  8978.160  0.500  1.770730  119.822445  167.169647  28.453722
  8979.315  8979.310  0.500  1.782128  119.794605  167.157497  28.129207
  8980.492  8980.490  0.500  1.794373  119.767117  167.136799  27.783419
  8981.690  8981.680  0.500  1.808253  119.699311  167.045396  27.385474
  8982.899  8982.900  0.500  1.823417  119.395264  166.647605  26.909100
  8984.136  8984.130  0.500  1.837757  119.625287  167.004075  26.582712
  8985.376  8985.380  0.500  1.849169  119.615632  167.007441  26.281615
  8986.659  8986.650  0.500  1.855324  119.586381  166.992146  26.117960
  8987.953  8987.940  0.500  1.854985  119.554193  166.982343  26.125269
  8989.257  8989.250  0.500  1.848919  119.528164  166.969778  26.282248
  8990.586  8990.580  0.500  1.838860  119.473459  166.910971  26.538619
  8991.933  8991.930  0.500  1.827142  119.414785  166.850383  26.841659
  8993.312  8993.300  0.500  1.814589  119.234990  166.620530  27.143293
  8994.691  8994.680  0.500  1.803226  116.978713  163.503582  26.939900
  8996.088  8996.090  0.500  1.793623  119.286313  166.750907  27.740070
  8997.517  8997.510  0.500  1.786234  119.367148  166.887200  27.968654
  8998.964  8998.950  0.500  1.780425  119.307299  166.846193  28.124669
  9000.414  9000.410  0.500  1.774782  119.239663  166.772719  28.271370
  9001.894  9001.890  0.500  1.769343  119.112587  166.623652  28.400159
  9003.398  9003.390  0.500  1.763959  117.507773  164.410729  28.174271
  9004.916  9004.910  0.500  1.759489  118.754436  166.165322  28.602516
  9006.460  9006.450  0.500  1.756028  119.193045  166.813853  28.813681
  9008.014  9008.010  0.500  1.753261  119.128799  166.771587  28.886219
  9009.590  9009.580  0.500  1.750933  118.998421  166.637918  28.930331
  9011.198  9011.180  0.500  1.748948  117.011942  163.858494  28.504321
  9012.800  9012.790  0.500  1.747391  118.921395  166.532195  29.014560
  9014.430  9014.430  0.500  1.746361  119.070211  166.787983  29.089059
  9016.089  9016.080  0.500  1.746118  119.013661  166.746698  29.088936
  9017.759  9017.750  0.500  1.746819  118.955798  166.711629  29.062434
  9019.436  9019.440  0.500  1.748089  118.837223  166.552366  28.997812
  9021.164  9021.150  0.500  1.750369  116.511622  163.318883  28.370083
  9022.899  9022.880  0.500  1.753415  118.898469  166.694071  28.868318
  9024.638  9024.630  0.500  1.757133  118.888215  166.703018  28.762743
  9026.395  9026.390  0.500  1.760974  118.847976  166.683895  28.649187
  9028.182  9028.180  0.500  1.764852  118.807815  166.667092  28.535417
  9029.993  9029.980  0.500  1.768099  118.765975  166.648729  28.439781
  9031.816  9031.810  0.500  1.770802  118.725737  166.645319  28.362440
  9033.664  9033.650  0.500  1.772538  118.684825  166.616321  28.308315
  9035.520  9035.510  0.500  1.773466  118.641309  166.571177  28.274385
  9037.394  9037.390  0.500  1.773572  118.603836  166.539716  28.266073
  9039.308  9039.290  0.500  1.772972  118.554773  166.504822  28.277087
  9041.219  9041.210  0.500  1.772054  118.143517  165.968827  28.211965
  9043.170  9043.150  0.500  1.771122  117.935845  165.726278  28.197004
  9045.114  9045.110  0.500  1.770489  118.369501  166.356350  28.322123
  9047.092  9047.080  0.500  1.770137  118.355082  166.373319  28.334989
  9049.080  9049.080  0.500  1.769476  118.323164  166.379280  28.354736
  9051.105  9051.090  0.500  1.768373  118.284135  166.365115  28.383620
  9053.131  9053.120  0.500  1.766655  118.239178  166.353434  28.430418
  9055.185  9055.180  0.500  1.764932  118.200274  166.307329  28.471547
  9057.255  9057.250  0.500  1.763335  118.161894  166.296667  28.515238
  9059.351  9059.340  0.500  1.761822  118.124589  166.275537  28.554764
  9061.458  9061.450  0.500  1.760465  118.072997  166.246389  28.588530
  9063.595  9063.580  0.500  1.759170  116.989217  164.766741  28.370812
  9065.718  9065.720  0.500  1.757991  117.896937  166.091518  28.632652
  9067.903  9067.890  0.500  1.756089  117.923282  166.174686  28.701539
  9070.089  9070.080  0.500  1.753343  117.896843  166.147173  28.775680
  9072.283  9072.280  0.500  1.749527  117.854380  166.125431  28.881941
  9074.510  9074.500  0.500  1.744988  117.815947  166.105691  29.009881
  9076.763  9076.750  0.500  1.740519  117.765325  166.094425  29.137822
  9079.024  9079.010  0.500  1.735926  117.721127  166.060822  29.266036
  9081.300  9081.290  0.500  1.731681  116.940360  165.010987  29.204755
  9083.596  9083.590  0.500  1.728389  117.479310  165.820942  29.444879
  9085.931  9085.910  0.500  1.726815  117.538719  165.943108  29.512973
  9088.258  9088.250  0.500  1.727261  117.500565  165.915935  29.494983
  9090.607  9090.600  0.500  1.729000  117.455025  165.894922  29.440015
  9092.992  9092.980  0.500  1.730774  117.411031  165.880650  29.385293
  9095.394  9095.370  0.500  1.732208  117.364617  165.848980  29.337585
  9097.807  9097.790  0.500  1.733142  117.315018  165.820633  29.305187
  9100.229  9100.220  0.500  1.733836  117.268281  165.827294  29.286043
  9102.698  9102.670  0.500  1.734670  117.202462  165.768834  29.251297
  9105.155  9105.150  0.500  1.735942  116.133430  164.306515  28.956399
  9107.659  9107.640  0.500  1.737842  117.052175  165.661940  29.139858
  9110.165  9110.150  0.500  1.739942  117.025507  165.662688  29.078854
  9112.683  9112.670  0.500  1.741923  116.979473  165.649765  29.019070
  9115.234  9115.220  0.500  1.742749  116.927101  165.611656  28.988428
  9117.802  9117.790  0.500  1.742218  116.873505  165.573896  28.997203
  9120.385  9120.370  0.500  1.739901  116.817407  165.530484  29.056861
  9122.984  9122.980  0.500  1.736119  116.759014  165.494151  29.160543
  9125.620  9125.600  0.500  1.731237  116.699267  165.473267  29.299579
  9128.258  9128.250  0.500  1.726444  116.646190  165.431628  29.432930
  9130.920  9130.910  0.500  1.722714  116.580044  165.393695  29.536134
  9133.604  9133.590  0.500  1.719991  116.507173  165.345227  29.607991
  9136.297  9136.290  0.500  1.717824  116.432003  165.288451  29.662037
  9139.028  9139.010  0.500  1.716466  116.343616  165.203626  29.687119
  9141.764  9141.750  0.500  1.715817  116.205700  165.042742  29.677458
  9144.512  9144.500  0.500  1.715769  113.461578  161.188322  28.985765
  9147.295  9147.280  0.500  1.715617  116.302000  165.270944  29.724417
  9150.083  9150.070  0.500  1.715571  116.201143  165.168315  29.707342
  9152.905  9152.890  0.500  1.715365  116.072646  165.044253  29.691124
  9155.729  9155.720  0.500  1.715269  115.843947  164.747225  29.640552
  9158.591  9158.570  0.500  1.715052  113.129598  160.954307  28.964443
  9161.461  9161.450  0.500  1.714577  116.002478  165.105948  29.725651
  9164.360  9164.340  0.500  1.713141  115.867649  164.966253  29.743180
  9167.270  9167.250  0.500  1.710900  115.503561  164.478530  29.721791
  9170.187  9170.170  0.500  1.707744  115.181322  164.066197  29.740980
  9173.141  9173.120  0.500  1.704409  115.797657  165.008691  30.011761
  9176.105  9176.090  0.500  1.701288  115.684186  164.899563  30.085667
