# XDI/1.0 BlueSky/1.10.0 BMM/2023-1.0-py310-tiled
# Beamline.name: BMM (06BM) -- Beamline for Materials Measurement (NIST)
# Beamline.xray_source: NSLS-II three-pole wiggler
# Beamline.collimation: paraboloid mirror, 5 nm Rh on 30 nm Pt
# Beamline.focusing: not in use
# Beamline.harmonic_rejection: flat mirror, Si stripe, pitch = 7.0 mrad relative to beam
# Beamline.software: Bluesky 1.10.0, Ophyd 1.7.0, DataBroker 2.0.0b13, Python 3.10.8, 2023-1.0-py310-tiled
# Detector.I0: 10 cm N2
# Detector.I1: 25 cm N2
# Detector.I2: 25 cm N2
# Element.symbol: Cs
# Element.edge: L3
# Element.reference: Cs
# Element.reference_material: CsNO3
# Facility.name: NSLS-II
# Facility.energy: 3.0
# Facility.current: 399.5
# Facility.mode: top-off
# Facility.GUP: 301027
# Facility.SAF: 310583
# Facility.cycle: 2023-2
# Mono.name: Si(111)
# Mono.d_spacing: 3.1351860
# Mono.encoder_resolution: 0.0000050 deg/ct
# Mono.angle_offset: 16.0754326 deg
# Mono.scan_mode: pseudo channel cut
# Mono.scan_type: step
# Mono.direction: forward in energy
# Sample.name: CsNO3
# Sample.prep: PEG pellet
# Sample.x: 109.138 mm
# Sample.y: 153.150 mm
# Sample.SDD_position: 205.000 mm
# Scan.experimenters: Bruce Ravel
# Scan.edge_energy: 5011.9
# Scan.start_time: 2023-05-28T10:56:11
# Scan.end_time: 2023-05-28T11:02:21
# Scan.transient_id: 78616
# Scan.uid: 3115f1da-9cef-4405-ad80-2c708dfee32e
# Scan.plot_hint: ln(It/Ir)  --  ln($6/$7)
# Column.1: energy eV
# Column.2: requested_energy eV
# Column.3: measurement_time seconds
# Column.4: xmu 
# Column.5: I0 nA
# Column.6: It nA
# Column.7: Ir nA
# ///////////
# sample courtesy Martin Stennett, University of Sheffield
# -----------
# energy  requested_energy  measurement_time  xmu  I0  It  Ir
  4811.907  4811.900  0.500  4.569123  75.890700  16.084817  0.166752
  4821.910  4821.900  0.500  4.542610  76.958374  16.522419  0.175891
  4831.903  4831.900  0.500  4.515461  77.749015  16.926558  0.185152
  4841.903  4841.900  0.500  4.488548  78.532429  17.339194  0.194840
  4851.904  4851.900  0.500  4.461514  79.252222  17.739280  0.204798
  4861.902  4861.900  0.500  4.434089  79.958708  18.125032  0.215069
  4871.903  4871.900  0.500  4.408130  80.665386  18.528912  0.225644
  4881.902  4881.900  0.500  4.382064  81.334559  18.923086  0.236530
  4891.899  4891.900  0.500  4.355728  82.074452  19.348911  0.248306
  4901.901  4901.900  0.500  4.329926  82.734668  19.754565  0.260138
  4911.902  4911.900  0.500  4.304414  83.361645  20.165216  0.272408
  4921.900  4921.900  0.500  4.277622  83.987729  20.579861  0.285558
  4931.902  4931.900  0.500  4.252706  84.585525  20.985340  0.298531
  4941.904  4941.900  0.500  4.227156  85.155644  21.393817  0.312218
  4951.907  4951.900  0.500  4.201599  85.700082  21.764062  0.325843
  4961.903  4961.900  0.500  4.178062  86.199102  22.186081  0.340072
  4971.899  4971.900  0.500  4.153173  86.614535  22.562343  0.354556
  4981.900  4981.900  0.500  4.130076  86.905909  22.926957  0.368703
  4983.902  4983.900  0.500  4.125705  86.961826  22.996706  0.371445
  4985.898  4985.900  0.500  4.121572  87.024265  23.075425  0.374260
  4987.907  4987.900  0.500  4.116748  87.073254  23.149896  0.377284
  4989.903  4989.900  0.500  4.112570  87.138070  23.229613  0.380168
  4991.903  4991.900  0.500  4.108157  87.180359  23.294937  0.382923
  4993.905  4993.900  0.500  4.105116  87.227947  23.333774  0.384730
  4995.904  4995.900  0.500  4.101731  87.302579  23.412553  0.387338
  4997.904  4997.900  0.500  4.097615  87.368921  23.476901  0.390004
  4999.902  4999.900  0.500  4.095184  87.425884  23.570597  0.392514
  5001.902  5001.900  0.500  4.094209  87.502806  23.650226  0.394224
  5002.197  5002.200  0.500  4.093509  87.499472  23.621645  0.394023
  5002.493  5002.500  0.500  4.093497  87.525855  23.655568  0.394594
  5002.792  5002.800  0.500  4.093724  87.519594  23.674574  0.394821
  5003.093  5003.100  0.500  4.093653  87.534185  23.693187  0.395160
  5003.392  5003.400  0.500  4.093458  87.534418  23.696115  0.395285
  5003.692  5003.700  0.500  4.093744  87.534846  23.680461  0.394912
  5003.994  5004.000  0.500  4.093531  87.545684  23.683696  0.395049
  5004.294  5004.300  0.500  4.093145  87.543435  23.713804  0.395705
  5004.593  5004.600  0.500  4.094781  87.548657  23.719733  0.395156
  5004.894  5004.900  0.500  4.094603  87.554513  23.732028  0.395432
  5005.193  5005.200  0.500  4.095673  87.563871  23.737565  0.395101
  5005.493  5005.500  0.500  4.094896  87.576929  23.738151  0.395418
  5005.795  5005.800  0.500  4.096373  87.585258  23.748415  0.395005
  5006.095  5006.100  0.500  4.096638  87.578505  23.766296  0.395198
  5006.394  5006.400  0.500  4.098153  87.585233  23.768225  0.394631
  5006.693  5006.700  0.500  4.099528  87.595260  23.794865  0.394531
  5006.995  5007.000  0.500  4.100723  87.613963  23.834043  0.394708
  5007.293  5007.300  0.500  4.101768  87.618805  23.836141  0.394331
  5007.595  5007.600  0.500  4.103461  87.621926  23.818965  0.393380
  5007.897  5007.900  0.500  4.105187  87.621675  23.812901  0.392602
  5008.197  5008.200  0.500  4.107651  87.630608  23.826490  0.391859
  5008.496  5008.500  0.500  4.109762  87.641387  23.835156  0.391175
  5008.797  5008.800  0.500  4.113561  87.655271  23.856034  0.390033
  5009.094  5009.100  0.500  4.117115  87.650982  23.880320  0.389045
  5009.395  5009.400  0.500  4.121076  87.661401  23.907752  0.387952
  5009.698  5009.700  0.500  4.125467  87.671661  23.912670  0.386332
  5010.000  5010.000  0.500  4.130116  87.674157  23.922743  0.384702
  5010.299  5010.300  0.500  4.136716  87.676052  23.932993  0.382335
  5010.597  5010.600  0.500  4.143365  87.690652  23.940203  0.379916
  5010.896  5010.900  0.500  4.152010  87.703653  23.956303  0.376899
  5011.197  5011.200  0.500  4.161593  87.704247  23.954153  0.373271
  5011.498  5011.500  0.500  4.172337  87.704501  23.958591  0.369350
  5011.800  5011.800  0.500  4.185659  87.717065  23.968265  0.364609
  5012.098  5012.100  0.500  4.200605  87.728029  23.980411  0.359383
  5012.401  5012.400  0.500  4.216483  87.738630  24.003050  0.354055
  5012.696  5012.700  0.500  4.234542  87.744441  23.992434  0.347565
  5012.996  5013.000  0.500  4.253654  87.744738  24.016125  0.341322
  5013.296  5013.300  0.500  4.273072  87.747082  24.024996  0.334882
  5013.600  5013.600  0.500  4.291572  87.737688  24.012627  0.328574
  5013.899  5013.900  0.500  4.309116  87.750578  24.031071  0.323108
  5014.200  5014.200  0.500  4.323137  87.759517  24.044373  0.318786
  5014.499  5014.500  0.500  4.332739  87.782593  24.035743  0.315626
  5014.798  5014.800  0.500  4.338944  87.800256  24.045907  0.313806
  5015.098  5015.100  0.500  4.340059  87.811026  24.069924  0.313770
  5015.402  5015.400  0.500  4.337216  87.800155  24.101634  0.315078
  5015.701  5015.700  0.500  4.329632  87.810405  24.110344  0.317591
  5015.999  5016.000  0.500  4.317365  87.817083  24.121324  0.321657
  5016.301  5016.300  0.500  4.305795  87.816568  24.132513  0.325552
  5016.601  5016.600  0.500  4.293509  87.837114  24.144806  0.329744
  5016.901  5016.900  0.500  4.282973  87.829743  24.152947  0.333348
  5017.201  5017.200  0.500  4.273235  87.842836  24.165355  0.336783
  5017.500  5017.500  0.500  4.265645  87.848677  24.175474  0.339491
  5017.802  5017.800  0.500  4.257637  87.856672  24.180969  0.342299
  5018.102  5018.100  0.500  4.251530  87.851974  24.180356  0.344387
  5018.398  5018.400  0.500  4.245750  87.871718  24.192707  0.346560
  5018.700  5018.700  0.500  4.241473  87.879813  24.204591  0.348217
  5019.003  5019.000  0.500  4.236652  87.878479  24.208838  0.349961
  5019.302  5019.300  0.500  4.232903  87.892198  24.212449  0.351327
  5019.605  5019.600  0.500  4.230644  87.903090  24.220636  0.352241
  5019.902  5019.900  0.500  4.227854  87.901633  24.232985  0.353406
  5020.203  5020.200  0.500  4.226971  87.896475  24.243248  0.353868
  5020.503  5020.500  0.500  4.224322  87.922429  24.258791  0.355033
  5020.800  5020.800  0.500  4.222703  87.917210  24.264925  0.355699
  5021.104  5021.100  0.500  4.220646  87.914441  24.272159  0.356538
  5021.403  5021.400  0.500  4.218115  87.925890  24.285018  0.357630
  5021.703  5021.700  0.500  4.216096  87.921261  24.321238  0.358888
  5022.004  5022.000  0.500  4.213397  87.918806  24.317960  0.359809
  5022.301  5022.300  0.500  4.211536  87.932608  24.307347  0.360322
  5022.603  5022.600  0.500  4.209385  87.939918  24.331293  0.361454
  5022.897  5022.900  0.500  4.208428  87.951892  24.348655  0.362058
  5023.202  5023.200  0.500  4.206923  87.969335  24.346034  0.362564
  5023.503  5023.500  0.500  4.205775  87.961824  24.349094  0.363026
  5023.802  5023.800  0.500  4.205458  87.956344  24.376391  0.363548
  5024.102  5024.100  0.500  4.204533  87.986189  24.398906  0.364221
  5024.400  5024.400  0.500  4.205101  87.978466  24.411328  0.364200
  5024.698  5024.700  0.500  4.205184  87.979370  24.421837  0.364326
  5025.000  5025.000  0.500  4.205214  87.986408  24.427061  0.364393
  5025.301  5025.300  0.500  4.205234  88.006402  24.448445  0.364705
  5025.602  5025.600  0.500  4.205104  88.007435  24.449458  0.364767
  5025.901  5025.900  0.500  4.205077  88.015575  24.456357  0.364880
  5026.203  5026.200  0.500  4.205632  88.001905  24.468198  0.364854
  5026.502  5026.500  0.500  4.205848  88.021710  24.485577  0.365034
  5026.798  5026.800  0.500  4.206229  88.017479  24.474237  0.364726
  5027.099  5027.100  0.500  4.206729  88.028465  24.470669  0.364491
  5027.401  5027.400  0.500  4.207215  88.039618  24.501126  0.364767
  5027.700  5027.700  0.500  4.207323  88.056381  24.519406  0.365000
  5028.001  5028.000  0.500  4.208394  88.062594  24.539115  0.364902
  5028.302  5028.300  0.500  4.209397  88.089544  24.552248  0.364732
  5028.599  5028.600  0.500  4.209616  88.088814  24.569693  0.364911
  5028.898  5028.900  0.500  4.211261  88.116140  24.576369  0.364410
  5029.201  5029.200  0.500  4.210968  88.115921  24.577766  0.364537
  5029.501  5029.500  0.500  4.212048  88.117879  24.581948  0.364206
  5029.803  5029.800  0.500  4.213132  88.115424  24.581676  0.363807
  5030.102  5030.100  0.500  4.214099  88.118386  24.604280  0.363790
  5030.399  5030.400  0.500  4.214400  88.132201  24.623896  0.363970
  5030.702  5030.700  0.500  4.214806  88.110684  24.623743  0.363820
  5031.000  5031.000  0.500  4.214906  88.112821  24.604895  0.363506
  5031.303  5031.300  0.500  4.214733  88.131698  24.631861  0.363967
  5031.604  5031.600  0.500  4.214042  88.139036  24.655048  0.364561
  5031.904  5031.900  0.500  4.213079  88.164054  24.675643  0.365217
  5032.203  5032.200  0.500  4.211188  88.171434  24.685017  0.366048
  5032.504  5032.500  0.500  4.209165  88.155947  24.688241  0.366837
  5032.800  5032.800  0.500  4.207319  88.159677  24.704334  0.367754
  5033.101  5033.100  0.500  4.204459  88.169220  24.701597  0.368767
  5033.403  5033.400  0.500  4.202386  88.176840  24.692747  0.369400
  5033.703  5033.700  0.500  4.200725  88.186517  24.698782  0.370104
  5034.004  5034.000  0.500  4.198600  88.195817  24.712311  0.371095
  5034.302  5034.300  0.500  4.196554  88.193712  24.726125  0.372063
  5034.603  5034.600  0.500  4.194733  88.212371  24.759111  0.373238
  5034.900  5034.900  0.500  4.193206  88.204115  24.770661  0.373983
  5035.198  5035.200  0.500  4.191812  88.218806  24.781918  0.374674
  5035.504  5035.500  0.500  4.190013  88.220778  24.786601  0.375420
  5035.803  5035.800  0.500  4.188541  88.235395  24.795766  0.376112
  5036.103  5036.100  0.500  4.186550  88.474283  24.874357  0.378056
  5036.404  5036.400  0.500  4.185875  88.499951  24.880525  0.378405
  5036.700  5036.700  0.500  4.184434  88.531463  24.886178  0.379037
  5036.897  5036.900  0.500  4.183502  88.528914  24.897316  0.379560
  5037.899  5037.890  0.500  4.179981  88.548053  24.926254  0.381342
  5038.898  5038.890  0.500  4.176859  88.581322  24.955876  0.382989
  5039.925  5039.910  0.500  4.174578  88.613009  25.013748  0.384753
  5040.953  5040.960  0.500  4.169817  88.634862  25.044298  0.387062
  5042.015  5042.020  0.500  4.166725  88.661599  25.077761  0.388779
  5043.097  5043.100  0.500  4.163547  88.694187  25.118979  0.390658
  5044.199  5044.200  0.500  4.160921  88.735180  25.157035  0.392278
  5045.323  5045.320  0.500  4.159050  88.753959  25.199315  0.393674
  5046.469  5046.460  0.500  4.157333  88.799008  25.255317  0.395226
  5047.615  5047.610  0.500  4.155310  88.825585  25.306134  0.396824
  5048.796  5048.790  0.500  4.153106  88.879552  25.358170  0.398517
  5049.985  5049.980  0.500  4.150039  88.912719  25.401965  0.400432
  5051.204  5051.200  0.500  4.149096  88.932294  25.452403  0.401605
  5052.439  5052.430  0.500  4.146567  88.969791  25.494501  0.403288
  5053.684  5053.680  0.500  4.144258  88.993864  25.555503  0.405188
  5054.955  5054.950  0.500  4.142454  89.019836  25.590337  0.406472
  5056.246  5056.240  0.500  4.140649  89.064984  25.627183  0.407793
  5057.558  5057.550  0.500  4.138651  89.110941  25.660472  0.409140
  5058.886  5058.880  0.500  4.136172  89.147166  25.735519  0.411355
  5060.236  5060.230  0.500  4.134067  89.179112  25.758708  0.412593
  5061.615  5061.600  0.500  4.131270  89.210199  25.813009  0.414621
  5062.986  5062.980  0.500  4.129472  89.244147  25.865428  0.416210
  5064.393  5064.390  0.500  4.125096  89.267669  25.910282  0.418761
  5065.816  5065.810  0.500  4.121068  89.306203  25.954350  0.421166
  5067.259  5067.250  0.500  4.118038  89.330867  26.005484  0.423276
  5068.718  5068.710  0.500  4.113962  89.359220  26.071696  0.426087
  5070.199  5070.190  0.500  4.109888  89.395933  26.125731  0.428713
  5071.709  5071.690  0.500  4.106442  89.429786  26.186281  0.431190
  5073.216  5073.210  0.500  4.102163  89.438053  26.230735  0.433774
  5074.759  5074.750  0.500  4.098122  89.482992  26.287140  0.436467
  5076.329  5076.310  0.500  4.094400  89.508211  26.334108  0.438878
  5077.899  5077.880  0.500  4.091348  89.511608  26.382999  0.441036
  5079.486  5079.480  0.500  4.087938  89.534572  26.434792  0.443412
  5081.112  5081.090  0.500  4.084502  89.563276  26.500321  0.446041
  5082.750  5082.730  0.500  4.081172  89.592936  26.553811  0.448432
  5084.400  5084.380  0.500  4.078529  89.619785  26.607474  0.450527
  5086.070  5086.050  0.500  4.074795  89.631713  26.655444  0.453028
  5087.757  5087.740  0.500  4.071403  89.635977  26.694792  0.455238
  5089.466  5089.450  0.500  4.068492  89.656876  26.749276  0.457497
  5091.198  5091.180  0.500  4.065099  89.666159  26.804879  0.460006
  5092.932  5092.930  0.500  4.062123  89.672589  26.856727  0.462270
  5094.706  5094.690  0.500  4.058342  89.676284  26.912995  0.464993
  5096.474  5096.480  0.500  4.054809  89.688560  26.965215  0.467544
  5098.299  5098.280  0.500  4.050922  89.684285  27.029468  0.470484
  5100.112  5100.110  0.500  4.047140  89.690719  27.073444  0.473035
  5101.960  5101.950  0.500  4.043918  89.670420  27.113580  0.475265
  5103.826  5103.810  0.500  4.040103  89.644599  27.176426  0.478187
  5105.691  5105.690  0.500  4.036560  89.636478  27.231603  0.480858
  5107.590  5107.590  0.500  4.032681  89.612635  27.280917  0.483602
  5109.505  5109.510  0.500  4.029394  89.611022  27.328633  0.486043
  5111.445  5111.450  0.500  4.024620  89.575166  27.390328  0.489471
  5113.408  5113.410  0.500  4.020535  89.547556  27.444709  0.492450
  5115.379  5115.380  0.500  4.016535  89.513479  27.499723  0.495415
  5117.395  5117.380  0.500  4.011665  89.468545  27.548726  0.498721
  5119.383  5119.390  0.500  4.007789  89.447864  27.592349  0.501450
  5121.410  5121.420  0.500  4.003688  89.384141  27.631377  0.504223
  5123.482  5123.480  0.500  3.999388  89.323414  27.688026  0.507435
  5125.552  5125.550  0.500  3.994928  89.269073  27.742685  0.510709
  5127.642  5127.640  0.500  3.990808  89.223565  27.771959  0.513358
  5129.760  5129.750  0.500  3.986827  89.153966  27.818403  0.516268
  5131.887  5131.880  0.500  3.982348  89.079984  27.862835  0.519414
  5134.029  5134.020  0.500  3.978210  88.993616  27.910591  0.522462
  5136.197  5136.190  0.500  3.974173  88.919277  27.954533  0.525401
  5138.391  5138.380  0.500  3.970033  88.841160  27.981583  0.528091
  5140.586  5140.580  0.500  3.965905  88.752773  28.020197  0.531007
  5142.806  5142.800  0.500  3.961352  88.661647  28.050789  0.534013
  5145.052  5145.050  0.500  3.957447  88.577278  28.097027  0.536986
  5147.311  5147.310  0.500  3.952514  88.471144  28.122780  0.540136
  5149.594  5149.590  0.500  3.948534  88.360364  28.157011  0.542950
  5151.893  5151.890  0.500  3.943737  88.238374  28.172316  0.545858
  5154.215  5154.210  0.500  3.939496  88.163845  28.199386  0.548704
  5156.551  5156.550  0.500  3.934274  88.059676  28.238517  0.552342
  5158.901  5158.900  0.500  3.930170  87.981650  28.322919  0.556272
  5161.282  5161.280  0.500  3.925229  87.866661  28.358880  0.559737
  5163.674  5163.670  0.500  3.920906  87.796376  28.393032  0.562839
  5166.094  5166.090  0.500  3.915896  87.662244  28.418061  0.566164
  5168.522  5168.520  0.500  3.911399  87.546576  28.456465  0.569484
  5170.972  5170.970  0.500  3.907265  87.460192  28.507359  0.572866
  5173.454  5173.450  0.500  3.901860  87.341896  28.555777  0.576949
  5175.944  5175.940  0.500  3.897073  87.263651  28.607365  0.580765
  5178.452  5178.450  0.500  3.892406  87.145879  28.630948  0.583963
  5180.970  5180.970  0.500  3.887305  87.071485  28.676189  0.587877
  5183.524  5183.520  0.500  3.882052  86.999963  28.736050  0.592206
  5186.095  5186.090  0.500  3.876959  86.914461  28.781090  0.596163
  5188.676  5188.670  0.500  3.871816  86.856715  28.825508  0.600162
  5191.285  5191.280  0.500  3.867149  86.790538  28.874942  0.604003
  5193.904  5193.900  0.500  3.862144  86.683326  28.904145  0.607648
  5196.554  5196.550  0.500  3.856935  86.619015  28.981948  0.612466
  5199.210  5199.210  0.500  3.852123  86.569743  29.041856  0.616693
  5201.899  5201.890  0.500  3.846686  86.501315  29.101829  0.621335
  5204.594  5204.590  0.500  3.841615  86.401223  29.134751  0.625200
  5207.311  5207.310  0.500  3.836354  86.346700  29.201596  0.629940
  5210.053  5210.050  0.500  3.830868  86.312217  29.260095  0.634674
  5212.805  5212.800  0.500  3.825615  86.255444  29.312928  0.639169
  5215.585  5215.580  0.500  3.819897  86.224090  29.384181  0.644397
  5218.377  5218.370  0.500  3.814318  86.193989  29.476005  0.650027
  5221.195  5221.190  0.500  3.808964  86.125272  29.539834  0.654932
  5224.029  5224.020  0.500  3.802772  86.119900  29.614366  0.660663
  5226.886  5226.870  0.500  3.797479  86.079864  29.692278  0.665916
  5229.774  5229.750  0.500  3.791599  86.057277  29.740596  0.670933
  5232.649  5232.640  0.500  3.786268  85.981146  29.814731  0.676201
  5235.557  5235.550  0.500  3.780303  85.987313  29.906705  0.682345
  5238.496  5238.470  0.500  3.774594  85.959210  29.996193  0.688305
  5241.427  5241.420  0.500  3.768843  85.922469  30.039827  0.693282
  5244.395  5244.390  0.500  3.763032  85.893583  30.118233  0.699142
  5247.397  5247.370  0.500  3.757264  85.871306  30.198364  0.705057
  5250.401  5250.380  0.500  3.751001  85.820638  30.266656  0.711091
  5253.421  5253.400  0.500  3.745531  85.741893  30.336250  0.716636
  5256.471  5256.450  0.500  3.739434  85.807170  30.459639  0.723951
  5259.533  5259.510  0.500  3.733369  85.753827  30.544429  0.730383
  5262.612  5262.590  0.500  3.727412  85.740019  30.627880  0.736754
  5265.703  5265.690  0.500  3.721664  85.724207  30.721952  0.743277
  5268.818  5268.810  0.500  3.715653  85.711026  30.819112  0.750123
  5271.942  5271.950  0.500  3.709513  85.700805  30.873761  0.756081
  5275.087  5275.100  0.500  3.703644  85.724036  30.979782  0.763143
  5278.269  5278.280  0.500  3.697153  79.377947  28.769379  0.713308
