# XDI/1.0 BlueSky/1.10.0 BMM/2023-1.0-py310-tiled
# Beamline.name: BMM (06BM) -- Beamline for Materials Measurement (NIST)
# Beamline.xray_source: NSLS-II three-pole wiggler
# Beamline.collimation: paraboloid mirror, 5 nm Rh on 30 nm Pt
# Beamline.focusing: not in use
# Beamline.harmonic_rejection: flat mirror, Si stripe, pitch = 7.0 mrad relative to beam
# Beamline.software: Bluesky 1.10.0, Ophyd 1.7.0, DataBroker 2.0.0b13, Python 3.10.8, 2023-1.0-py310-tiled
# Detector.I0: 10 cm N2
# Detector.I1: 25 cm N2
# Detector.I2: 25 cm N2
# Element.symbol: Cs
# Element.edge: L1
# Element.reference: Cs
# Element.reference_material: CsNO3
# Facility.name: NSLS-II
# Facility.energy: 3.0
# Facility.current: 400.1
# Facility.mode: top-off
# Facility.GUP: 301027
# Facility.SAF: 310583
# Facility.cycle: 2023-2
# Mono.name: Si(111)
# Mono.d_spacing: 3.1351860
# Mono.encoder_resolution: 0.0000050 deg/ct
# Mono.angle_offset: 16.0754326 deg
# Mono.scan_mode: pseudo channel cut
# Mono.scan_type: step
# Mono.direction: forward in energy
# Sample.name: CsNO3
# Sample.prep: PEG pellet
# Sample.x: 109.138 mm
# Sample.y: 153.150 mm
# Sample.SDD_position: 205.000 mm
# Scan.experimenters: Bruce Ravel
# Scan.edge_energy: 5714.3
# Scan.start_time: 2023-05-28T11:24:50
# Scan.end_time: 2023-05-28T11:32:53
# Scan.transient_id: 78637
# Scan.uid: 978fbc65-d652-4abf-8b2f-789fcd1061a3
# Scan.plot_hint: ln(It/Ir)  --  ln($6/$7)
# Column.1: energy eV
# Column.2: requested_energy eV
# Column.3: measurement_time seconds
# Column.4: xmu 
# Column.5: I0 nA
# Column.6: It nA
# Column.7: Ir nA
# ///////////
# sample courtesy Martin Stennett, University of Sheffield
# -----------
# energy  requested_energy  measurement_time  xmu  I0  It  Ir
  5514.312  5514.300  0.500  3.332265  108.004921  48.223391  1.722159
  5524.306  5524.300  0.500  3.315830  108.507727  48.858621  1.773758
  5534.349  5534.300  0.500  3.299756  108.956830  49.449381  1.824294
  5544.313  5544.300  0.500  3.283628  109.447374  50.049691  1.876463
  5554.312  5554.300  0.500  3.267501  109.915965  50.669315  1.930577
  5564.313  5564.300  0.500  3.252048  110.392960  51.271925  1.983961
  5574.312  5574.300  0.500  3.236454  110.855463  51.866917  2.038526
  5584.313  5584.300  0.500  3.221005  111.282598  52.472376  2.094431
  5594.309  5594.300  0.500  3.205930  111.705016  53.095971  2.151513
  5604.286  5604.300  0.500  3.190587  112.103580  53.693419  2.209362
  5614.289  5614.300  0.500  3.175995  112.200375  54.154362  2.261083
  5624.287  5624.300  0.500  3.160886  112.603807  54.767586  2.321497
  5634.294  5634.300  0.500  3.146079  112.990762  55.358196  2.381535
  5644.295  5644.300  0.500  3.131601  113.382591  55.956568  2.442385
  5654.291  5654.300  0.500  3.117141  113.740234  56.534678  2.503558
  5664.296  5664.300  0.500  3.102458  114.067356  57.099058  2.565952
  5674.292  5674.300  0.500  3.088460  114.425066  57.692843  2.629183
  5684.297  5684.300  0.500  3.074631  114.769850  58.267978  2.692370
  5686.293  5686.300  0.500  3.071663  114.811922  58.380977  2.705610
  5688.293  5688.300  0.500  3.068759  114.863182  58.487610  2.718435
  5690.294  5690.300  0.500  3.066171  114.932570  58.596545  2.730555
  5692.291  5692.300  0.500  3.063340  114.995259  58.694052  2.742853
  5694.305  5694.300  0.500  3.060951  115.073253  58.851230  2.756777
  5696.302  5696.300  0.500  3.058117  115.107965  58.965776  2.769980
  5698.304  5698.300  0.500  3.055531  115.186437  59.078869  2.782478
  5700.297  5700.300  0.500  3.052644  115.224272  59.180982  2.795347
  5702.299  5702.300  0.500  3.050304  115.297105  59.324566  2.808694
  5704.300  5704.300  0.500  3.047803  115.344938  59.434835  2.820961
  5704.590  5704.600  0.500  3.047126  115.339763  59.431755  2.822726
  5704.889  5704.900  0.500  3.046974  115.353012  59.454901  2.824254
  5705.186  5705.200  0.500  3.046613  115.366840  59.461323  2.825577
  5705.487  5705.500  0.500  3.046121  115.369644  59.471388  2.827448
  5705.787  5705.800  0.500  3.045866  115.383505  59.464232  2.827828
  5706.092  5706.100  0.500  3.045486  115.367514  59.512050  2.831177
  5706.386  5706.400  0.500  3.044997  115.407500  59.521519  2.833013
  5706.692  5706.700  0.500  3.044571  115.402968  59.538868  2.835045
  5706.989  5707.000  0.500  3.044184  115.417653  59.583885  2.838289
  5707.291  5707.300  0.500  3.043938  115.408062  59.573928  2.838511
  5707.590  5707.600  0.500  3.043570  115.426134  59.604809  2.841030
  5707.892  5707.900  0.500  3.043097  115.429643  59.618350  2.843018
  5708.194  5708.200  0.500  3.042847  115.434986  59.631229  2.844343
  5708.495  5708.500  0.500  3.042460  115.447243  59.637087  2.845725
  5708.792  5708.800  0.500  3.042048  115.438689  59.652875  2.847652
  5709.094  5709.100  0.500  3.041779  115.464210  59.680899  2.849755
  5709.394  5709.400  0.500  3.041278  115.460391  59.689050  2.851573
  5709.694  5709.700  0.500  3.040998  115.471156  59.703175  2.853045
  5709.989  5710.000  0.500  3.040858  115.493483  59.730489  2.854750
  5710.292  5710.300  0.500  3.040496  115.495636  59.744796  2.856467
  5710.594  5710.600  0.500  3.039892  115.495086  59.744328  2.858172
  5710.898  5710.900  0.500  3.039733  115.509696  59.745615  2.858689
  5711.192  5711.200  0.500  3.039243  115.493396  59.749221  2.860262
  5711.497  5711.500  0.500  3.039377  115.515795  59.773905  2.861059
  5711.799  5711.800  0.500  3.038770  115.517036  59.805665  2.864320
  5712.096  5712.100  0.500  3.038932  115.534536  59.836017  2.865308
  5712.393  5712.400  0.500  3.038446  115.533067  59.849349  2.867340
  5712.697  5712.700  0.500  3.038291  115.541316  59.872853  2.868910
  5712.994  5713.000  0.500  3.037859  115.551560  59.893611  2.871145
  5713.300  5713.300  0.500  3.037821  115.544892  59.906999  2.871895
  5713.597  5713.600  0.500  3.037695  115.554790  59.954893  2.874555
  5713.899  5713.900  0.500  3.037653  115.564322  59.944797  2.874190
  5714.197  5714.200  0.500  3.037631  115.553675  59.943129  2.874173
  5714.498  5714.500  0.500  3.037532  115.548536  59.948256  2.874704
  5714.795  5714.800  0.500  3.037708  115.562723  59.957584  2.874646
  5715.099  5715.100  0.500  3.037797  115.555632  59.957794  2.874400
  5715.397  5715.400  0.500  3.038209  115.571136  59.994965  2.874998
  5715.701  5715.700  0.500  3.038636  115.556266  60.011893  2.874579
  5715.998  5716.000  0.500  3.039324  115.585036  60.058036  2.874811
  5716.301  5716.300  0.500  3.039829  115.574855  60.034872  2.872253
  5716.597  5716.600  0.500  3.040304  115.605876  60.038892  2.871082
  5716.896  5716.900  0.500  3.040947  115.594001  60.046100  2.869579
  5717.194  5717.200  0.500  3.041768  115.585951  60.049589  2.867390
  5717.503  5717.500  0.500  3.042726  115.582630  60.057859  2.865042
  5717.800  5717.800  0.500  3.043559  115.905188  60.245870  2.871617
  5718.101  5718.100  0.500  3.044442  115.935027  60.260497  2.869778
  5718.399  5718.400  0.500  3.045903  115.959318  60.293850  2.867173
  5718.701  5718.700  0.500  3.047325  115.961772  60.316368  2.864168
  5718.999  5719.000  0.500  3.048515  116.007679  60.343675  2.862059
  5719.295  5719.300  0.500  3.049905  116.016836  60.362336  2.858967
  5719.600  5719.600  0.500  3.050600  116.016459  60.377469  2.857696
  5719.901  5719.900  0.500  3.050883  116.002299  60.386884  2.857332
  5720.202  5720.200  0.500  3.050642  116.015211  60.398161  2.858556
  5720.497  5720.500  0.500  3.050721  116.017549  60.407713  2.858782
  5720.804  5720.800  0.500  3.049913  116.023025  60.437671  2.862513
  5721.100  5721.100  0.500  3.049301  116.038009  60.452710  2.864978
  5721.400  5721.400  0.500  3.048993  116.035959  60.454081  2.865924
  5721.701  5721.700  0.500  3.048439  116.041404  60.467795  2.868164
  5722.001  5722.000  0.500  3.048210  116.054865  60.490939  2.869918
  5722.302  5722.300  0.500  3.047963  116.069016  60.509741  2.871520
  5722.601  5722.600  0.500  3.047811  116.081322  60.520814  2.872483
  5722.901  5722.900  0.500  3.047438  116.050154  60.518997  2.873466
  5723.200  5723.200  0.500  3.047796  116.077502  60.564332  2.874590
  5723.499  5723.500  0.500  3.047626  116.077773  60.561818  2.874961
  5723.802  5723.800  0.500  3.047218  116.090941  60.587643  2.877358
  5724.103  5724.100  0.500  3.047098  116.076531  60.569706  2.876853
  5724.403  5724.400  0.500  3.046640  116.086099  60.605064  2.879852
  5724.700  5724.700  0.500  3.046408  116.089703  60.629360  2.881672
  5725.002  5725.000  0.500  3.046267  116.105397  60.666019  2.883822
  5725.305  5725.300  0.500  3.045976  116.122988  60.656909  2.884229
  5725.601  5725.600  0.500  3.045739  116.119965  60.694890  2.886718
  5725.901  5725.900  0.500  3.045474  116.118876  60.726041  2.888967
  5726.205  5726.200  0.500  3.044868  116.114532  60.747590  2.891742
  5726.506  5726.500  0.500  3.044256  116.116355  60.759437  2.894078
  5726.804  5726.800  0.500  3.043697  116.132180  60.782659  2.896802
  5727.105  5727.100  0.500  3.042730  116.140689  60.816703  2.901230
  5727.402  5727.400  0.500  3.041964  116.136229  60.834590  2.904306
  5727.701  5727.700  0.500  3.040850  116.132981  60.813763  2.906549
  5728.002  5728.000  0.500  3.039981  116.132270  60.807148  2.908758
  5728.303  5728.300  0.500  3.038898  116.117614  60.826530  2.912838
  5728.602  5728.600  0.500  3.038157  116.153654  60.859650  2.916585
  5728.903  5728.900  0.500  3.037411  116.151781  60.858812  2.918721
  5729.207  5729.200  0.500  3.036648  116.153163  60.882300  2.922078
  5729.507  5729.500  0.500  3.035820  116.170994  60.903769  2.925528
  5729.806  5729.800  0.500  3.035050  116.176232  60.913844  2.928267
  5730.103  5730.100  0.500  3.034335  116.186178  60.934594  2.931360
  5730.402  5730.400  0.500  3.033723  116.168150  60.956110  2.934188
  5730.700  5730.700  0.500  3.033070  116.180171  60.959629  2.936276
  5731.002  5731.000  0.500  3.032573  116.192135  60.986705  2.939040
  5731.301  5731.300  0.500  3.031989  116.193721  60.990083  2.940921
  5731.602  5731.600  0.500  3.031494  116.201677  60.990519  2.942395
  5731.903  5731.900  0.500  3.030901  116.204343  61.025094  2.945810
  5732.205  5732.200  0.500  3.030273  116.211423  61.066693  2.949672
  5732.504  5732.500  0.500  3.029543  116.203932  61.065509  2.951767
  5732.802  5732.800  0.500  3.028857  116.200671  61.061372  2.953594
  5733.099  5733.100  0.500  3.028281  116.228394  61.106274  2.957469
  5733.398  5733.400  0.500  3.027617  116.224665  61.060323  2.957207
  5733.700  5733.700  0.500  3.026875  116.238754  61.074300  2.960078
  5734.001  5734.000  0.500  3.026460  116.238891  61.071327  2.961164
  5734.301  5734.300  0.500  3.025793  116.260375  61.091863  2.964137
  5734.604  5734.600  0.500  3.024922  116.236241  61.124520  2.968305
  5734.903  5734.900  0.500  3.024826  116.269837  61.149578  2.969806
  5735.202  5735.200  0.500  3.024248  116.245100  61.140928  2.971104
  5735.504  5735.500  0.500  3.024181  116.236117  61.168078  2.972621
  5735.799  5735.800  0.500  3.023823  116.248455  61.181258  2.974329
  5736.103  5736.100  0.500  3.023501  116.252636  61.185019  2.975468
  5736.401  5736.400  0.500  3.023236  116.240202  61.182916  2.976155
  5736.703  5736.700  0.500  3.023441  116.250896  61.207545  2.976743
  5737.003  5737.000  0.500  3.023159  116.221429  61.199720  2.977200
  5737.303  5737.300  0.500  3.022716  116.256683  61.216180  2.979322
  5737.602  5737.600  0.500  3.022691  116.247556  61.233755  2.980251
  5737.901  5737.900  0.500  3.022403  116.235060  61.282499  2.983482
  5738.202  5738.200  0.500  3.022315  116.250751  61.280835  2.983663
  5738.502  5738.500  0.500  3.022084  116.283742  61.299133  2.985244
  5738.804  5738.800  0.500  3.021542  116.292814  61.342824  2.988991
  5739.104  5739.100  0.500  3.021254  116.314811  61.378240  2.991580
  5739.298  5739.300  0.500  3.021049  116.299882  61.372378  2.991908
  5740.304  5740.290  0.500  3.020012  116.348219  61.426304  2.997643
  5741.309  5741.290  0.500  3.018773  116.361272  61.468850  3.003438
  5742.307  5742.310  0.500  3.017825  116.358784  61.542793  3.009902
  5743.358  5743.360  0.500  3.016228  116.370468  61.586162  3.016836
  5744.423  5744.420  0.500  3.015139  116.393851  61.651306  3.023319
  5745.502  5745.500  0.500  3.014058  116.413611  61.706480  3.029298
  5746.602  5746.600  0.500  3.012534  116.441379  61.755894  3.036348
  5747.726  5747.720  0.500  3.011251  116.428358  61.806627  3.042744
  5748.868  5748.860  0.500  3.009744  116.475895  61.877386  3.050820
  5750.015  5750.010  0.500  3.008499  116.496123  61.939308  3.057678
  5751.199  5751.190  0.500  3.006827  116.514435  61.999639  3.065777
  5752.386  5752.380  0.500  3.005061  116.537753  62.064981  3.074434
  5753.606  5753.600  0.500  3.003327  116.558172  62.133379  3.083163
  5754.837  5754.830  0.500  3.001561  116.575299  62.192157  3.091535
  5756.085  5756.080  0.500  2.999884  116.592177  62.235576  3.098886
  5757.354  5757.350  0.500  2.998137  116.605802  62.287871  3.106914
  5758.643  5758.640  0.500  2.996127  116.625716  62.336943  3.115618
  5759.957  5759.950  0.500  2.994124  116.657334  62.410673  3.125557
  5761.283  5761.280  0.500  2.992360  116.710709  62.517092  3.136414
  5762.639  5762.630  0.500  2.990596  116.730602  62.588192  3.145526
  5764.008  5764.000  0.500  2.988336  116.748470  62.655138  3.156013
  5765.385  5765.380  0.500  2.986251  116.754346  62.720401  3.165895
  5766.800  5766.790  0.500  2.984389  116.791373  62.799091  3.175775
  5768.216  5768.210  0.500  2.982626  116.845164  62.890788  3.186024
  5769.655  5769.650  0.500  2.980735  116.848658  62.933229  3.194210
  5771.119  5771.110  0.500  2.978888  116.853443  63.007741  3.203903
  5772.592  5772.590  0.500  2.976902  116.890681  63.112282  3.215597
  5774.099  5774.090  0.500  2.974927  116.911793  63.199030  3.226382
  5775.619  5775.610  0.500  2.973095  116.936062  63.215345  3.233135
  5777.157  5777.150  0.500  2.971145  116.937286  63.290521  3.243297
  5778.713  5778.710  0.500  2.969543  116.970536  63.386319  3.253415
  5780.288  5780.280  0.500  2.967461  117.003613  63.474630  3.264738
  5781.889  5781.880  0.500  2.965328  117.013158  63.542899  3.275227
  5783.495  5783.490  0.500  2.963053  117.030845  63.608113  3.286055
  5785.140  5785.130  0.500  2.961272  117.076135  63.721770  3.297796
  5786.791  5786.780  0.500  2.958791  117.095251  63.820869  3.311128
  5788.457  5788.450  0.500  2.956932  117.103605  63.912973  3.322077
  5790.147  5790.140  0.500  2.954640  117.128720  63.956341  3.331961
  5791.857  5791.850  0.500  2.952533  117.152729  64.050271  3.343891
  5793.591  5793.580  0.500  2.949946  117.153471  64.123208  3.356372
  5795.339  5795.330  0.500  2.947629  117.155274  64.174819  3.366864
  5797.094  5797.090  0.500  2.945720  117.200626  64.264677  3.378021
  5798.885  5798.880  0.500  2.943079  117.211690  64.354049  3.391665
  5800.687  5800.680  0.500  2.940579  117.200969  64.432804  3.404317
  5802.520  5802.510  0.500  2.938393  117.206017  64.519969  3.416382
  5804.359  5804.350  0.500  2.936129  117.225568  64.624687  3.429683
  5806.221  5806.210  0.500  2.933717  117.248884  64.705015  3.442237
  5808.096  5808.090  0.500  2.931419  117.257049  64.789917  3.454684
  5809.993  5809.990  0.500  2.928962  117.256741  64.864448  3.467165
  5811.915  5811.910  0.500  2.926549  117.262560  64.979551  3.481710
  5813.854  5813.850  0.500  2.924116  117.254306  65.068109  3.494947
  5815.819  5815.810  0.500  2.921535  117.242688  65.144485  3.508094
  5817.785  5817.780  0.500  2.919180  117.273403  65.236674  3.521340
  5819.790  5819.780  0.500  2.916710  117.262922  65.326384  3.534904
  5821.795  5821.790  0.500  2.914132  117.259131  65.401972  3.548127
  5823.827  5823.820  0.500  2.911577  117.269970  65.497905  3.562425
  5825.888  5825.880  0.500  2.909153  117.277372  65.590122  3.576098
  5827.957  5827.950  0.500  2.906547  117.260721  65.672636  3.589940
  5830.047  5830.040  0.500  2.904047  117.259175  65.721734  3.601616
  5832.154  5832.150  0.500  2.901697  117.262577  65.830733  3.616077
  5834.286  5834.280  0.500  2.898972  117.262309  65.922154  3.630979
  5836.422  5836.420  0.500  2.896463  117.231195  66.011327  3.645025
  5838.597  5838.590  0.500  2.893850  117.219014  66.109299  3.659988
  5840.785  5840.780  0.500  2.891071  117.216130  66.193657  3.674854
  5842.986  5842.980  0.500  2.888280  117.186055  66.259107  3.688771
  5845.209  5845.200  0.500  2.885402  117.164463  66.327585  3.703223
  5847.456  5847.450  0.500  2.882652  117.127623  66.397917  3.717361
  5849.716  5849.710  0.500  2.880000  117.110160  66.458803  3.730650
  5851.996  5851.990  0.500  2.877109  117.070330  66.553064  3.746758
  5854.300  5854.290  0.500  2.874134  116.986692  66.630224  3.762277
  5856.616  5856.610  0.500  2.871274  116.926291  66.676542  3.775676
  5858.959  5858.950  0.500  2.868599  116.867839  66.753483  3.790159
  5861.308  5861.300  0.500  2.865546  116.787182  66.799876  3.804388
  5863.685  5863.680  0.500  2.862811  116.626892  66.816151  3.815736
  5866.076  5866.070  0.500  2.859593  116.379309  66.780188  3.825974
  5868.496  5868.490  0.500  2.856708  115.874929  66.592997  3.826274
  5870.928  5870.920  0.500  2.853791  114.287207  65.788189  3.791075
  5873.376  5873.370  0.500  2.850176  89.849479  51.772510  2.994217
  5875.859  5875.850  0.500  2.847794  117.774967  67.979393  3.940905
  5878.350  5878.340  0.500  2.845020  117.831211  68.128980  3.960550
  5880.861  5880.850  0.500  2.841761  117.526794  68.068866  3.969972
  5883.377  5883.370  0.500  2.838930  117.338960  68.066160  3.981068
  5885.932  5885.920  0.500  2.835866  117.495158  68.252103  4.004193
  5888.502  5888.490  0.500  2.832632  117.413092  68.329794  4.021739
  5891.081  5891.070  0.500  2.829635  117.326221  68.345777  4.034752
  5893.692  5893.680  0.500  2.826478  117.203928  68.406257  4.051090
  5896.310  5896.300  0.500  2.823387  117.122691  68.486909  4.068422
  5898.971  5898.950  0.500  2.820030  116.990131  68.548379  4.085769
  5901.619  5901.610  0.500  2.816961  116.833564  68.534358  4.097488
  5904.301  5904.290  0.500  2.813819  116.667485  68.560671  4.111963
  5907.002  5906.990  0.500  2.810435  116.441927  68.534239  4.124309
  5909.721  5909.710  0.500  2.807297  116.102536  68.434768  4.131266
  5912.463  5912.450  0.500  2.803731  115.387514  68.134227  4.127816
  5915.211  5915.200  0.500  2.800452  111.966090  66.223661  4.025247
  5917.992  5917.980  0.500  2.797923  109.451530  64.852300  3.951871
  5920.792  5920.770  0.500  2.793954  117.204784  69.556417  4.255380
  5923.613  5923.590  0.500  2.790442  116.995125  69.537448  4.269187
  5926.433  5926.420  0.500  2.786931  116.421014  69.338392  4.271939
  5929.280  5929.270  0.500  2.783930  115.105931  68.659034  4.242797
  5932.167  5932.150  0.500  2.781767  109.579524  65.500609  4.056385
  5935.056  5935.040  0.500  2.777208  115.808439  69.319552  4.312507
  5937.975  5937.950  0.500  2.773631  116.178786  69.654847  4.348894
  5940.896  5940.870  0.500  2.770401  115.307080  69.256519  4.338011
  5943.840  5943.820  0.500  2.767236  108.294478  65.147548  4.093573
  5946.813  5946.790  0.500  2.764074  111.093460  66.993195  4.222879
  5949.784  5949.770  0.500  2.759908  117.096124  70.726777  4.476834
  5952.797  5952.780  0.500  2.756398  116.713033  70.622301  4.485938
  5955.817  5955.800  0.500  2.752856  116.415359  70.572140  4.498658
  5958.873  5958.850  0.500  2.749119  116.176423  70.539623  4.513421
  5961.921  5961.910  0.500  2.745691  115.953908  70.551936  4.529713
  5964.998  5964.990  0.500  2.742352  115.761112  70.546268  4.544498
  5968.098  5968.090  0.500  2.738686  115.555755  70.506460  4.558613
