# XDI/1.0 BlueSky/1.10.0 BMM/2023-1.0-py310-tiled
# Beamline.name: BMM (06BM) -- Beamline for Materials Measurement (NIST)
# Beamline.xray_source: NSLS-II three-pole wiggler
# Beamline.collimation: paraboloid mirror, 5 nm Rh on 30 nm Pt
# Beamline.focusing: not in use
# Beamline.harmonic_rejection: flat mirror, Si stripe, pitch = 7.0 mrad relative to beam
# Beamline.software: Bluesky 1.10.0, Ophyd 1.7.0, DataBroker 2.0.0b13, Python 3.10.8, 2023-1.0-py310-tiled
# Detector.I0: 10 cm N2
# Detector.I1: 25 cm N2
# Detector.I2: 25 cm N2
# Element.symbol: La
# Element.edge: L1
# Element.reference: La
# Element.reference_material: La(OH)3
# Facility.name: NSLS-II
# Facility.energy: 3.0
# Facility.current: 398.6
# Facility.mode: top-off
# Facility.GUP: 301027
# Facility.SAF: 310583
# Facility.cycle: 2023-2
# Mono.name: Si(111)
# Mono.d_spacing: 3.1351860
# Mono.encoder_resolution: 0.0000050 deg/ct
# Mono.angle_offset: 16.0754326 deg
# Mono.scan_mode: pseudo channel cut
# Mono.scan_type: step
# Mono.direction: forward in energy
# Sample.name: La(OH)3
# Sample.prep: PEG pellet
# Sample.x: 109.138 mm
# Sample.y: 153.150 mm
# Sample.SDD_position: 205.000 mm
# Scan.experimenters: Bruce Ravel
# Scan.edge_energy: 6266.3
# Scan.start_time: 2023-05-28T12:14:57
# Scan.end_time: 2023-05-28T12:23:04
# Scan.transient_id: 78672
# Scan.uid: 1c7fe93c-c574-483a-b625-93c2d677014d
# Scan.plot_hint: ln(It/Ir)  --  ln($6/$7)
# Column.1: energy eV
# Column.2: requested_energy eV
# Column.3: measurement_time seconds
# Column.4: xmu 
# Column.5: I0 nA
# Column.6: It nA
# Column.7: Ir nA
# ///////////
# sample courtesy Martin Stennett, University of Sheffield
# -----------
# energy  requested_energy  measurement_time  xmu  I0  It  Ir
  6066.300  6066.300  0.500  4.017890  143.440451  92.688658  1.667551
  6076.309  6076.300  0.500  4.005391  143.932849  93.485980  1.703050
  6086.315  6086.300  0.500  3.989449  144.284661  94.220456  1.744013
  6096.301  6096.300  0.500  3.974364  144.707458  94.989389  1.784969
  6106.304  6106.300  0.500  3.959340  145.129722  95.790382  1.827268
  6116.325  6116.300  0.500  3.945421  145.549834  96.612437  1.868780
  6126.309  6126.300  0.500  3.930373  145.948820  97.360119  1.911797
  6136.314  6136.300  0.500  3.910958  146.305436  98.126572  1.964623
  6146.310  6146.300  0.500  3.892116  146.651315  98.891944  2.017606
  6156.314  6156.300  0.500  3.876935  146.983328  99.658037  2.064338
  6166.311  6166.300  0.500  3.864476  147.217214  100.357148  2.104883
  6176.310  6176.300  0.500  3.849029  147.673290  101.123334  2.153969
  6186.292  6186.300  0.500  3.832732  148.094535  101.952505  2.207311
  6196.301  6196.300  0.500  3.816544  148.098418  102.422345  2.253672
  6206.299  6206.300  0.500  3.801695  148.458986  103.182978  2.304374
  6216.296  6216.300  0.500  3.787979  148.750790  103.963289  2.353865
  6226.302  6226.300  0.500  3.774647  149.098076  104.729969  2.403048
  6236.300  6236.300  0.500  3.758678  149.409035  105.483295  2.459294
  6238.301  6238.300  0.500  3.755359  149.467249  105.624489  2.470773
  6240.296  6240.300  0.500  3.752283  149.553635  105.736356  2.481010
  6242.295  6242.300  0.500  3.748842  149.620962  105.869612  2.492700
  6244.299  6244.300  0.500  3.745680  149.637103  105.993312  2.503517
  6246.301  6246.300  0.500  3.742884  149.682643  106.191545  2.515222
  6248.294  6248.300  0.500  3.740084  149.780933  106.348887  2.526009
  6250.294  6250.300  0.500  3.737477  149.810027  106.504069  2.536300
  6252.295  6252.300  0.500  3.735023  149.881531  106.661011  2.546278
  6254.297  6254.300  0.500  3.732685  149.941589  106.819044  2.556020
  6256.294  6256.300  0.500  3.730490  149.982036  106.919144  2.564036
  6256.586  6256.600  0.500  3.730299  150.015902  106.938394  2.564989
  6256.886  6256.900  0.500  3.729987  150.019017  106.911263  2.565138
  6257.183  6257.200  0.500  3.729625  149.998841  106.975388  2.567606
  6257.483  6257.500  0.500  3.729580  150.014893  107.017261  2.568725
  6257.783  6257.800  0.500  3.728969  150.032752  106.942894  2.568511
  6258.085  6258.100  0.500  3.728607  150.010568  106.938772  2.569341
  6258.388  6258.400  0.500  3.728338  150.063403  107.049645  2.572698
  6258.688  6258.700  0.500  3.728241  150.065164  107.088538  2.573880
  6258.988  6259.000  0.500  3.727790  150.060580  107.118840  2.575771
  6259.287  6259.300  0.500  3.727681  150.051093  107.160325  2.577048
  6259.592  6259.600  0.500  3.727404  150.056474  107.113316  2.576631
  6259.891  6259.900  0.500  3.727189  150.054125  107.092545  2.576686
  6260.189  6260.200  0.500  3.726830  150.069798  107.124866  2.578390
  6260.488  6260.500  0.500  3.726529  150.026957  107.174992  2.580373
  6260.790  6260.800  0.500  3.726319  150.036913  107.163926  2.580649
  6261.089  6261.100  0.500  3.726157  150.054076  107.178620  2.581422
  6261.393  6261.400  0.500  3.725854  150.048367  107.201424  2.582751
  6261.691  6261.700  0.500  3.725701  150.029976  107.217127  2.583527
  6261.997  6262.000  0.500  3.725798  150.077686  107.288655  2.584997
  6262.297  6262.300  0.500  3.725340  150.093368  107.335575  2.587315
  6262.599  6262.600  0.500  3.725592  150.080232  107.326013  2.586431
  6262.895  6262.900  0.500  3.725068  150.090295  107.383380  2.589171
  6263.199  6263.200  0.500  3.725022  150.096233  107.364717  2.588840
  6263.493  6263.500  0.500  3.724827  150.103884  107.335207  2.588633
  6263.795  6263.800  0.500  3.725006  150.103826  107.382153  2.589302
  6264.093  6264.100  0.500  3.725145  150.130198  107.376405  2.588803
  6264.395  6264.400  0.500  3.724899  150.138816  107.371759  2.589327
  6264.693  6264.700  0.500  3.724948  150.103368  107.366321  2.589070
  6265.000  6265.000  0.500  3.725145  150.139531  107.411229  2.589641
  6265.298  6265.300  0.500  3.725291  150.153925  107.463484  2.590523
  6265.597  6265.600  0.500  3.725355  150.152148  107.503681  2.591328
  6265.896  6265.900  0.500  3.725412  150.163858  107.592592  2.593321
  6266.199  6266.200  0.500  3.725713  150.179042  107.616687  2.593122
  6266.495  6266.500  0.500  3.725934  150.191363  107.623289  2.592709
  6266.796  6266.800  0.500  3.726221  150.156635  107.525528  2.589610
  6267.097  6267.100  0.500  3.726585  150.196019  107.543611  2.589103
  6267.398  6267.400  0.500  3.726697  150.182066  107.553867  2.589060
  6267.695  6267.700  0.500  3.727037  150.208868  107.589123  2.589029
  6267.996  6268.000  0.500  3.727602  150.217218  107.617853  2.588256
  6268.298  6268.300  0.500  3.728466  150.223696  107.644178  2.586655
  6268.602  6268.600  0.500  3.729476  150.247431  107.683710  2.584993
  6268.900  6268.900  0.500  3.730588  150.228433  107.684887  2.582147
  6269.196  6269.200  0.500  3.731985  150.246752  107.713471  2.579226
  6269.494  6269.500  0.500  3.733438  150.259979  107.724212  2.575738
  6269.795  6269.800  0.500  3.735374  150.233703  107.718949  2.570631
  6270.100  6270.100  0.500  3.737787  150.255360  107.764317  2.565516
  6270.396  6270.400  0.500  3.740866  150.259714  107.771617  2.557801
  6270.699  6270.700  0.500  3.743955  150.276557  107.796005  2.550490
  6271.002  6271.000  0.500  3.747748  150.262928  107.810028  2.541165
  6271.302  6271.300  0.500  3.750798  150.262491  107.837577  2.534075
  6271.599  6271.600  0.500  3.754368  150.277899  107.848756  2.525305
  6271.899  6271.900  0.500  3.757130  150.256513  107.843528  2.518217
  6272.195  6272.200  0.500  3.759194  150.281249  107.909976  2.514574
  6272.497  6272.500  0.500  3.761093  150.282794  107.964095  2.511062
  6272.802  6272.800  0.500  3.762433  150.296520  107.986654  2.508224
  6273.100  6273.100  0.500  3.763663  150.312876  107.964916  2.504637
  6273.400  6273.400  0.500  3.765108  150.313552  108.017138  2.502229
  6273.703  6273.700  0.500  3.766484  150.310341  108.012246  2.498676
  6274.007  6274.000  0.500  3.768292  150.303941  108.044215  2.494899
  6274.302  6274.300  0.500  3.770018  150.307606  108.065998  2.491099
  6274.600  6274.600  0.500  3.772047  150.298198  108.093591  2.486685
  6274.895  6274.900  0.500  3.774532  150.318870  108.111492  2.480923
  6275.197  6275.200  0.500  3.777449  150.327453  108.136882  2.474278
  6275.499  6275.500  0.500  3.780544  150.342652  108.141392  2.466734
  6275.798  6275.800  0.500  3.783816  150.349447  108.174847  2.459439
  6276.099  6276.100  0.500  3.787579  150.356275  108.197025  2.450704
  6276.401  6276.400  0.500  3.791734  150.350944  108.182835  2.440222
  6276.700  6276.700  0.500  3.796353  150.368056  108.230447  2.430045
  6277.004  6277.000  0.500  3.801689  150.377803  108.275648  2.418122
  6277.301  6277.300  0.500  3.807007  150.379749  108.288196  2.405575
  6277.598  6277.600  0.500  3.812775  150.386751  108.323841  2.392528
  6277.895  6277.900  0.500  3.819116  150.373993  108.303147  2.376950
  6278.199  6278.200  0.500  3.826136  150.396427  108.330667  2.360923
  6278.499  6278.500  0.500  3.833827  150.399804  108.361366  2.343498
  6278.800  6278.800  0.500  3.841397  150.405958  108.395742  2.326562
  6279.100  6279.100  0.500  3.849476  150.411504  108.352614  2.306924
  6279.403  6279.400  0.500  3.857575  150.418791  108.391663  2.289140
  6279.703  6279.700  0.500  3.866428  150.403875  108.401696  2.269173
  6280.002  6280.000  0.500  3.875957  150.440804  108.435074  2.248345
  6280.298  6280.300  0.500  3.885625  150.411224  108.416224  2.226326
  6280.599  6280.600  0.500  3.895533  150.454591  108.496729  2.206013
  6280.900  6280.900  0.500  3.905518  150.438754  108.543071  2.185028
  6281.202  6281.200  0.500  3.914760  150.470650  108.518113  2.164431
  6281.504  6281.500  0.500  3.924170  150.484694  108.555789  2.144902
  6281.802  6281.800  0.500  3.933166  150.502530  108.633063  2.127207
  6282.103  6282.100  0.500  3.941660  150.519349  108.591734  2.108413
  6282.405  6282.400  0.500  3.949505  150.506189  108.614138  2.092368
  6282.705  6282.700  0.500  3.956929  150.520831  108.619851  2.077001
  6283.001  6283.000  0.500  3.963548  150.517093  108.649722  2.063867
  6283.297  6283.300  0.500  3.969806  150.525862  108.709194  2.052114
  6283.599  6283.600  0.500  3.974950  150.518124  108.707740  2.041557
  6283.902  6283.900  0.500  3.979191  150.517695  108.713113  2.033018
  6284.203  6284.200  0.500  3.982290  150.519093  108.747455  2.027367
  6284.498  6284.500  0.500  3.983743  150.520054  108.747919  2.024433
  6284.804  6284.800  0.500  3.984212  150.534260  108.793439  2.024330
  6285.103  6285.100  0.500  3.983284  150.547056  108.826594  2.026828
  6285.403  6285.400  0.500  3.981132  150.579892  108.859371  2.031806
  6285.699  6285.700  0.500  3.978568  150.553426  108.855677  2.036953
  6285.997  6286.000  0.500  3.975078  150.554616  108.874563  2.044428
  6286.300  6286.300  0.500  3.971039  150.568517  108.897005  2.053125
  6286.598  6286.600  0.500  3.966581  150.583041  108.905430  2.062459
  6286.901  6286.900  0.500  3.962150  150.590620  108.926982  2.072027
  6287.199  6287.200  0.500  3.957582  150.593767  108.952491  2.082002
  6287.502  6287.500  0.500  3.953269  150.591871  108.970726  2.091351
  6287.804  6287.800  0.500  3.948893  150.575489  108.969857  2.100506
  6288.105  6288.100  0.500  3.945039  150.587190  108.984515  2.108900
  6288.400  6288.400  0.500  3.941519  150.610426  108.991311  2.116470
  6288.702  6288.700  0.500  3.937855  150.625824  109.008505  2.124574
  6289.000  6289.000  0.500  3.934712  150.631022  109.049783  2.132068
  6289.300  6289.300  0.500  3.931388  150.613230  109.118101  2.140507
  6289.605  6289.600  0.500  3.928653  150.646450  109.120317  2.146414
  6289.905  6289.900  0.500  3.926060  150.658192  109.108223  2.151748
  6290.201  6290.200  0.500  3.923069  150.665623  109.153567  2.159089
  6290.503  6290.500  0.500  3.920350  151.130165  109.504654  2.171931
  6290.805  6290.800  0.500  3.917599  151.196931  109.553456  2.178886
  6291.098  6291.100  0.500  3.915056  151.217329  109.577532  2.184914
  6291.296  6291.300  0.500  3.913189  151.234482  109.593232  2.189311
  6292.301  6292.290  0.500  3.906179  151.271465  109.704702  2.206953
  6293.311  6293.290  0.500  3.901347  151.275114  109.762857  2.218820
  6294.310  6294.310  0.500  3.896979  151.320661  109.854003  2.230382
  6295.353  6295.360  0.500  3.891822  151.332543  109.914525  2.243150
  6296.423  6296.420  0.500  3.884761  151.362408  109.993628  2.260670
  6297.501  6297.500  0.500  3.876706  151.387995  110.066050  2.280455
  6298.601  6298.600  0.500  3.868251  151.387238  110.151042  2.301593
  6299.725  6299.720  0.500  3.858555  151.414786  110.208616  2.325232
  6300.861  6300.860  0.500  3.849049  151.466300  110.320345  2.349821
  6302.013  6302.010  0.500  3.840216  151.479688  110.378109  2.371911
  6303.196  6303.190  0.500  3.832928  151.492852  110.419965  2.390167
  6304.380  6304.380  0.500  3.826529  151.520585  110.539880  2.408123
  6305.605  6305.600  0.500  3.821917  151.566969  110.645126  2.421558
  6306.830  6306.830  0.500  3.818497  151.572658  110.698238  2.431019
  6308.084  6308.080  0.500  3.815659  151.587080  110.745950  2.438979
  6309.353  6309.350  0.500  3.813278  151.579200  110.833397  2.446725
  6310.641  6310.640  0.500  3.812802  151.613869  110.942322  2.450294
  6311.952  6311.950  0.500  3.813693  151.629832  110.991385  2.449196
  6313.283  6313.280  0.500  3.817358  151.651441  111.019936  2.440864
  6314.636  6314.630  0.500  3.821889  151.665178  111.107774  2.431752
  6316.002  6316.000  0.500  3.826243  151.675874  111.201296  2.423225
  6317.389  6317.380  0.500  3.829017  151.666385  111.262024  2.417832
  6318.794  6318.790  0.500  3.830814  151.706002  111.389654  2.416258
  6320.219  6320.210  0.500  3.832439  151.705422  111.502997  2.414791
  6321.656  6321.650  0.500  3.832863  151.676065  111.526777  2.414282
  6323.117  6323.110  0.500  3.832395  151.720614  111.630837  2.417665
  6324.597  6324.590  0.500  3.831478  151.748605  111.733392  2.422107
  6326.094  6326.090  0.500  3.830263  151.774562  111.840535  2.427376
  6327.616  6327.610  0.500  3.829832  151.741880  111.907138  2.429869
  6329.154  6329.150  0.500  3.829912  151.774059  111.999295  2.431676
  6330.718  6330.710  0.500  3.829394  151.759900  112.073000  2.434536
  6332.286  6332.280  0.500  3.827668  151.801883  112.193664  2.441369
  6333.887  6333.880  0.500  3.824462  151.815342  112.288775  2.451283
  6335.498  6335.490  0.500  3.820966  151.788276  112.342190  2.461040
  6337.140  6337.130  0.500  3.815772  151.862167  112.464560  2.476549
  6338.784  6338.780  0.500  3.810294  151.883781  112.563657  2.492347
  6340.459  6340.450  0.500  3.803925  151.906390  112.697370  2.511251
  6342.145  6342.140  0.500  3.797186  151.906744  112.784549  2.530188
  6343.859  6343.850  0.500  3.789798  151.877966  112.845066  2.550318
  6345.590  6345.580  0.500  3.782748  151.940049  112.983966  2.571523
  6347.336  6347.330  0.500  3.776771  151.953127  113.094678  2.589472
  6349.096  6349.090  0.500  3.771653  151.969446  113.227333  2.605813
  6350.888  6350.880  0.500  3.766899  151.952083  113.231093  2.618316
  6352.689  6352.680  0.500  3.762924  152.017134  113.342647  2.631336
  6354.519  6354.510  0.500  3.759153  152.024297  113.493247  2.644787
  6356.364  6356.350  0.500  3.756030  152.032067  113.606999  2.655719
  6358.214  6358.210  0.500  3.753803  152.074213  113.758101  2.665179
  6360.100  6360.090  0.500  3.752001  152.081904  113.854866  2.672257
  6362.001  6361.990  0.500  3.750530  152.148447  113.983620  2.679218
  6363.917  6363.910  0.500  3.749703  152.139945  114.073938  2.683559
  6365.859  6365.850  0.500  3.749314  152.193109  114.218031  2.687993
  6367.820  6367.810  0.500  3.748670  152.206843  114.306607  2.691811
  6369.789  6369.780  0.500  3.747318  152.221869  114.415635  2.698024
  6371.795  6371.780  0.500  3.745127  152.267569  114.597788  2.708247
  6373.804  6373.790  0.500  3.742092  152.303278  114.774975  2.720679
  6375.826  6375.820  0.500  3.738839  152.336705  114.829886  2.730850
  6377.889  6377.880  0.500  3.735325  152.339399  114.915378  2.742502
  6379.963  6379.950  0.500  3.732162  152.354341  115.024562  2.753804
  6382.054  6382.040  0.500  3.728888  152.382099  115.160366  2.766098
  6384.161  6384.150  0.500  3.725945  152.403243  115.293325  2.777454
  6386.289  6386.280  0.500  3.723367  152.442976  115.476868  2.789055
  6388.435  6388.420  0.500  3.720631  152.441793  115.611175  2.799950
  6390.604  6390.590  0.500  3.718290  152.477016  115.736329  2.809551
  6392.791  6392.780  0.500  3.715897  152.510704  115.839689  2.818798
  6394.993  6394.980  0.500  3.713399  152.521001  115.993696  2.829603
  6397.211  6397.200  0.500  3.711125  152.536938  116.106495  2.838803
  6399.464  6399.450  0.500  3.708808  152.577885  116.203001  2.847754
  6401.725  6401.710  0.500  3.706316  152.612240  116.335601  2.858117
  6404.006  6403.990  0.500  3.702540  152.612467  116.439834  2.871501
  6406.301  6406.290  0.500  3.697258  152.636190  116.578965  2.890157
  6408.621  6408.610  0.500  3.692565  152.669348  116.740142  2.907766
  6410.964  6410.950  0.500  3.688288  152.702446  116.899487  2.924215
  6413.315  6413.300  0.500  3.683514  152.730553  117.035906  2.941639
  6415.695  6415.680  0.500  3.678819  152.742617  117.162413  2.958678
  6418.079  6418.070  0.500  3.674289  152.776328  117.316739  2.976026
  6420.496  6420.490  0.500  3.670088  152.811298  117.453319  2.992034
  6422.933  6422.920  0.500  3.666395  152.794224  117.596893  3.006773
  6425.383  6425.370  0.500  3.662552  152.833711  117.743106  3.022105
  6427.862  6427.850  0.500  3.659067  152.834432  117.870766  3.035944
  6430.351  6430.340  0.500  3.656032  152.823435  117.976541  3.047904
  6432.864  6432.850  0.500  3.653555  152.792775  118.130904  3.059461
  6435.384  6435.370  0.500  3.651051  152.766930  118.223850  3.069543
  6437.933  6437.920  0.500  3.648391  152.814387  118.384314  3.081896
  6440.503  6440.490  0.500  3.645362  152.919731  118.637544  3.097858
  6443.083  6443.070  0.500  3.642329  152.958667  118.781325  3.111033
  6445.693  6445.680  0.500  3.638960  152.923741  118.895668  3.124539
  6448.312  6448.300  0.500  3.635183  152.300960  118.576920  3.127952
  6450.961  6450.950  0.500  3.631003  152.798144  119.046275  3.153489
  6453.619  6453.610  0.500  3.626432  152.991676  119.314083  3.175063
  6456.299  6456.290  0.500  3.622456  153.043839  119.476069  3.192040
  6458.994  6458.990  0.500  3.618789  151.830463  118.670773  3.182172
  6461.714  6461.710  0.500  3.614862  153.003730  119.753419  3.223837
  6464.457  6464.450  0.500  3.610945  151.658273  118.876519  3.212791
  6467.208  6467.200  0.500  3.607217  152.905089  119.998835  3.255237
  6469.990  6469.980  0.500  3.603548  153.055773  120.251247  3.274076
  6472.778  6472.770  0.500  3.599571  153.126024  120.433496  3.292104
  6475.596  6475.590  0.500  3.595737  152.436373  120.035716  3.293834
  6478.433  6478.420  0.500  3.591804  153.053382  120.638130  3.323412
  6481.279  6481.270  0.500  3.587576  153.093221  120.818244  3.342474
  6484.169  6484.150  0.500  3.583614  153.140039  121.022120  3.361405
  6487.048  6487.040  0.500  3.579553  153.204232  121.203788  3.380150
  6489.962  6489.950  0.500  3.575036  153.217333  121.354200  3.399667
  6492.889  6492.870  0.500  3.570561  153.244344  121.495555  3.418893
  6495.828  6495.820  0.500  3.565784  153.252534  121.670968  3.440222
  6498.803  6498.790  0.500  3.561137  153.244651  121.830917  3.460792
  6501.782  6501.770  0.500  3.556287  153.239137  121.993204  3.482248
  6504.796  6504.780  0.500  3.551779  153.276258  122.180958  3.503367
  6507.818  6507.800  0.500  3.547218  153.297844  122.338546  3.523921
