# XDI/1.0 BlueSky/1.10.0 BMM/2023-1.0-py310-tiled
# Beamline.name: BMM (06BM) -- Beamline for Materials Measurement (NIST)
# Beamline.xray_source: NSLS-II three-pole wiggler
# Beamline.collimation: paraboloid mirror, 5 nm Rh on 30 nm Pt
# Beamline.focusing: not in use
# Beamline.harmonic_rejection: flat mirror, Pt stripe, pitch = 7.0 mrad relative to beam
# Beamline.software: Bluesky 1.10.0, Ophyd 1.7.0, DataBroker 2.0.0b13, Python 3.10.8, 2023-1.0-py310-tiled
# Detector.I0: 10 cm N2
# Detector.I1: 25 cm N2
# Detector.I2: 25 cm N2
# Element.symbol: As
# Element.edge: K
# Element.reference: As
# Element.reference_material: As2O3
# Facility.name: NSLS-II
# Facility.energy: 3.0
# Facility.current: 400.2
# Facility.mode: top-off
# Facility.GUP: 301027
# Facility.SAF: 310583
# Facility.cycle: 2023-2
# Mono.name: Si(111)
# Mono.d_spacing: 3.1351860
# Mono.encoder_resolution: 0.0000050 deg/ct
# Mono.angle_offset: 16.0754326 deg
# Mono.scan_mode: pseudo channel cut
# Mono.scan_type: step
# Mono.direction: forward in energy
# Sample.name: NaAsO2
# Sample.prep: powder in PEG pellet
# Sample.x: 115.008 mm
# Sample.y: 114.461 mm
# Sample.SDD_position: 170.000 mm
# Scan.experimenters: Bruce Ravel
# Scan.edge_energy: 11866.7
# Scan.start_time: 2023-07-10T16:28:30
# Scan.end_time: 2023-07-10T16:36:25
# Scan.transient_id: 90286
# Scan.uid: 9d345a00-46ad-417e-9e0f-1206f92e57f2
# Scan.plot_hint: ln(I0/It)  --  ln($5/$6)
# Column.1: energy eV
# Column.2: requested_energy eV
# Column.3: measurement_time seconds
# Column.4: xmu 
# Column.5: I0 nA
# Column.6: It nA
# Column.7: Ir nA
# ///////////
# sample courtesy Evan Jahrman, NIST
# -----------
# energy  requested_energy  measurement_time  xmu  I0  It  Ir
  11666.689  11666.700  0.500  -0.037501  64.974042  67.456909  45.821318
  11676.721  11676.700  0.500  -0.039022  64.869215  67.450610  45.859296
  11686.753  11686.700  0.500  -0.040533  64.734708  67.412529  45.872974
  11696.742  11696.700  0.500  -0.042075  64.617687  67.394474  45.904275
  11706.719  11706.700  0.500  -0.043605  64.493039  67.367439  45.927069
  11716.725  11716.700  0.500  -0.045111  64.368174  67.338365  45.946377
  11726.767  11726.700  0.500  -0.046634  64.204439  67.269474  45.944382
  11736.742  11736.700  0.500  -0.048106  63.906141  67.055566  45.833611
  11746.770  11746.700  0.500  -0.049552  63.709056  66.945493  45.797454
  11756.744  11756.700  0.500  -0.051140  63.684825  67.026378  45.880199
  11766.747  11766.700  0.500  -0.052551  63.654707  67.089295  45.967262
  11776.737  11776.700  0.500  -0.053981  63.327043  66.839430  45.829457
  11786.744  11786.700  0.500  -0.055402  63.392748  67.003929  45.969091
  11796.756  11796.700  0.500  -0.056760  63.263599  66.958314  45.964521
  11806.737  11806.700  0.500  -0.058169  62.891221  66.658007  45.774091
  11816.748  11816.700  0.500  -0.059444  62.956749  66.812621  45.886227
  11826.745  11826.700  0.500  -0.060595  62.823087  66.747524  45.826283
  11836.753  11836.700  0.500  -0.061405  62.701020  66.671837  45.721887
  11838.692  11838.700  0.500  -0.061515  62.692906  66.670556  45.696280
  11840.681  11840.700  0.500  -0.061639  62.661758  66.645694  45.655931
  11842.688  11842.700  0.500  -0.061666  62.633301  66.617206  45.602617
  11844.696  11844.700  0.500  -0.061562  62.602860  66.577939  45.545670
  11846.693  11846.700  0.500  -0.061631  62.569189  66.546675  45.468078
  11848.672  11848.700  0.500  -0.061382  62.366905  66.315048  45.253174
  11850.694  11850.700  0.500  -0.061148  62.514224  66.456106  45.273166
  11852.687  11852.700  0.500  -0.060806  62.493612  66.411491  45.149476
  11854.687  11854.700  0.500  -0.060185  62.449566  66.323514  44.960643
  11856.687  11856.700  0.500  -0.059365  62.269929  66.078518  44.624965
  11856.944  11857.000  0.500  -0.059269  62.301704  66.105895  44.616667
  11857.262  11857.300  0.500  -0.059070  62.347253  66.141082  44.604874
  11857.555  11857.600  0.500  -0.058888  62.370896  66.154076  44.580954
  11857.855  11857.900  0.500  -0.058661  62.394872  66.164495  44.553827
  11858.167  11858.200  0.500  -0.058503  62.396341  66.155600  44.507444
  11858.467  11858.500  0.500  -0.058273  62.369729  66.112197  44.443097
  11858.773  11858.800  0.500  -0.058019  62.315687  66.038151  44.346533
  11859.073  11859.100  0.500  -0.057835  62.233604  65.938971  44.237807
  11859.385  11859.400  0.500  -0.057466  62.163897  65.840844  44.120468
  11859.679  11859.700  0.500  -0.057261  62.095392  65.754816  44.011756
  11859.973  11860.000  0.500  -0.056883  62.054648  65.686853  43.916273
  11860.285  11860.300  0.500  -0.056536  62.026638  65.634394  43.825469
  11860.579  11860.600  0.500  -0.056218  62.044602  65.632560  43.761811
  11860.885  11860.900  0.500  -0.055785  62.089526  65.651643  43.708173
  11861.185  11861.200  0.500  -0.055362  62.132076  65.668836  43.650910
  11861.479  11861.500  0.500  -0.054932  62.198694  65.710989  43.604184
  11861.791  11861.800  0.500  -0.054457  62.232959  65.715943  43.531901
  11862.085  11862.100  0.500  -0.053957  62.228013  65.677911  43.432143
  11862.385  11862.400  0.500  -0.053417  62.190181  65.602502  43.293903
  11862.666  11862.700  0.500  -0.052892  62.153483  65.529381  43.148620
  11862.973  11863.000  0.500  -0.052218  62.126430  65.456764  43.005471
  11863.279  11863.300  0.500  -0.051520  62.117448  65.401633  42.858173
  11863.567  11863.600  0.500  -0.050808  62.142374  65.381311  42.734707
  11863.873  11863.900  0.500  -0.049889  62.179309  65.360080  42.589714
  11864.173  11864.200  0.500  -0.048880  62.225957  65.343128  42.445625
  11864.486  11864.500  0.500  -0.047892  62.256314  65.310428  42.268260
  11864.773  11864.800  0.500  -0.046896  62.277958  65.268138  42.080231
  11865.080  11865.100  0.500  -0.045547  62.295275  65.198238  41.848932
  11865.380  11865.400  0.500  -0.044247  62.286774  65.104655  41.597133
  11865.699  11865.700  0.500  -0.042525  62.300811  65.007292  41.296962
  11865.987  11866.000  0.500  -0.040837  62.284117  64.880241  40.983743
  11866.299  11866.300  0.500  -0.038711  62.293235  64.751952  40.628069
  11866.593  11866.600  0.500  -0.036526  62.277371  64.594178  40.231140
  11866.906  11866.900  0.500  -0.033756  62.274501  64.412544  39.769037
  11867.194  11867.200  0.500  -0.030856  62.264113  64.215289  39.285090
  11867.494  11867.500  0.500  -0.027183  62.259388  63.974971  38.712256
  11867.794  11867.800  0.500  -0.023143  62.249880  63.707300  38.091810
  11868.095  11868.100  0.500  -0.018371  62.250435  63.404581  37.381227
  11868.401  11868.400  0.500  -0.012718  62.236817  63.033383  36.583050
  11868.689  11868.700  0.500  -0.006122  62.234647  62.616788  35.709906
  11868.996  11869.000  0.500  0.001986  62.226796  62.103338  34.662262
  11869.278  11869.300  0.500  0.011337  62.220454  61.519035  33.576615
  11869.590  11869.600  0.500  0.023873  62.215324  60.747656  32.238585
  11869.872  11869.900  0.500  0.038947  62.202230  59.826226  30.777854
  11870.185  11870.200  0.500  0.058729  62.178621  58.632099  29.077796
  11870.486  11870.500  0.500  0.084027  62.130812  57.123440  27.168154
  11870.786  11870.800  0.500  0.115114  62.080598  55.330237  25.155219
  11871.099  11871.100  0.500  0.156608  62.028602  53.036877  22.875582
  11871.393  11871.400  0.500  0.203450  62.014400  50.598223  20.709553
  11871.694  11871.700  0.500  0.257032  62.018622  47.961682  18.585685
  11872.013  11872.000  0.500  0.318312  62.066906  45.145988  16.502964
  11872.295  11872.300  0.500  0.370998  62.099458  42.851455  14.919370
  11872.602  11872.600  0.500  0.417209  62.135316  40.939915  13.642697
  11872.896  11872.900  0.500  0.446142  62.156783  39.786106  12.875333
  11873.203  11873.200  0.500  0.456313  62.168657  39.391023  12.566361
  11873.503  11873.500  0.500  0.448779  62.173922  39.692275  12.668627
  11873.804  11873.800  0.500  0.429386  62.170644  40.467422  13.059897
  11874.111  11874.100  0.500  0.401267  62.166663  41.618777  13.682548
  11874.393  11874.400  0.500  0.374720  62.170949  42.741385  14.319633
  11874.688  11874.700  0.500  0.349137  62.156405  43.838699  14.969795
  11874.994  11875.000  0.500  0.326626  62.144322  44.828042  15.576569
  11875.295  11875.300  0.500  0.309295  62.138523  45.607463  16.075577
  11875.596  11875.600  0.500  0.295288  62.137791  46.250247  16.493156
  11875.890  11875.900  0.500  0.283684  62.122472  46.778485  16.852403
  11876.197  11876.200  0.500  0.272932  62.126736  47.287440  17.206733
  11876.492  11876.500  0.500  0.263513  62.122125  47.731375  17.528886
  11876.805  11876.800  0.500  0.253386  62.108378  48.206542  17.898897
  11877.094  11877.100  0.500  0.243210  62.104419  48.696501  18.295083
  11877.407  11877.400  0.500  0.232551  62.097196  49.212616  18.756803
  11877.701  11877.700  0.500  0.222391  62.093348  49.712093  19.229181
  11878.002  11878.000  0.500  0.213103  62.086561  50.170484  19.710418
  11878.321  11878.300  0.500  0.204545  62.074807  50.592099  20.200067
  11878.610  11878.600  0.500  0.197943  62.068627  50.922112  20.629488
  11878.911  11878.900  0.500  0.192548  62.063297  51.193205  21.032650
  11879.200  11879.200  0.500  0.189038  62.113248  51.414571  21.379916
  11879.507  11879.500  0.500  0.186997  62.273218  51.652303  21.709311
  11879.801  11879.800  0.500  0.186270  62.266769  51.684490  21.903385
  11880.096  11880.100  0.500  0.186618  62.262115  51.662659  22.023338
  11880.403  11880.400  0.500  0.188055  62.256263  51.583643  22.077805
  11880.692  11880.700  0.500  0.189799  62.240714  51.480867  22.067420
  11880.993  11881.000  0.500  0.192222  62.243840  51.358865  21.998361
  11881.282  11881.300  0.500  0.194493  62.239325  51.238667  21.872026
  11881.601  11881.600  0.500  0.196802  62.232159  51.114561  21.697449
  11881.878  11881.900  0.500  0.198499  62.222772  51.020240  21.496128
  11882.197  11882.200  0.500  0.199698  62.219972  50.956788  21.270574
  11882.492  11882.500  0.500  0.200195  62.213352  50.926038  21.059753
  11882.799  11882.800  0.500  0.199864  62.206125  50.936997  20.864155
  11883.107  11883.100  0.500  0.198669  62.190031  50.984709  20.717241
  11883.395  11883.400  0.500  0.196698  62.182119  51.078774  20.626258
  11883.721  11883.700  0.500  0.194148  62.161651  51.192372  20.580025
  11884.010  11884.000  0.500  0.190955  62.107519  51.311346  20.586273
  11884.311  11884.300  0.500  0.187193  62.013634  51.426891  20.631772
  11884.606  11884.600  0.500  0.183328  61.857825  51.496312  20.696287
  11884.914  11884.900  0.500  0.178852  61.698114  51.593778  20.800028
  11885.209  11885.200  0.500  0.174475  61.569346  51.711946  20.922911
  11885.504  11885.500  0.500  0.169905  61.501481  51.891574  21.088702
  11885.799  11885.800  0.500  0.165439  61.489821  52.113953  21.270826
  11886.106  11886.100  0.500  0.160918  61.536304  52.389644  21.468335
  11886.395  11886.400  0.500  0.156812  61.620018  52.676784  21.658493
  11886.690  11886.700  0.500  0.153119  61.718263  52.955961  21.834277
  11886.998  11887.000  0.500  0.149700  61.839716  53.241891  22.008395
  11887.287  11887.300  0.500  0.146607  61.954289  53.505811  22.164172
  11887.588  11887.600  0.500  0.144223  62.024890  53.694597  22.280150
  11887.877  11887.900  0.500  0.142392  62.074325  53.835910  22.373045
  11888.191  11888.200  0.500  0.140789  62.098530  53.943267  22.447724
  11888.492  11888.500  0.500  0.139812  62.114983  54.010334  22.506226
  11888.800  11888.800  0.500  0.139364  62.111352  54.031385  22.550708
  11889.095  11889.100  0.500  0.139242  62.117717  54.043504  22.596451
  11889.403  11889.400  0.500  0.139295  62.116738  54.039806  22.639925
  11889.704  11889.700  0.500  0.139551  62.107298  54.017746  22.683175
  11890.012  11890.000  0.500  0.139889  62.120176  54.010682  22.742966
  11890.307  11890.300  0.500  0.140201  62.122281  53.995667  22.806666
  11890.621  11890.600  0.500  0.140643  62.119711  53.969556  22.876617
  11890.904  11890.900  0.500  0.140801  62.109945  53.952577  22.943891
  11891.224  11891.200  0.500  0.140965  62.105594  53.939931  23.014288
  11891.507  11891.500  0.500  0.141006  62.104878  53.937089  23.074989
  11891.710  11891.700  0.500  0.140908  62.103156  53.940892  23.112723
  11892.707  11892.690  0.500  0.140143  62.096979  53.976802  23.271726
  11893.692  11893.690  0.500  0.138150  62.085313  54.074313  23.478423
  11894.714  11894.710  0.500  0.134951  62.070909  54.235009  23.832590
  11895.779  11895.760  0.500  0.130533  62.060790  54.466280  24.223006
  11896.845  11896.820  0.500  0.125802  62.039408  54.705692  24.478098
  11897.923  11897.900  0.500  0.121815  62.024700  54.911201  24.602430
  11899.026  11899.000  0.500  0.118791  62.007277  55.062070  24.684505
  11900.123  11900.120  0.500  0.116026  61.961637  55.173895  24.763798
  11901.282  11901.260  0.500  0.113570  61.724335  55.097722  24.775944
  11902.428  11902.410  0.500  0.111204  61.305434  54.853409  24.707933
  11903.606  11903.590  0.500  0.108942  61.584960  55.228335  24.941698
  11904.796  11904.780  0.500  0.106734  61.904017  55.637172  25.219787
  11906.011  11906.000  0.500  0.104563  61.924988  55.776927  25.378722
  11907.233  11907.230  0.500  0.102259  61.907786  55.890088  25.496584
  11908.486  11908.480  0.500  0.100440  61.909180  55.993107  25.601798
  11909.757  11909.750  0.500  0.099455  61.888931  56.029972  25.671586
  11911.066  11911.040  0.500  0.099595  61.868455  56.003566  25.665678
  11912.363  11912.350  0.500  0.100438  61.850487  55.940137  25.568467
  11913.685  11913.680  0.500  0.101753  61.829869  55.848014  25.404212
  11915.044  11915.030  0.500  0.103213  61.792267  55.732620  25.201315
  11916.416  11916.400  0.500  0.104934  61.563418  55.430699  24.927670
  11917.800  11917.780  0.500  0.106636  61.114228  54.932700  24.584954
  11919.210  11919.190  0.500  0.108725  61.539104  55.199145  24.627585
  11920.620  11920.610  0.500  0.111017  61.736720  55.249630  24.605916
  11922.067  11922.050  0.500  0.113787  61.732607  55.093138  24.496840
  11923.540  11923.510  0.500  0.116368  61.714113  54.934668  24.360089
  11925.019  11924.990  0.500  0.118722  61.708149  54.800234  24.208525
  11926.498  11926.490  0.500  0.120876  61.688186  54.664593  24.037417
  11928.021  11928.010  0.500  0.122711  61.662926  54.542059  23.867389
  11929.545  11929.550  0.500  0.124299  61.636627  54.432291  23.720361
  11931.131  11931.110  0.500  0.126232  61.616738  54.309652  23.600941
  11932.711  11932.680  0.500  0.127886  61.583240  54.190376  23.513977
  11934.285  11934.280  0.500  0.129214  61.317442  53.884887  23.342889
  11935.885  11935.890  0.500  0.130499  60.916630  53.463923  23.107567
  11937.553  11937.530  0.500  0.131569  61.416970  53.845392  23.250130
  11939.191  11939.180  0.500  0.132301  61.469817  53.852335  23.250690
  11940.841  11940.850  0.500  0.133068  61.461221  53.803493  23.222334
  11942.548  11942.540  0.500  0.133478  61.442583  53.765125  23.180947
  11944.268  11944.250  0.500  0.133727  61.424269  53.735739  23.135104
  11945.994  11945.980  0.500  0.133584  61.398870  53.721208  23.100341
  11947.728  11947.730  0.500  0.133331  61.375779  53.714577  23.088826
  11949.493  11949.490  0.500  0.133076  61.354902  53.709968  23.102272
  11951.283  11951.280  0.500  0.132557  61.325638  53.712246  23.149769
  11953.080  11953.080  0.500  0.131619  61.297363  53.737874  23.229920
  11954.908  11954.910  0.500  0.130220  61.275054  53.793487  23.320992
  11956.744  11956.750  0.500  0.128527  61.258420  53.870027  23.402979
  11958.586  11958.610  0.500  0.126619  61.226911  53.945170  23.470024
  11960.491  11960.490  0.500  0.124710  61.197260  54.022072  23.538105
  11962.378  11962.390  0.500  0.122976  61.170594  54.092245  23.611992
  11964.272  11964.310  0.500  0.121325  61.146435  54.160228  23.687985
  11966.229  11966.250  0.500  0.119689  61.114140  54.220239  23.757229
  11968.192  11968.210  0.500  0.118199  61.092352  54.281734  23.812541
  11970.587  11970.180  0.500  0.116550  61.045561  54.329658  23.872956
  11972.146  11972.180  0.500  0.115435  61.013450  54.361665  23.914874
  11974.368  11974.190  0.500  0.114198  60.982171  54.401077  23.967004
  11976.340  11976.220  0.500  0.112804  60.953978  54.451768  24.018657
  11978.345  11978.280  0.500  0.111994  60.916044  54.461954  24.054192
  11980.350  11980.350  0.500  0.111091  60.869341  54.469358  24.090891
  11982.412  11982.440  0.500  0.110491  60.840849  54.476577  24.138823
  11984.512  11984.550  0.500  0.109968  60.810353  54.477743  24.190178
  11986.645  11986.680  0.500  0.109493  60.788015  54.483576  24.238387
  11988.790  11988.820  0.500  0.108938  60.761976  54.490517  24.281584
  11990.962  11990.990  0.500  0.108476  60.728658  54.485776  24.306310
  11993.147  11993.180  0.500  0.108029  60.695646  54.480498  24.321404
  11995.357  11995.380  0.500  0.107451  60.660945  54.480826  24.333210
  11997.581  11997.600  0.500  0.106986  60.631281  54.479546  24.339155
  11999.837  11999.850  0.500  0.106665  60.609429  54.477359  24.334892
  12002.094  12002.110  0.500  0.106426  60.571736  54.456513  24.309552
  12004.365  12004.390  0.500  0.106211  60.540561  54.440182  24.275452
  12006.667  12006.690  0.500  0.106152  60.514341  54.419797  24.237960
  12008.990  12009.010  0.500  0.106124  60.486000  54.395857  24.188286
  12011.338  12011.350  0.500  0.106063  60.455416  54.371664  24.139917
  12013.688  12013.700  0.500  0.106085  60.423781  54.342018  24.089735
  12016.063  12016.080  0.500  0.106151  60.393268  54.310966  24.043636
  12018.446  12018.470  0.500  0.106323  60.369701  54.280471  24.007760
  12020.873  12020.890  0.500  0.106647  60.331248  54.228340  23.966128
  12023.321  12023.320  0.500  0.107184  60.303164  54.173964  23.921495
  12025.763  12025.770  0.500  0.107572  60.268686  54.121983  23.883443
  12028.244  12028.250  0.500  0.108007  60.243637  54.075993  23.850133
  12030.720  12030.740  0.500  0.108282  60.201640  54.023424  23.818561
  12033.235  12033.250  0.500  0.108337  60.164423  53.987067  23.795798
  12035.769  12035.770  0.500  0.108580  60.127358  53.940656  23.765784
  12038.318  12038.320  0.500  0.108491  60.088616  53.910734  23.753381
  12040.886  12040.890  0.500  0.108213  60.050752  53.891713  23.764662
  12043.455  12043.470  0.500  0.107984  60.006343  53.864238  23.764448
  12046.064  12046.080  0.500  0.107221  59.850219  53.765058  23.745162
  12048.711  12048.700  0.500  0.106602  58.244835  52.355328  23.146461
  12051.347  12051.350  0.500  0.105916  59.790251  53.781352  23.805375
  12053.997  12054.010  0.500  0.105184  59.833444  53.859585  23.868421
  12056.674  12056.690  0.500  0.104518  59.815984  53.879743  23.906432
  12059.389  12059.390  0.500  0.103611  59.788176  53.903578  23.946254
  12062.125  12062.110  0.500  0.102635  59.751070  53.922707  23.975408
  12064.843  12064.850  0.500  0.101722  59.720054  53.943954  23.999871
  12067.588  12067.600  0.500  0.100702  59.672897  53.956384  24.012626
  12070.372  12070.380  0.500  0.099840  59.642418  53.975338  24.026693
  12073.164  12073.170  0.500  0.098919  59.603773  53.990080  24.040023
  12075.988  12075.990  0.500  0.098040  59.563600  54.001097  24.054376
  12078.814  12078.820  0.500  0.097200  59.522282  54.008993  24.073702
  12081.667  12081.670  0.500  0.096366  59.486900  54.021943  24.099547
  12084.553  12084.550  0.500  0.095725  59.439323  54.013344  24.113105
  12087.422  12087.440  0.500  0.095185  59.405747  54.011970  24.132983
  12090.348  12090.350  0.500  0.094575  59.355673  53.999395  24.146317
  12093.283  12093.270  0.500  0.094084  59.194742  53.879406  24.104601
  12096.219  12096.220  0.500  0.093694  59.299919  53.996214  24.171443
