# XDI/1.0 BlueSky/1.10.0 BMM/2023-1.0-py310-tiled
# Beamline.name: BMM (06BM) -- Beamline for Materials Measurement (NIST)
# Beamline.xray_source: NSLS-II three-pole wiggler
# Beamline.collimation: paraboloid mirror, 5 nm Rh on 30 nm Pt
# Beamline.focusing: not in use
# Beamline.harmonic_rejection: flat mirror, Pt stripe, pitch = 7.0 mrad relative to beam
# Beamline.software: Bluesky 1.10.0, Ophyd 1.7.0, DataBroker 2.0.0b13, Python 3.10.8, 2023-1.0-py310-tiled
# Detector.I0: 10 cm N2
# Detector.I1: 25 cm N2
# Detector.I2: 25 cm N2
# Element.symbol: Ho
# Element.edge: L1
# Element.reference: Ho
# Element.reference_material: Ho2O3
# Facility.name: NSLS-II
# Facility.energy: 3.0
# Facility.current: 400.3
# Facility.mode: top-off
# Facility.GUP: 301027
# Facility.SAF: 310583
# Facility.cycle: 2023-2
# Mono.name: Si(111)
# Mono.d_spacing: 3.1351860
# Mono.encoder_resolution: 0.0000050 deg/ct
# Mono.angle_offset: 16.0754326 deg
# Mono.scan_mode: pseudo channel cut
# Mono.scan_type: step
# Mono.direction: forward in energy
# Sample.name: Ho2O3
# Sample.prep: PEG pellet
# Sample.x: 109.138 mm
# Sample.y: 153.150 mm
# Sample.SDD_position: 205.000 mm
# Scan.experimenters: Bruce Ravel
# Scan.edge_energy: 9394.2
# Scan.start_time: 2023-05-28T16:33:09
# Scan.end_time: 2023-05-28T16:41:12
# Scan.transient_id: 78840
# Scan.uid: e87cc0de-36a7-4f5a-bb9b-7a62903ff800
# Scan.plot_hint: ln(It/Ir)  --  ln($6/$7)
# Column.1: energy eV
# Column.2: requested_energy eV
# Column.3: measurement_time seconds
# Column.4: xmu 
# Column.5: I0 nA
# Column.6: It nA
# Column.7: Ir nA
# ///////////
# sample courtesy Martin Stennett, University of Sheffield
# -----------
# energy  requested_energy  measurement_time  xmu  I0  It  Ir
  9194.213  9194.200  0.500  1.146384  112.772986  161.075931  51.187317
  9204.233  9204.200  0.500  1.142759  112.536625  160.918054  51.322859
  9214.254  9214.200  0.500  1.138943  112.360637  160.838066  51.493452
  9224.201  9224.200  0.500  1.136086  112.177176  160.726096  51.604872
  9234.207  9234.200  0.500  1.133466  112.005343  160.624756  51.707587
  9244.210  9244.200  0.500  1.130361  111.843495  160.585473  51.855704
  9254.220  9254.200  0.500  1.127073  111.630986  160.439211  51.979111
  9264.222  9264.200  0.500  1.124032  111.439591  160.323849  52.099958
  9274.262  9274.200  0.500  1.121207  111.316523  160.298998  52.239216
  9284.246  9284.200  0.500  1.118124  111.115136  160.180431  52.361773
  9294.248  9294.200  0.500  1.115281  110.749357  159.800241  52.386217
  9304.257  9304.200  0.500  1.112615  110.834734  160.084090  52.619361
  9314.237  9314.200  0.500  1.109713  110.669567  159.974180  52.736037
  9324.249  9324.200  0.500  1.106631  109.815170  158.914932  52.548578
  9334.245  9334.200  0.500  1.103508  110.281594  159.763541  52.994416
  9344.238  9344.200  0.500  1.100485  110.114896  159.668612  53.123271
  9354.226  9354.200  0.500  1.097493  109.921008  159.529121  53.235907
  9364.213  9364.200  0.500  1.094709  109.788202  159.488210  53.370656
  9366.188  9366.200  0.500  1.094180  109.749815  159.451653  53.386640
  9368.183  9368.200  0.500  1.093744  109.673657  159.394895  53.390916
  9370.190  9370.200  0.500  1.093364  109.637533  159.385513  53.408091
  9372.182  9372.200  0.500  1.092913  109.581713  159.296604  53.402351
  9374.187  9374.200  0.500  1.092462  109.527044  159.241718  53.408052
  9376.182  9376.200  0.500  1.092108  109.552670  159.306905  53.448808
  9378.185  9378.200  0.500  1.091725  109.492941  159.270638  53.457143
  9380.189  9380.200  0.500  1.091491  109.432176  159.222855  53.453592
  9382.186  9382.200  0.500  1.091202  109.405262  159.210470  53.464904
  9384.188  9384.200  0.500  1.090927  109.366260  159.172616  53.466868
  9384.469  9384.500  0.500  1.090881  109.352605  159.153788  53.463004
  9384.765  9384.800  0.500  1.090814  109.388076  159.230024  53.492176
  9385.065  9385.100  0.500  1.090837  109.325161  159.126831  53.456322
  9385.369  9385.400  0.500  1.090772  109.376114  159.178468  53.477109
  9385.670  9385.700  0.500  1.090834  109.326785  159.148471  53.463734
  9385.974  9386.000  0.500  1.090761  109.344521  159.187030  53.480571
  9386.278  9386.300  0.500  1.090773  109.346920  159.198482  53.483782
  9386.578  9386.600  0.500  1.090678  109.300782  159.136776  53.468166
  9386.878  9386.900  0.500  1.090734  109.283122  159.109116  53.455852
  9387.179  9387.200  0.500  1.090723  109.270977  159.086326  53.448780
  9387.487  9387.500  0.500  1.090672  109.264825  159.075677  53.447942
  9387.783  9387.800  0.500  1.090678  109.276757  159.106365  53.457915
  9388.091  9388.100  0.500  1.090659  109.295175  159.136114  53.468945
  9388.380  9388.400  0.500  1.090705  109.259508  159.099384  53.454145
  9388.692  9388.700  0.500  1.090798  109.256182  159.081981  53.443301
  9388.985  9389.000  0.500  1.090663  109.216807  159.036691  53.435322
  9389.285  9389.300  0.500  1.090738  109.215814  159.019212  53.425461
  9389.582  9389.600  0.500  1.090741  109.222888  159.034208  53.430321
  9389.890  9389.900  0.500  1.090813  109.223943  159.046188  53.430520
  9390.191  9390.200  0.500  1.090835  109.202461  159.023061  53.421531
  9390.484  9390.500  0.500  1.090841  109.183878  159.010845  53.417140
  9390.792  9390.800  0.500  1.090832  109.196924  159.022645  53.421594
  9391.077  9391.100  0.500  1.090902  109.179492  159.015522  53.415447
  9391.389  9391.400  0.500  1.090954  109.167253  159.015217  53.412560
  9391.678  9391.700  0.500  1.090933  109.165952  159.008927  53.411565
  9391.983  9392.000  0.500  1.090991  109.192236  159.053720  53.423503
  9392.284  9392.300  0.500  1.091082  109.134781  158.971884  53.391162
  9392.592  9392.600  0.500  1.091226  109.132023  158.969716  53.382746
  9392.885  9392.900  0.500  1.091289  109.128463  158.951493  53.373296
  9393.193  9393.200  0.500  1.091383  109.127874  158.962778  53.372033
  9393.490  9393.500  0.500  1.091499  109.103743  158.941754  53.358776
  9393.802  9393.800  0.500  1.091744  109.104525  158.949539  53.348334
  9394.092  9394.100  0.500  1.091893  109.078719  158.919434  53.330290
  9394.389  9394.400  0.500  1.092100  109.106740  158.958494  53.332347
  9394.701  9394.700  0.500  1.092413  109.060764  158.910852  53.299665
  9395.021  9395.000  0.500  1.092625  109.081765  158.918158  53.290838
  9395.329  9395.300  0.500  1.092988  109.075569  158.928232  53.274861
  9395.611  9395.600  0.500  1.093392  109.087488  158.962417  53.264788
  9395.901  9395.900  0.500  1.093809  109.055273  158.892240  53.219084
  9396.251  9396.200  0.500  1.094466  109.035197  158.847702  53.169258
  9396.461  9396.500  0.500  1.094867  108.994177  158.822931  53.139611
  9396.769  9396.800  0.500  1.095466  108.985610  158.821299  53.107248
  9397.082  9397.100  0.500  1.096143  109.364935  159.379097  53.257708
  9397.425  9397.400  0.500  1.096911  109.374635  159.377627  53.216340
  9397.733  9397.700  0.500  1.097735  109.346743  159.351841  53.163903
  9398.027  9398.000  0.500  1.098311  109.361511  159.353838  53.133961
  9398.324  9398.300  0.500  1.099059  109.365621  159.364340  53.097732
  9398.625  9398.600  0.500  1.099711  109.355971  159.368202  53.064423
  9398.922  9398.900  0.500  1.100370  109.325488  159.335433  53.018552
  9399.223  9399.200  0.500  1.100945  109.335974  159.344627  52.991123
  9399.513  9399.500  0.500  1.101592  109.329905  159.341017  52.955654
  9399.822  9399.800  0.500  1.102200  109.300631  159.300175  52.909869
  9400.108  9400.100  0.500  1.102840  109.322261  159.332474  52.886767
  9400.409  9400.400  0.500  1.103504  109.328954  159.346073  52.856190
  9400.706  9400.700  0.500  1.104071  109.282469  159.288281  52.807033
  9401.008  9401.000  0.500  1.104694  109.272777  159.282980  52.772391
  9401.305  9401.300  0.500  1.105438  109.272259  159.313911  52.743378
  9401.599  9401.600  0.500  1.106036  109.241482  159.254488  52.692198
  9401.896  9401.900  0.500  1.106698  109.247851  159.252620  52.656716
  9402.194  9402.200  0.500  1.107354  109.251219  159.265913  52.626559
  9402.514  9402.500  0.500  1.108021  109.229808  159.254241  52.587647
  9402.804  9402.800  0.500  1.108715  109.238345  159.276843  52.558596
  9403.105  9403.100  0.500  1.109340  109.224902  159.242794  52.514513
  9403.399  9403.400  0.500  1.110081  109.242385  159.263535  52.482496
  9403.708  9403.700  0.500  1.110742  109.244553  159.280977  52.453543
  9404.014  9404.000  0.500  1.111535  109.210380  159.243071  52.399502
  9404.307  9404.300  0.500  1.112274  109.207134  159.229599  52.356330
  9404.613  9404.600  0.500  1.113152  109.161178  159.180596  52.294313
  9404.907  9404.900  0.500  1.113950  109.177954  159.210582  52.262409
  9405.216  9405.200  0.500  1.114779  109.173378  159.216213  52.220949
  9405.510  9405.500  0.500  1.115671  109.165748  159.185063  52.164198
  9405.807  9405.800  0.500  1.116582  109.145690  159.153369  52.106338
  9406.109  9406.100  0.500  1.117586  109.145036  159.165396  52.057971
  9406.414  9406.400  0.500  1.118521  109.133998  159.173053  52.011824
  9406.708  9406.700  0.500  1.119626  109.128857  159.183375  51.957733
  9407.006  9407.000  0.500  1.120700  109.110612  159.152505  51.891902
  9407.304  9407.300  0.500  1.121913  109.107131  159.154234  51.829574
  9407.602  9407.600  0.500  1.123018  109.109098  159.159967  51.774189
  9407.907  9407.900  0.500  1.124351  109.072409  159.106530  51.687881
  9408.198  9408.200  0.500  1.125627  109.088039  159.132613  51.630398
  9408.495  9408.500  0.500  1.126811  109.087597  159.130202  51.568532
  9408.790  9408.800  0.500  1.128154  109.086331  159.138318  51.501931
  9409.099  9409.100  0.500  1.129313  109.089416  159.152451  51.446842
  9409.393  9409.400  0.500  1.130406  109.060882  159.113846  51.378174
  9409.695  9409.700  0.500  1.131419  109.089635  159.165828  51.342937
  9409.997  9410.000  0.500  1.132423  109.011709  159.066713  51.259502
  9410.291  9410.300  0.500  1.133242  109.057956  159.108898  51.231103
  9410.604  9410.600  0.500  1.133962  109.042055  159.089557  51.187994
  9410.899  9410.900  0.500  1.134480  109.014778  159.062207  51.152695
  9411.208  9411.200  0.500  1.135041  108.992334  159.058428  51.122804
  9411.502  9411.500  0.500  1.135189  108.996737  159.056385  51.114555
  9411.804  9411.800  0.500  1.135444  109.001232  159.057529  51.101911
  9412.106  9412.100  0.500  1.135492  108.998662  159.067694  51.102710
  9412.408  9412.400  0.500  1.135344  108.954142  158.996854  51.087529
  9412.706  9412.700  0.500  1.135188  109.003268  159.053455  51.113688
  9413.005  9413.000  0.500  1.135020  108.960712  158.997739  51.104385
  9413.314  9413.300  0.500  1.134707  108.940211  158.980326  51.114761
  9413.601  9413.600  0.500  1.134445  108.947401  158.990928  51.131587
  9413.907  9413.900  0.500  1.134149  108.947938  158.997019  51.148691
  9414.198  9414.200  0.500  1.133892  108.956137  158.999684  51.162674
  9414.507  9414.500  0.500  1.133668  108.914021  158.959802  51.161283
  9414.806  9414.800  0.500  1.133322  108.912852  158.981295  51.185945
  9415.100  9415.100  0.500  1.133191  108.912877  159.000936  51.198970
  9415.399  9415.400  0.500  1.132992  108.929269  159.023011  51.216260
  9415.697  9415.700  0.500  1.132846  108.912808  158.996241  51.215098
  9415.999  9416.000  0.500  1.132764  108.905081  158.974290  51.212237
  9416.290  9416.300  0.500  1.132742  108.897968  158.983040  51.216200
  9416.596  9416.600  0.500  1.132660  108.913591  159.005763  51.227698
  9416.883  9416.900  0.500  1.132649  108.911334  159.012125  51.230308
  9417.201  9417.200  0.500  1.132788  108.892301  158.978879  51.212463
  9417.495  9417.500  0.500  1.132755  108.815124  158.879960  51.182316
  9417.801  9417.800  0.500  1.132859  108.827261  158.882960  51.177975
  9418.100  9418.100  0.500  1.132936  108.830658  158.906764  51.181694
  9418.399  9418.400  0.500  1.132881  108.847238  158.926526  51.190868
  9418.709  9418.700  0.500  1.132909  108.866000  158.965826  51.202087
  9419.003  9419.000  0.500  1.132901  108.832465  158.922877  51.188644
  9419.199  9419.200  0.500  1.132914  108.796037  158.865212  51.169414
  9420.206  9420.190  0.500  1.132827  108.773287  158.857214  51.171300
  9421.209  9421.190  0.500  1.132370  108.762928  158.862614  51.196407
  9422.224  9422.210  0.500  1.131827  108.740862  158.847411  51.219339
  9423.270  9423.260  0.500  1.130774  108.725045  158.850571  51.274321
  9424.320  9424.320  0.500  1.129444  108.716573  158.822904  51.333617
  9425.420  9425.400  0.500  1.127767  108.696796  158.824725  51.420346
  9426.517  9426.500  0.500  1.125993  108.675469  158.808097  51.506286
  9427.629  9427.620  0.500  1.124036  108.664498  158.812789  51.608671
  9428.776  9428.760  0.500  1.122131  108.654282  158.818737  51.709012
  9429.923  9429.910  0.500  1.120300  108.641105  158.813898  51.802211
  9431.090  9431.090  0.500  1.118626  108.581680  158.733626  51.862781
  9432.287  9432.280  0.500  1.116992  108.562451  158.720385  51.943259
  9433.520  9433.500  0.500  1.115672  108.555300  158.717575  52.010960
  9434.749  9434.730  0.500  1.114541  108.516463  158.679501  52.057342
  9436.001  9435.980  0.500  1.113783  108.447320  158.614682  52.075518
  9437.258  9437.250  0.500  1.113121  107.960336  157.930319  51.885152
  9438.538  9438.540  0.500  1.112689  108.289294  158.433797  52.073044
  9439.857  9439.850  0.500  1.112289  108.415259  158.638067  52.161055
  9441.195  9441.180  0.500  1.111951  108.387654  158.619745  52.172688
  9442.534  9442.530  0.500  1.111768  108.327090  158.535319  52.154464
  9443.912  9443.900  0.500  1.111702  108.367917  158.601388  52.179601
  9445.282  9445.280  0.500  1.111664  108.294536  158.515267  52.153270
  9446.688  9446.690  0.500  1.111591  108.251892  158.468861  52.141831
  9448.117  9448.110  0.500  1.111599  108.267705  158.534828  52.163072
  9449.566  9449.550  0.500  1.111612  108.213747  158.476852  52.143324
  9451.026  9451.010  0.500  1.111724  108.191303  158.468955  52.134909
  9452.499  9452.490  0.500  1.111854  108.179874  158.472261  52.129198
  9453.992  9453.990  0.500  1.112160  108.116665  158.388866  52.085832
  9455.512  9455.510  0.500  1.112451  108.113527  158.417656  52.080127
  9457.059  9457.050  0.500  1.112782  108.076734  158.373818  52.048495
  9458.619  9458.610  0.500  1.113152  108.048129  158.353994  52.022747
  9460.183  9460.180  0.500  1.113493  108.022096  158.351666  52.004250
  9461.794  9461.780  0.500  1.113947  108.004755  158.357478  51.982538
  9463.413  9463.390  0.500  1.114357  107.973374  158.323211  51.949999
  9465.033  9465.030  0.500  1.114471  107.918946  158.283282  51.930985
  9466.685  9466.680  0.500  1.114360  107.904539  158.250058  51.925828
  9468.360  9468.350  0.500  1.114118  107.837010  158.170470  51.912293
  9470.059  9470.040  0.500  1.113645  107.814999  158.187394  51.942377
  9471.750  9471.750  0.500  1.112913  107.790779  158.172631  51.975573
  9473.497  9473.480  0.500  1.111980  107.808948  158.229250  52.042746
  9475.241  9475.230  0.500  1.110807  107.724616  158.130309  52.071243
  9477.004  9476.990  0.500  1.109443  107.693384  158.103059  52.133329
  9478.784  9478.780  0.500  1.108130  107.673273  158.102925  52.201752
  9480.591  9480.580  0.500  1.106841  107.622509  158.045115  52.249956
  9482.415  9482.410  0.500  1.105895  107.608599  158.044319  52.299178
  9484.251  9484.250  0.500  1.104937  107.581580  158.024607  52.342786
  9486.123  9486.110  0.500  1.104228  107.509090  157.941213  52.352224
  9488.011  9487.990  0.500  1.103653  107.497642  157.951253  52.385700
  9489.896  9489.890  0.500  1.103108  107.429137  157.892712  52.394833
  9491.813  9491.810  0.500  1.102792  107.416290  157.918246  52.419861
  9493.766  9493.750  0.500  1.102303  107.397564  157.926471  52.448230
  9495.727  9495.710  0.500  1.101871  107.338926  157.861538  52.449310
  9497.678  9497.680  0.500  1.101233  107.299766  157.818721  52.468574
  9499.695  9499.680  0.500  1.100449  107.233159  157.733404  52.481325
  9501.698  9501.690  0.500  1.099619  107.205405  157.719097  52.520155
  9503.729  9503.720  0.500  1.098676  107.164227  157.676588  52.555520
  9505.788  9505.780  0.500  1.097830  107.131186  157.677125  52.600156
  9507.868  9507.850  0.500  1.097025  107.102328  157.681160  52.643898
  9509.940  9509.940  0.500  1.096214  107.090538  157.685374  52.687992
  9512.061  9512.050  0.500  1.095401  107.036915  157.643663  52.716895
  9514.202  9514.180  0.500  1.094626  106.986483  157.602952  52.744129
  9516.328  9516.320  0.500  1.093998  106.941095  157.570617  52.766439
  9518.498  9518.490  0.500  1.093338  106.907282  157.541253  52.791439
  9520.689  9520.680  0.500  1.092852  106.883037  157.538358  52.816150
  9522.877  9522.880  0.500  1.092486  106.872277  157.549755  52.839289
  9525.113  9525.100  0.500  1.092119  106.784179  157.437303  52.820985
  9527.366  9527.350  0.500  1.091844  106.756263  157.426360  52.831848
  9529.620  9529.610  0.500  1.091693  106.714439  157.419287  52.837452
  9531.910  9531.890  0.500  1.091665  106.659842  157.370984  52.822722
  9534.209  9534.190  0.500  1.091519  106.619248  157.330315  52.816782
  9536.526  9536.510  0.500  1.091224  106.572176  157.284806  52.817050
  9538.870  9538.850  0.500  1.090660  106.539876  157.268130  52.841238
  9541.208  9541.200  0.500  1.089992  106.524790  157.266669  52.876096
  9543.583  9543.580  0.500  1.089385  106.429490  157.176458  52.877836
  9545.986  9545.970  0.500  1.088649  106.430191  157.224238  52.932833
  9548.387  9548.390  0.500  1.087954  106.356737  157.178666  52.954304
  9550.824  9550.820  0.500  1.087268  106.334999  157.143417  52.978760
  9553.291  9553.270  0.500  1.086397  106.242594  157.035106  52.988347
  9555.758  9555.750  0.500  1.085452  106.204011  157.006197  53.028685
  9558.259  9558.240  0.500  1.084406  106.182129  157.018555  53.088372
  9560.752  9560.750  0.500  1.083147  106.143034  157.002540  53.149859
  9563.287  9563.270  0.500  1.082009  106.111021  156.994360  53.207581
  9565.827  9565.820  0.500  1.080981  106.025126  156.878727  53.223078
  9568.404  9568.390  0.500  1.079965  105.967122  156.828958  53.260289
  9570.986  9570.970  0.500  1.079209  105.943833  156.838552  53.303801
  9573.586  9573.580  0.500  1.078652  106.126879  157.142549  53.436873
  9576.219  9576.200  0.500  1.078102  106.163926  157.236632  53.498295
  9578.861  9578.850  0.500  1.077527  106.148120  157.267935  53.539726
  9581.520  9581.510  0.500  1.076943  106.101916  157.231013  53.558433
  9584.205  9584.190  0.500  1.076260  106.079866  157.235423  53.596519
  9586.899  9586.890  0.500  1.075606  106.041352  157.219659  53.626213
  9589.639  9589.610  0.500  1.074815  105.986093  157.168983  53.651321
  9592.356  9592.350  0.500  1.074053  105.881522  157.056749  53.653901
  9595.126  9595.100  0.500  1.073139  105.850023  157.042924  53.698227
  9597.887  9597.880  0.500  1.072293  105.818633  157.045908  53.744731
  9600.700  9600.670  0.500  1.071420  105.758360  156.989636  53.772346
  9603.491  9603.490  0.500  1.070521  105.715202  156.956343  53.809346
  9606.344  9606.320  0.500  1.069624  105.673729  156.935953  53.850639
  9609.179  9609.170  0.500  1.068647  105.616410  156.887896  53.886738
  9612.063  9612.050  0.500  1.067748  105.566708  156.873636  53.930306
  9614.953  9614.940  0.500  1.066914  105.487916  156.785135  53.944851
  9617.865  9617.850  0.500  1.066087  105.204844  156.368505  53.845992
  9620.774  9620.770  0.500  1.065426  105.347206  156.618804  53.967861
  9623.737  9623.720  0.500  1.064815  105.340258  156.657629  54.014233
  9626.707  9626.690  0.500  1.064182  105.264719  156.596695  54.027441
