# XDI/1.0 BlueSky/1.10.0 BMM/2023-1.0-py310-tiled
# Beamline.name: BMM (06BM) -- Beamline for Materials Measurement (NIST)
# Beamline.xray_source: NSLS-II three-pole wiggler
# Beamline.collimation: paraboloid mirror, 5 nm Rh on 30 nm Pt
# Beamline.focusing: not in use
# Beamline.harmonic_rejection: flat mirror, Si stripe, pitch = 7.0 mrad relative to beam
# Beamline.software: Bluesky 1.10.0, Ophyd 1.7.0, DataBroker 2.0.0b13, Python 3.10.8, 2023-1.0-py310-tiled
# Detector.I0: 10 cm N2
# Detector.I1: 25 cm N2
# Detector.I2: 25 cm N2
# Detector.fluorescence: SII Vortex ME4 (4-element silicon drift)
# Detector.deadtime_correction: Xspress3
# Element.symbol: Ce
# Element.edge: L3
# Element.reference: Ce
# Element.reference_material: CeO2
# Facility.name: NSLS-II
# Facility.energy: 3.0
# Facility.current: 399.4
# Facility.mode: top-off
# Facility.GUP: 123456
# Facility.SAF: 301027
# Facility.cycle: 2023-2
# Mono.name: Si(111)
# Mono.d_spacing: 3.1351860
# Mono.encoder_resolution: 0.0000050 deg/ct
# Mono.angle_offset: 16.0754326 deg
# Mono.scan_mode: pseudo channel cut
# Mono.scan_type: step
# Mono.direction: forward in energy
# Sample.name: Bi2Ce2Ti4O12
# Sample.prep: Powder in PEG pellet
# Sample.x: 142.329 mm
# Sample.y: 114.126 mm
# Sample.SDD_position: 45.000 mm
# Scan.experimenters: Bruce Ravel
# Scan.edge_energy: 5723.4
# Scan.start_time: 2023-05-06T11:12:59
# Scan.end_time: 2023-05-06T11:18:45
# Scan.transient_id: 74761
# Scan.uid: 30886691-e489-4bc7-ab65-233edb2d2198
# Scan.plot_hint: (Ce1+Ce2+Ce3+Ce4)/I0  --  ($8+$9+$10+$11)/$5
# Column.1: energy eV
# Column.2: requested_energy eV
# Column.3: measurement_time seconds
# Column.4: xmu 
# Column.5: I0 nA
# Column.6: It nA
# Column.7: Ir nA
# Column.8: Ce1 
# Column.9: Ce2 
# Column.10: Ce3 
# Column.11: Ce4 
# ///////////
# sample courtesy Martin Stennett, University of Sheffield
# -----------
# energy  requested_energy  measurement_time  xmu  I0  It  Ir  Ce1  Ce2  Ce3  Ce4
  5523.404  5523.400  0.500  54.649609  108.878431  0.676673  0.050511  1513.278103  1542.289256  1429.297616  1465.298665
  5533.410  5533.400  0.500  55.462533  109.199059  0.697427  0.052729  1516.555265  1584.295194  1439.299843  1516.306067
  5543.412  5543.400  0.500  54.702836  109.543158  0.719399  0.055222  1513.425551  1659.310747  1407.295638  1412.289485
  5553.415  5553.400  0.500  56.997692  109.856793  0.740748  0.057600  1533.632908  1616.305118  1588.332955  1523.312699
  5563.414  5563.400  0.500  56.528439  110.196602  0.763167  0.060004  1530.286470  1619.308762  1569.332464  1510.314222
  5573.416  5573.400  0.500  54.829632  110.416839  0.785389  0.062707  1565.178180  1511.292813  1497.328552  1480.315160
  5583.410  5583.400  0.500  56.639086  110.654329  0.808263  0.065423  1595.384156  1579.309703  1545.338198  1547.328034
  5593.408  5593.400  0.500  57.735580  110.815501  0.830901  0.068025  1503.971886  1693.335619  1612.353751  1588.335974
  5603.410  5603.400  0.500  57.496991  111.012013  0.854537  0.071074  1571.840315  1656.327290  1589.353950  1565.335217
  5613.411  5613.400  0.500  57.938016  111.151371  0.878413  0.073929  1571.840315  1682.340464  1581.355529  1604.353641
  5623.388  5623.400  0.500  59.289271  111.376451  0.903085  0.076976  1606.326285  1709.353836  1630.375436  1657.373076
  5633.388  5633.400  0.500  58.887382  111.422943  0.928003  0.080063  1606.326285  1740.355206  1630.375436  1584.348439
  5643.390  5643.400  0.500  59.620117  111.521156  0.952593  0.083087  1709.821676  1735.356008  1559.359550  1644.367106
  5653.392  5653.400  0.500  60.506767  111.584055  0.976638  0.086500  1648.460704  1784.371640  1659.384605  1659.373484
  5663.400  5663.400  0.500  63.714504  111.626351  1.002587  0.089875  1756.023368  1926.402763  1736.405018  1693.386389
  5673.397  5673.400  0.500  63.322450  111.676046  1.029144  0.093321  1738.409970  1859.395214  1703.391611  1770.404096
  5683.398  5683.400  0.500  62.521425  111.678963  1.053581  0.096699  1790.186894  1780.369560  1665.378750  1746.392677
  5693.395  5693.400  0.500  65.987997  111.643184  1.078813  0.100257  1815.848861  1998.422666  1825.440754  1727.397821
  5695.397  5695.400  0.500  66.265213  111.635853  1.084256  0.101078  1849.322341  1982.418984  1742.414042  1823.418248
  5697.393  5697.400  0.500  67.910262  111.629208  1.089575  0.101914  1881.441123  1954.427336  1866.456350  1878.443924
  5699.390  5699.400  0.500  69.266677  111.626554  1.094196  0.102376  1854.631560  2098.463131  1916.463785  1862.441959
  5701.391  5701.400  0.500  69.312167  111.611840  1.099044  0.103104  1987.723076  1964.428835  1897.462887  1886.443693
  5703.395  5703.400  0.500  70.893777  111.596289  1.103278  0.103760  1979.093895  2091.461899  1935.472353  1905.454214
  5705.399  5705.400  0.500  73.680363  111.577853  1.107542  0.104398  2004.651233  2157.470760  2040.497475  2018.477270
  5707.400  5707.400  0.500  73.274582  111.595259  1.111008  0.104967  2087.667600  2130.475629  1954.476258  2004.476415
  5709.398  5709.400  0.500  76.935104  111.601419  1.114179  0.105462  2107.535231  2284.508817  2142.534885  2051.487794
  5711.403  5711.400  0.500  79.550311  111.531240  1.116465  0.106089  2307.801090  2370.521100  2142.534885  2051.487794
  5713.396  5713.400  0.500  84.615816  111.526876  1.117292  0.106252  2318.196549  2441.560765  2314.593232  2362.587104
  5713.892  5713.900  0.500  87.247981  111.542084  1.117130  0.106218  2430.053517  2470.564771  2409.604993  2421.598379
  5714.391  5714.400  0.500  88.116931  111.517639  1.116659  0.106153  2519.829414  2573.588451  2349.591923  2383.582370
  5714.887  5714.900  0.500  90.766240  111.518285  1.116537  0.106138  2517.274292  2648.598318  2474.618656  2481.604148
  5715.390  5715.400  0.500  92.098713  111.488265  1.115260  0.106298  2428.058666  2799.627396  2496.624470  2543.615239
  5715.888  5715.900  0.500  97.297042  111.473554  1.114201  0.105920  2748.082187  2801.639124  2691.685036  2604.640743
  5716.389  5716.400  0.500  100.790376  111.530140  1.113119  0.106115  2757.057607  2903.675613  2733.709263  2846.722358
  5716.891  5716.900  0.500  104.767808  111.880691  1.114763  0.106114  2844.292248  3090.718747  2950.771407  2835.712404
  5717.389  5717.400  0.500  110.957725  111.863477  1.111407  0.105873  3094.797061  3196.748599  3031.792589  3088.778606
  5717.891  5717.900  0.500  114.380539  111.870963  1.107509  0.105546  3143.442807  3326.785371  3198.840658  3126.792253
  5718.393  5718.400  0.500  122.232289  111.878001  1.103047  0.105056  3316.511485  3682.872749  3381.884450  3293.835484
  5718.893  5718.900  0.500  130.252579  111.869988  1.097178  0.104680  3626.529045  3893.941555  3636.989082  3413.894784
  5719.396  5719.400  0.500  138.979403  111.847120  1.091457  0.103911  3782.399919  4052.992375  3830.029802  3879.023871
  5719.894  5719.900  0.500  147.802751  111.833810  1.085301  0.103194  4037.079277  4292.063788  4130.118542  4070.083154
  5720.390  5720.400  0.500  158.847790  111.847960  1.077768  0.102372  4412.187284  4720.210498  4361.240449  4273.163051
  5720.893  5720.900  0.500  170.174831  111.870445  1.067645  0.101428  4788.607086  5028.309749  4698.348900  4522.268274
  5721.395  5721.400  0.500  187.471505  111.832448  1.055736  0.100228  5123.965205  5419.425986  5192.511674  5229.494463
  5721.895  5721.900  0.500  210.164871  111.819846  1.038671  0.098565  5891.541324  6079.648041  5684.706269  5844.707828
  5722.394  5722.400  0.500  236.819849  111.811240  1.017117  0.096393  6565.049880  6925.994513  6532.075573  6456.000881
  5722.893  5722.900  0.500  275.686455  111.783095  0.988702  0.093636  7733.888076  8003.381206  7661.476962  7418.339009
  5723.396  5723.400  0.500  322.289064  111.796234  0.951762  0.090148  8866.732933  9469.969072  8994.095101  8699.906429
  5723.900  5723.900  0.500  376.510138  111.767496  0.909291  0.085920  10539.527429  10908.622481  10279.748263  10353.697056
  5724.394  5724.400  0.500  444.346369  111.760941  0.861042  0.080892  12225.361238  12862.680408  12279.803565  12292.723184
  5724.896  5724.900  0.500  514.078242  111.787129  0.812327  0.076034  14502.951875  14901.756549  14115.914937  13946.707357
  5725.393  5725.400  0.500  574.784416  111.758517  0.769735  0.071648  16014.555294  16680.860004  15861.867811  15679.770935
  5725.898  5725.900  0.500  623.007271  111.789589  0.735672  0.068105  17514.510493  18238.748732  17127.904121  16764.563353
  5726.399  5726.400  0.500  653.666055  111.790923  0.715899  0.065488  18058.726840  18895.344657  18386.658301  17733.202071
  5726.893  5726.900  0.500  653.715874  111.782404  0.711259  0.064674  18058.726840  18895.344657  18386.658301  17733.202071
  5727.399  5727.400  0.500  656.687205  111.793961  0.721245  0.065186  18003.092760  19043.421477  18135.592667  18231.556548
  5727.900  5727.900  0.500  614.515119  111.761491  0.740284  0.066616  17086.121079  17845.647306  16994.797659  16752.559613
  5728.398  5728.400  0.500  575.683761  111.773593  0.764087  0.068495  15951.474744  16717.894042  16158.147980  15518.725834
  5728.898  5728.900  0.500  554.788303  111.777037  0.787449  0.070349  15951.474744  16055.390045  15133.494557  14872.233342
  5729.398  5729.400  0.500  536.545547  111.737051  0.807208  0.071899  14542.317441  16055.390045  15133.494557  14220.815262
  5729.901  5729.900  0.500  520.156173  111.712411  0.824603  0.073160  14542.317441  15060.811967  14283.955711  14220.815262
  5730.401  5730.400  0.500  474.251504  111.745561  0.839542  0.074395  13111.873948  13757.111799  13214.394461  12912.120315
  5730.900  5730.900  0.500  456.565691  111.717324  0.853281  0.075274  12516.662041  13757.111799  12518.856390  12213.667160
  5731.401  5731.400  0.500  439.191403  111.695768  0.867361  0.076440  12299.224138  12639.481328  12042.598780  12074.516787
  5731.904  5731.900  0.500  418.126181  111.682050  0.881920  0.078030  11638.371200  12078.198080  11637.379158  11343.240682
  5732.402  5732.400  0.500  404.254960  111.694397  0.897011  0.079579  11031.669426  11765.048647  11234.227170  11122.068742
  5732.903  5732.900  0.500  383.840242  111.693518  0.912365  0.081122  10912.910961  11095.823898  10481.936764  10381.795335
  5733.400  5733.400  0.500  371.107354  111.663265  0.924740  0.082647  10363.355051  10767.518556  10196.642250  10111.542841
  5733.899  5733.900  0.500  357.168965  111.635664  0.934028  0.083889  9803.493737  10471.413157  9868.523566  9729.364180
  5734.405  5734.400  0.500  353.496130  111.646042  0.940745  0.084568  9849.315140  10193.313591  9766.471013  9657.343864
  5734.908  5734.900  0.500  354.216303  111.669109  0.944923  0.085037  9811.819247  10349.384507  9725.455707  9668.359522
  5735.401  5735.400  0.500  348.405708  111.652239  0.945280  0.085040  9644.409656  10113.222578  9633.392649  9509.252649
  5735.898  5735.900  0.500  353.033308  111.647550  0.943428  0.084937  9743.145345  10249.339491  9728.469181  9694.349892
  5736.403  5736.400  0.500  358.910892  111.626063  0.940410  0.084365  9873.279408  10471.475221  9923.584905  9795.470300
  5736.904  5736.900  0.500  364.911017  111.589696  0.936782  0.083925  10099.672585  10581.490305  10248.713119  9790.433514
  5737.401  5737.400  0.500  374.948827  111.620607  0.933951  0.083666  10183.821672  10968.689319  10212.746812  10486.757940
  5737.906  5737.900  0.500  373.730479  111.596589  0.933755  0.083490  10334.149741  10834.590312  10429.755243  10108.551396
  5738.398  5738.400  0.500  373.065992  111.613253  0.934157  0.083582  10332.140805  10861.629142  10260.727732  10184.611473
  5738.901  5738.900  0.500  373.986987  111.587258  0.935647  0.083969  10332.140805  10731.587301  10456.814918  10211.639183
  5739.399  5739.400  0.500  368.017189  111.563579  0.938467  0.084393  10239.535276  10705.571111  10205.716422  9906.491800
  5739.905  5739.900  0.500  368.970355  111.546927  0.942366  0.084897  10040.510806  10810.641024  10309.804328  9996.553034
  5740.405  5740.400  0.500  363.003381  111.570354  0.947765  0.085523  10141.778240  10327.453759  10039.631595  9991.552006
  5740.903  5740.900  0.500  354.649483  111.588721  0.954461  0.086589  9773.567069  10347.392651  9785.524755  9668.397726
  5741.399  5741.400  0.500  346.401682  111.548610  0.961251  0.087665  9635.586817  9971.284292  9669.456115  9364.299051
  5741.899  5741.900  0.500  340.521942  111.575785  0.968695  0.088702  9535.350284  9879.197402  9380.305394  9199.149797
  5742.400  5742.400  0.500  334.461668  111.546709  0.975574  0.089623  9267.679944  9612.046057  9340.257424  9088.114960
  5742.903  5742.900  0.500  329.523105  111.559169  0.982164  0.090841  9153.110801  9502.013801  9207.185925  8899.013214
  5743.406  5743.400  0.500  324.042306  111.542753  0.987617  0.091508  8923.554771  9258.911928  9156.152701  8805.951543
  5743.904  5743.900  0.500  321.479853  111.526107  0.992262  0.092206  8939.421311  9232.900977  8855.087999  8825.986060
  5744.403  5744.400  0.500  315.755146  111.510870  0.996079  0.092865  8685.427024  9253.887213  8780.995864  8489.820963
  5744.906  5744.900  0.500  316.486392  111.517993  0.999444  0.093370  8664.260804  9150.828979  8764.958400  8713.879073
  5745.402  5745.400  0.500  310.023893  111.493961  1.002447  0.093810  8482.291274  9037.780699  8613.931113  8431.788822
  5745.902  5745.900  0.500  310.106513  111.429888  1.004239  0.094039  8463.602843  9030.823487  8598.918481  8461.789225
  5746.398  5746.400  0.500  310.002998  111.450988  1.006360  0.094581  8659.697734  9059.808314  8452.853480  8377.781012
  5746.902  5746.900  0.500  309.038453  111.434571  1.008042  0.094651  8419.937044  8974.825948  8606.958865  8435.845629
  5747.400  5747.400  0.500  309.431648  111.414205  1.009134  0.095149  8513.482698  9140.870462  8551.950859  8268.777076
  5747.904  5747.900  0.500  311.901632  111.423234  1.010885  0.095374  8526.444206  9140.870462  8816.996685  8268.777076
  5748.405  5748.400  0.500  311.047121  111.408613  1.011091  0.095299  8446.808925  9040.791118  8529.884388  8635.844007
  5749.397  5749.390  0.500  311.498951  111.414260  1.011413  0.095525  8446.808925  9141.846085  8612.937019  8503.833060
  5750.401  5750.390  0.500  317.068157  111.380810  1.010935  0.095736  8894.609097  9162.857666  8612.937019  8644.904480
  5751.417  5751.410  0.500  321.875611  111.368479  1.009342  0.095980  8836.925869  9367.902410  8757.990424  8883.978362
  5752.467  5752.460  0.500  327.514928  111.285788  1.007175  0.095676  9083.533663  9479.043247  9012.161700  8873.018387
  5753.530  5753.520  0.500  331.242887  111.359589  1.005581  0.095721  9128.758130  9526.019510  9181.197361  9051.096841
  5754.613  5754.600  0.500  339.004029  111.345249  1.004324  0.095508  9378.818557  9872.216615  9155.224021  9340.228692
  5755.710  5755.700  0.500  340.726521  111.303704  1.002805  0.095484  9249.318489  10004.279153  9329.295349  9341.230907
  5756.830  5756.820  0.500  343.666394  111.286089  1.002466  0.095498  9480.446340  10064.276677  9431.328325  9269.237522
  5757.968  5757.960  0.500  347.307091  111.283750  1.003028  0.095770  9542.586565  10240.375228  9575.425378  9291.248229
  5759.125  5759.110  0.500  345.828971  111.263043  1.004458  0.095675  9618.116704  10072.274748  9383.323347  9404.268933
  5760.285  5760.290  0.500  352.298569  111.233793  1.007953  0.096113  9620.349356  10324.354899  9777.502555  9465.299376
  5761.477  5761.480  0.500  350.168381  111.211452  1.011027  0.096613  9743.640919  10023.299921  9619.450987  9556.342101
  5762.695  5762.700  0.500  345.870645  111.187523  1.015064  0.096997  9444.514650  10079.307021  9637.440334  9295.238470
  5763.932  5763.930  0.500  345.517747  111.182528  1.020046  0.097636  9440.600186  10112.306977  9449.364455  9413.265000
  5765.183  5765.180  0.500  345.658888  111.143181  1.025004  0.097922  9506.684690  10029.286848  9604.438158  9277.218740
  5766.454  5766.450  0.500  343.431247  111.135584  1.029421  0.098379  9506.684690  9837.168306  9418.319967  9405.259401
  5767.750  5767.740  0.500  340.166895  111.147634  1.033256  0.098831  9333.086052  9923.195765  9271.269522  9281.194364
  5769.056  5769.050  0.500  341.342499  111.105719  1.037487  0.099237  9495.435741  9770.140612  9479.371822  9180.155687
  5770.385  5770.380  0.500  339.114586  111.120797  1.042175  0.099976  9314.018491  9777.150442  9335.297002  9256.217238
  5771.736  5771.730  0.500  337.542469  111.082863  1.045729  0.100523  9430.666974  9697.115683  9151.217348  9216.183739
  5773.108  5773.100  0.500  334.670289  111.058621  1.049842  0.100810  9090.548643  9629.089253  9360.289449  9088.093595
  5774.490  5774.480  0.500  336.321874  111.031645  1.054092  0.101455  9285.857353  9625.107707  9285.269817  9146.135990
  5775.898  5775.890  0.500  333.810113  111.056098  1.059463  0.102371  9334.182903  9648.138057  8980.182810  9109.144713
  5777.319  5777.310  0.500  330.920421  111.042136  1.064657  0.102882  9163.826867  9584.080803  9016.151830  8982.050762
  5778.756  5778.750  0.500  330.185637  111.020076  1.069860  0.103653  9246.983556  9583.088629  8876.096435  8951.065748
  5780.219  5780.210  0.500  329.845983  111.006516  1.075043  0.104525  8991.685386  9462.036604  9218.257280  8943.073966
  5781.699  5781.690  0.500  326.310938  110.996197  1.080373  0.105402  9061.217768  9205.901470  9140.160676  8811.993222
  5783.197  5783.190  0.500  327.770986  110.987439  1.085708  0.106117  8902.228595  9591.073459  9008.131911  8877.028406
  5784.716  5784.710  0.500  324.122962  110.952935  1.089862  0.106838  8902.228595  9277.993081  8879.116356  8903.055982
  5786.256  5786.250  0.500  323.297325  110.887561  1.092577  0.107372  8925.741739  9310.905235  8926.083077  8686.921637
  5787.817  5787.810  0.500  328.458210  110.910115  1.095715  0.107940  9048.150546  9583.054359  9019.156262  8778.976520
  5789.384  5789.380  0.500  328.182070  110.872432  1.097017  0.108145  9048.150546  9583.054359  8976.162984  8778.976520
  5790.989  5790.980  0.500  333.953167  110.858134  1.097775  0.108541  9029.854444  9660.148242  9207.276188  9124.146242
  5792.596  5792.590  0.500  339.137413  110.834140  1.098482  0.108941  9438.386028  9738.167582  9244.265314  9167.184459
  5794.236  5794.230  0.500  341.002584  110.786530  1.099304  0.108967  9350.652761  9798.213324  9353.359268  9276.267806
  5795.887  5795.880  0.500  343.277331  110.814262  1.101772  0.109515  9519.119153  9798.213324  9446.423629  9276.267806
  5797.558  5797.550  0.500  347.440351  110.774176  1.103663  0.110010  9496.403663  10196.328591  9378.357461  9416.328917
  5799.246  5799.240  0.500  347.903337  110.742704  1.107041  0.110559  9513.723169  10127.333412  9460.391560  9426.307936
  5800.957  5800.950  0.500  351.516746  110.722693  1.111490  0.111283  9568.639501  10312.451320  9647.469239  9392.320664
  5802.692  5802.680  0.500  349.684342  110.681964  1.116234  0.111953  9568.639501  10140.348597  9647.469239  9347.292359
  5804.438  5804.430  0.500  348.558076  110.665431  1.121885  0.112711  9511.232536  10238.391979  9481.437267  9342.267934
  5806.197  5806.190  0.500  345.689799  110.654212  1.128136  0.113550  9417.059973  10000.291096  9486.404917  9348.276112
  5807.990  5807.980  0.500  342.141086  110.612306  1.133484  0.114071  9421.330394  9972.234245  9219.256020  9232.193886
  5809.788  5809.780  0.500  342.716808  110.489965  1.137309  0.114965  9433.862255  9776.243024  9291.353026  9365.309709
  5811.619  5811.610  0.500  342.101154  110.590232  1.144125  0.115556  9426.229456  9752.223354  9437.384727  9217.208519
  5813.460  5813.450  0.500  342.867469  110.557399  1.149947  0.116420  9421.778649  9872.219578  9362.321995  9250.215384
