# XDI/1.0 BlueSky/1.10.0 BMM/2023-1.0-py310-tiled
# Beamline.name: BMM (06BM) -- Beamline for Materials Measurement (NIST)
# Beamline.xray_source: NSLS-II three-pole wiggler
# Beamline.collimation: paraboloid mirror, 5 nm Rh on 30 nm Pt
# Beamline.focusing: not in use
# Beamline.harmonic_rejection: flat mirror, Si stripe, pitch = 7.0 mrad relative to beam
# Beamline.software: Bluesky 1.10.0, Ophyd 1.7.0, DataBroker 2.0.0b13, Python 3.10.8, 2023-1.0-py310-tiled
# Detector.I0: 10 cm N2
# Detector.I1: 25 cm N2
# Detector.I2: 25 cm N2
# Detector.fluorescence: SII Vortex ME4 (4-element silicon drift)
# Detector.deadtime_correction: Xspress3
# Element.symbol: Ce
# Element.edge: L3
# Element.reference: Ce
# Element.reference_material: CeO2
# Facility.name: NSLS-II
# Facility.energy: 3.0
# Facility.current: 400.4
# Facility.mode: top-off
# Facility.GUP: 123456
# Facility.SAF: 301027
# Facility.cycle: 2023-2
# Mono.name: Si(111)
# Mono.d_spacing: 3.1351860
# Mono.encoder_resolution: 0.0000050 deg/ct
# Mono.angle_offset: 16.0754326 deg
# Mono.scan_mode: pseudo channel cut
# Mono.scan_type: step
# Mono.direction: forward in energy
# Sample.name: SrCe2Ti4O12
# Sample.prep: Powder in PEG pellet
# Sample.x: 142.329 mm
# Sample.y: 114.126 mm
# Sample.SDD_position: 45.000 mm
# Scan.experimenters: Bruce Ravel
# Scan.edge_energy: 5723.4
# Scan.start_time: 2023-05-06T11:06:37
# Scan.end_time: 2023-05-06T11:12:15
# Scan.transient_id: 74755
# Scan.uid: 5ad255b9-ee68-43a6-98ff-f800ea1d894c
# Scan.plot_hint: (Ce1+Ce2+Ce3+Ce4)/I0  --  ($8+$9+$10+$11)/$5
# Column.1: energy eV
# Column.2: requested_energy eV
# Column.3: measurement_time seconds
# Column.4: xmu 
# Column.5: I0 nA
# Column.6: It nA
# Column.7: Ir nA
# Column.8: Ce1 
# Column.9: Ce2 
# Column.10: Ce3 
# Column.11: Ce4 
# ///////////
# sample courtesy Martin Stennett, University of Sheffield
# -----------
# energy  requested_energy  measurement_time  xmu  I0  It  Ir  Ce1  Ce2  Ce3  Ce4
  5523.399  5523.400  0.500  180.251833  109.231772  0.915321  0.068068  4773.646310  5250.222813  4982.267311  4683.090654
  5533.408  5533.400  0.500  181.558950  109.551867  0.943102  0.071081  4860.462369  5156.178227  4979.283381  4894.197990
  5543.420  5543.400  0.500  178.984585  109.926013  0.972315  0.074315  4860.462369  5156.178227  4876.248688  4782.172427
  5553.410  5553.400  0.500  180.018573  110.254429  1.002980  0.077689  4880.134983  5309.288834  4876.248688  4782.172427
  5563.412  5563.400  0.500  186.700587  110.596810  1.033682  0.081062  5091.357638  5359.360664  5141.419816  5056.351210
  5573.413  5573.400  0.500  186.994182  110.858882  1.066010  0.084809  5153.867865  5517.416766  5102.388052  4956.293283
  5583.408  5583.400  0.500  185.778748  111.104858  1.096278  0.088420  5159.711491  5316.364187  5122.456737  5042.388964
  5593.408  5593.400  0.500  187.350064  111.253743  1.127592  0.092136  5208.089710  5390.437960  5202.479118  5042.388964
  5603.410  5603.400  0.500  188.366844  111.467138  1.159437  0.095923  5134.250425  5512.493163  5209.524412  5140.444931
  5613.407  5613.400  0.500  190.193084  111.597483  1.191803  0.099886  5261.533528  5512.493163  5239.537384  5211.505438
  5623.388  5623.400  0.500  191.953051  111.774623  1.223566  0.103935  5210.674931  5684.632411  5290.606689  5269.565890
  5633.387  5633.400  0.500  194.689652  111.822409  1.256460  0.108044  5362.759078  5663.630615  5349.644604  5394.631643
  5643.388  5643.400  0.500  195.775322  111.941992  1.291778  0.112575  5311.241887  5743.745223  5416.770144  5443.722277
  5653.391  5653.400  0.500  200.874942  112.001710  1.326455  0.117099  5561.929903  5747.740523  5631.878320  5556.788265
  5663.398  5663.400  0.500  200.153130  112.035974  1.359853  0.121508  5511.928660  5760.764735  5567.844898  5583.812714
  5673.397  5673.400  0.500  200.811848  112.073556  1.394470  0.126089  5530.267364  5815.763505  5638.888528  5520.778615
  5683.396  5683.400  0.500  205.024617  112.126809  1.430285  0.130974  5621.026009  5877.848258  5725.957465  5763.924335
  5693.394  5693.400  0.500  212.969170  112.080434  1.460705  0.135396  5779.508547  6200.044842  5911.056616  5979.066971
  5695.395  5695.400  0.500  214.255882  112.087605  1.466452  0.136258  5934.302311  6271.041926  5997.113410  5812.971017
  5697.390  5697.400  0.500  217.616349  112.061702  1.472699  0.137182  6024.067322  6369.141101  6098.198514  5895.051582
  5699.389  5699.400  0.500  216.918835  112.071226  1.478113  0.137919  5897.952153  6407.169787  6001.129898  6004.108035
  5701.389  5701.400  0.500  222.499723  112.050596  1.482626  0.138723  6144.560560  6401.168258  6300.348014  6085.149682
  5703.389  5703.400  0.500  224.425024  112.019243  1.486990  0.139380  6149.159686  6525.226072  6223.286059  6242.249412
  5705.391  5705.400  0.500  232.033880  112.033314  1.490700  0.140136  6382.311942  6821.436299  6322.380744  6469.395633
  5707.389  5707.400  0.500  236.244267  112.021465  1.492331  0.140697  6459.968970  7040.552311  6378.432722  6585.475000
  5709.398  5709.400  0.500  243.575756  111.994577  1.492235  0.140783  6639.291528  6997.546707  6843.718716  6798.606671
  5711.397  5711.400  0.500  255.282672  111.965238  1.489688  0.140834  7099.370433  7332.761707  7137.892303  7012.760603
  5713.400  5713.400  0.500  269.474526  111.983982  1.481550  0.140491  7258.472981  7906.120077  7417.099442  7595.138032
  5713.893  5713.900  0.500  274.619386  111.938749  1.477507  0.140081  7549.119776  7913.086120  7796.296746  7482.047986
  5714.391  5714.400  0.500  277.955284  111.945583  1.473386  0.139671  7669.358126  8163.210992  7652.180397  7631.116808
  5714.890  5714.900  0.500  289.477114  111.949336  1.470464  0.139354  7962.437783  8354.422831  8110.502152  7979.407837
  5715.388  5715.400  0.500  294.893162  111.899143  1.463501  0.138797  8100.592866  8552.551454  8217.637431  8127.510171
  5715.888  5715.900  0.500  304.329482  111.909679  1.456865  0.138287  8192.263752  8830.634096  8565.823857  8468.692939
  5716.389  5716.400  0.500  313.942509  111.882104  1.447053  0.137485  8681.860687  9054.837547  8741.988411  8645.861797
  5716.889  5716.900  0.500  324.637241  111.889430  1.436007  0.136274  8821.250377  9395.001664  9038.139100  9069.084596
  5717.389  5717.400  0.500  341.509725  111.870159  1.422476  0.135034  9351.597229  9846.367008  9647.491608  9359.291290
  5717.888  5717.900  0.500  355.098940  111.860563  1.405232  0.133596  9671.424438  10296.642818  9918.823109  9834.677083
  5718.391  5718.400  0.500  372.425769  111.850639  1.385218  0.131567  10291.146670  10884.998178  9918.823109  10561.092447
  5718.892  5718.900  0.500  402.454515  111.840410  1.365714  0.129584  11125.803597  11527.576771  11316.780184  11040.517511
  5719.390  5719.400  0.500  423.114994  111.831949  1.344472  0.127591  11602.596268  12193.974344  11852.221874  11668.982154
  5719.892  5719.900  0.500  448.507057  111.835559  1.321331  0.125381  12293.305820  13139.625910  12379.606050  12346.499593
  5720.390  5720.400  0.500  479.411487  111.871100  1.293434  0.122487  12998.487846  13843.148770  13584.514117  13206.139626
  5720.894  5720.900  0.500  522.951887  111.836915  1.255496  0.118861  14212.743170  15097.101288  14722.382968  14453.098250
  5721.393  5721.400  0.500  575.583317  111.834916  1.209299  0.114628  15838.956897  16589.363790  16269.760442  15672.230860
  5721.898  5721.900  0.500  635.774155  111.830261  1.149415  0.108952  17450.161363  18246.738583  17981.188132  17420.701953
  5722.391  5722.400  0.500  720.103429  111.809036  1.075695  0.101906  19774.458599  20802.205306  20214.439718  19722.966363
  5722.896  5722.900  0.500  821.568260  111.803304  0.985595  0.093270  22627.185438  23517.681091  23275.495073  22433.684537
  5723.395  5723.400  0.500  959.353127  111.788436  0.877824  0.083029  26450.890697  27411.933809  26915.679292  26466.082276
  5723.896  5723.900  0.500  994.342626  111.766739  0.764234  0.072186  26450.890697  27411.933809  26915.679292  30355.928586
  5724.395  5724.400  0.500  1283.842575  111.789585  0.646330  0.060887  35150.979154  36781.289374  36193.516190  35394.443519
  5724.895  5724.900  0.500  1467.131327  111.771143  0.539725  0.050611  40136.295385  42165.726439  41328.303617  40352.619316
  5725.394  5725.400  0.500  1613.587927  111.788597  0.458110  0.042679  44196.927422  46241.387047  45500.897787  44441.518174
  5725.898  5725.900  0.500  1726.017368  111.747619  0.402505  0.037238  47388.355416  49565.757803  48348.699015  47575.519669
  5726.395  5726.400  0.500  1777.310780  111.743449  0.378175  0.034502  48849.563414  50855.179837  50153.576582  48744.516749
  5726.895  5726.900  0.500  1770.424662  111.742206  0.381141  0.034558  48218.417477  50617.417826  50291.788831  48703.532631
  5727.396  5727.400  0.500  1702.815588  111.765373  0.407979  0.036688  46640.783414  48855.841832  48212.268266  46606.926640
  5727.903  5727.900  0.500  1661.473444  111.748876  0.450253  0.040381  46640.783414  48855.841832  45799.126996  44372.037221
  5728.400  5728.400  0.500  1512.499872  111.746733  0.502752  0.045045  41453.740971  43641.219607  42558.731209  41363.226840
  5728.895  5728.900  0.500  1418.087809  111.740711  0.560204  0.050059  38934.119894  40810.027804  40050.729159  38663.262786
  5729.400  5729.400  0.500  1313.849260  111.756053  0.618299  0.054853  35816.023191  37595.586957  36996.349353  36422.648244
  5729.899  5729.900  0.500  1221.592530  111.722036  0.676821  0.059818  33642.450912  34819.734312  34564.997973  33451.621490
  5730.403  5730.400  0.500  1164.586835  111.693198  0.734197  0.064811  33642.450912  32825.966532  32140.895158  31467.115286
  5730.898  5730.900  0.500  1069.087877  111.700141  0.788553  0.069502  29167.119060  30900.749956  30083.166893  29266.231041
  5731.401  5731.400  0.500  989.045142  111.704246  0.842487  0.074174  26891.379182  28507.933291  27847.388665  27233.840919
  5731.899  5731.900  0.500  923.372016  111.698526  0.890935  0.078450  25154.380954  26602.871015  26001.403356  25380.637686
  5732.402  5732.400  0.500  899.426819  111.672637  0.936062  0.082739  25154.380954  25314.403571  26001.403356  23971.176793
  5732.902  5732.900  0.500  831.925956  111.641981  0.975634  0.086690  22598.013630  24260.448114  23313.479911  22705.920497
  5733.398  5733.400  0.500  795.783037  111.688890  1.008111  0.089718  21818.552750  23030.140674  22425.669044  21605.761445
  5733.903  5733.900  0.500  773.613076  111.698429  1.033690  0.092365  21112.617317  22427.685362  21836.842672  21034.219876
  5734.403  5734.400  0.500  747.974969  111.706405  1.052846  0.094297  20411.817687  21704.941139  20976.187325  20460.648841
  5734.903  5734.900  0.500  745.264673  111.687456  1.064667  0.095555  20290.212262  21704.941139  20815.991718  20425.570620
  5735.404  5735.400  0.500  740.791736  111.656477  1.070009  0.096004  20290.212262  21484.720256  20471.682842  20467.580120
  5735.903  5735.900  0.500  739.568995  111.651734  1.071006  0.095983  20243.923526  21389.735389  20555.898442  20384.603059
  5736.402  5736.400  0.500  749.275624  111.629365  1.068235  0.095735  20375.326186  21582.850080  20934.098235  20748.887367
  5736.902  5736.900  0.500  751.019546  111.633855  1.062813  0.094893  20365.217627  21582.850080  21231.371554  20659.768158
  5737.403  5737.400  0.500  764.316397  111.631650  1.057063  0.094313  20963.676085  22211.575868  21238.499367  20908.149040
  5737.907  5737.900  0.500  770.620379  111.617008  1.051223  0.093732  21159.756672  22401.615606  21487.738737  20965.230233
  5738.403  5738.400  0.500  775.031361  111.610196  1.046365  0.093337  21193.241871  22483.810053  21697.996348  21126.354147
  5738.902  5738.900  0.500  776.348204  111.600141  1.041994  0.093207  21332.408810  22483.810053  21697.996348  21126.354147
  5739.403  5739.400  0.500  788.559044  111.586689  1.038965  0.092996  21601.461662  22641.027017  22139.314504  21610.889990
  5739.904  5739.900  0.500  794.648188  111.558673  1.035981  0.093057  21688.392386  22584.852873  22427.568972  21949.083234
  5740.405  5740.400  0.500  801.168853  111.829859  1.036560  0.093247  22205.872994  23202.412807  22387.350086  21798.963969
  5740.904  5740.900  0.500  800.225132  111.831367  1.035138  0.093712  21908.745592  23111.418352  22605.014275  21865.092204
  5741.398  5741.400  0.500  803.820366  111.845509  1.034733  0.094168  22024.963236  23177.439178  22490.804049  22210.491334
  5741.902  5741.900  0.500  803.185871  111.851867  1.034363  0.094531  22143.206759  23264.620827  22625.920841  21804.090917
  5742.404  5742.400  0.500  809.679525  111.834695  1.035082  0.095002  22378.058855  23470.755185  22552.017799  22149.431046
  5742.903  5742.900  0.500  805.902160  111.823868  1.036118  0.095604  21994.946426  23276.649788  22468.861241  22378.639123
  5743.401  5743.400  0.500  811.422287  111.786061  1.037016  0.096015  22226.411815  23493.727534  22747.053512  22238.508245
  5743.899  5743.900  0.500  808.426059  111.808986  1.038347  0.096359  22175.236777  23187.511247  22686.918248  22339.631342
  5744.399  5744.400  0.500  806.498477  111.812385  1.040190  0.096758  22106.622929  23154.425170  22635.944748  22279.525326
  5744.902  5744.900  0.500  806.610317  111.783357  1.041669  0.097278  22106.622929  23154.425170  22797.154335  22107.406503
  5745.406  5745.400  0.500  813.995133  111.807345  1.043009  0.097470  22422.200703  23271.599050  22828.112570  22488.722096
  5745.904  5745.900  0.500  816.037418  111.748649  1.042918  0.097675  22391.316502  23392.700634  22892.244775  22514.817488
  5746.398  5746.400  0.500  812.987237  111.756317  1.043365  0.097725  22307.265829  23393.584882  22649.948436  22505.660423
  5746.899  5746.900  0.500  818.456213  111.753264  1.043279  0.097974  22305.171702  23772.042772  22984.246276  22403.692476
  5747.403  5747.400  0.500  819.650169  111.738988  1.042619  0.097921  22520.047147  23645.886710  22940.201756  22480.744828
  5747.901  5747.900  0.500  818.522837  111.680848  1.040389  0.098050  22415.048922  23657.054370  22916.373523  22424.847834
  5748.402  5748.400  0.500  825.051448  111.727905  1.038207  0.097872  22578.486066  23820.122500  23102.660299  22680.000975
  5749.399  5749.390  0.500  834.443216  111.738117  1.032681  0.097527  23039.802021  24113.353778  23129.666487  22956.291299
  5750.400  5750.390  0.500  847.274509  111.703437  1.024163  0.097044  23294.034550  24432.751616  23698.138011  23218.550369
  5751.418  5751.410  0.500  867.535966  111.677181  1.013996  0.096078  23950.249213  24999.226311  24255.548875  23678.946914
  5752.473  5752.460  0.500  881.037866  111.656853  1.002961  0.095148  23950.249213  25323.667341  24741.269790  24358.728868
  5753.530  5753.520  0.500  892.231325  111.660023  0.993168  0.094209  24629.269484  25697.048580  24960.415511  24339.836650
  5754.613  5754.600  0.500  907.889930  111.666689  0.985478  0.093487  24807.007407  26209.613965  25529.104223  24835.336845
  5755.706  5755.700  0.500  908.688364  111.568571  0.979960  0.093174  24807.007407  26209.613965  25529.104223  24835.336845
  5756.832  5756.820  0.500  917.074063  111.623283  0.979703  0.093091  24986.616582  26543.014096  25877.576611  24959.610195
  5757.971  5757.960  0.500  918.132964  111.554703  0.981183  0.093334  25240.833472  26504.156411  25585.305192  25091.754791
  5759.121  5759.110  0.500  919.407045  111.549909  0.988312  0.094095  25240.833472  26504.156411  25660.159959  25154.622545
  5760.301  5760.290  0.500  905.510832  111.570993  0.999589  0.095204  24813.749144  25815.442255  25435.043504  24964.507319
  5761.491  5761.480  0.500  897.289292  111.548615  1.013337  0.096531  24813.749144  25572.835672  25336.940859  24367.852239
  5762.708  5762.700  0.500  881.723096  111.521408  1.027953  0.097960  23943.220479  25496.005998  24648.069030  24243.705888
  5763.940  5763.930  0.500  872.638581  111.494597  1.042387  0.099302  23943.220479  25023.384055  24445.727923  23882.154068
  5765.187  5765.180  0.500  864.188374  111.491571  1.055222  0.100731  23301.673772  25023.384055  24445.727923  23578.933596
  5766.460  5766.450  0.500  852.061923  111.450764  1.066980  0.101648  23214.895466  24535.932086  23910.391923  23301.732666
  5767.747  5767.740  0.500  847.185553  111.468287  1.076466  0.102602  23293.902064  24535.932086  23637.138598  22967.349583
  5769.062  5769.050  0.500  840.285428  111.467279  1.083614  0.103467  22950.345641  24153.513713  23443.964572  23116.506177
  5770.388  5770.380  0.500  837.986994  111.421888  1.088740  0.104141  22781.444683  23983.350155  23537.917699  23067.380164
  5771.739  5771.730  0.500  838.229477  111.389122  1.093734  0.104885  22917.665929  24159.616588  23285.889433  23006.473464
  5773.115  5773.100  0.500  836.954974  111.446184  1.099529  0.105607  23054.766207  23826.340215  23544.030066  22850.301723
  5774.478  5774.480  0.500  836.502045  111.345845  1.103438  0.106024  23054.766207  24024.505456  23272.608103  22789.147170
  5775.895  5775.890  0.500  834.551115  111.317105  1.109158  0.107032  22676.075900  23929.499044  23579.013235  22715.225570
  5777.316  5777.310  0.500  832.378603  111.339363  1.116115  0.107771  22766.442327  24119.472749  23130.519681  22660.068742
  5778.752  5778.750  0.500  831.674071  111.308452  1.122739  0.108584  22501.603078  24118.717610  23120.696629  22831.336451
  5780.221  5780.210  0.500  821.558382  111.280718  1.129980  0.109635  22561.143603  23693.219640  22796.392555  22372.850717
  5781.699  5781.690  0.500  824.325704  111.279008  1.136867  0.110594  22712.695213  23678.079591  22952.530042  22386.841666
  5783.194  5783.190  0.500  819.274140  111.280134  1.141411  0.111434  22634.596670  23202.905637  22980.558343  22350.875515
  5784.721  5784.710  0.500  826.285282  111.247572  1.144644  0.112081  22438.394202  24023.492706  23049.469240  22410.874874
  5786.257  5786.250  0.500  831.933712  111.209348  1.144946  0.112228  22735.219926  23834.477823  23312.956270  22636.152024
  5787.816  5787.810  0.500  841.347926  111.204903  1.141920  0.112195  22986.121128  24117.584131  23327.792739  23130.516209
  5789.388  5789.380  0.500  851.596207  111.150169  1.136570  0.111976  23320.043092  24762.216324  23602.285329  22970.517363
  5790.990  5790.980  0.500  851.704918  111.135982  1.129421  0.111371  23320.043092  24762.216324  23602.285329  22970.517363
  5792.596  5792.590  0.500  881.989670  111.119938  1.121978  0.110969  24010.749920  25427.109108  24474.083105  24094.695124
  5794.239  5794.230  0.500  887.648704  111.108525  1.113229  0.110277  24010.749920  25427.109108  24474.083105  24713.395743
  5795.888  5795.880  0.500  902.861534  111.082914  1.107501  0.109783  24439.614506  26082.666330  25256.975796  24513.233134
  5797.554  5797.550  0.500  906.483002  111.069324  1.103833  0.109848  24691.955107  25933.731031  25570.464097  24486.303829
  5799.248  5799.240  0.500  920.322805  111.004922  1.105427  0.110262  24950.861004  26168.923055  25668.453963  25372.123320
  5800.959  5800.950  0.500  918.837898  110.958492  1.111339  0.111074  24950.861004  26239.774294  25631.446901  25130.785521
  5802.691  5802.680  0.500  907.761739  110.967325  1.121883  0.112249  24611.599469  25989.683287  25445.240471  24685.368809
  5804.435  5804.430  0.500  903.876364  110.950243  1.135535  0.113935  24785.756205  25780.375886  25206.915407  24512.254427
  5806.196  5806.190  0.500  891.406149  110.915489  1.149342  0.115398  24288.130684  25516.197749  24832.505986  24233.914621
  5807.988  5807.980  0.500  880.588997  110.856577  1.160902  0.116959  23945.472918  25277.863606  24532.197723  23863.547992
  5809.792  5809.780  0.500  877.466048  110.805921  1.172036  0.118011  23896.844051  25372.048065  24375.184540  23584.356933
