# XDI/1.0 BlueSky/1.10.0 BMM/2023-1.0-py310-tiled
# Beamline.name: BMM (06BM) -- Beamline for Materials Measurement (NIST)
# Beamline.xray_source: NSLS-II three-pole wiggler
# Beamline.collimation: paraboloid mirror, 5 nm Rh on 30 nm Pt
# Beamline.focusing: not in use
# Beamline.harmonic_rejection: flat mirror, Si stripe, pitch = 7.0 mrad relative to beam
# Beamline.software: Bluesky 1.10.0, Ophyd 1.7.0, DataBroker 2.0.0b13, Python 3.10.8, 2023-1.0-py310-tiled
# Detector.I0: 10 cm N2
# Detector.I1: 25 cm N2
# Detector.I2: 25 cm N2
# Detector.fluorescence: SII Vortex ME4 (4-element silicon drift)
# Detector.deadtime_correction: Xspress3
# Element.symbol: Ce
# Element.edge: L3
# Element.reference: Ce
# Element.reference_material: CeO2
# Facility.name: NSLS-II
# Facility.energy: 3.0
# Facility.current: 399.5
# Facility.mode: top-off
# Facility.GUP: 123456
# Facility.SAF: 301027
# Facility.cycle: 2023-2
# Mono.name: Si(111)
# Mono.d_spacing: 3.1351860
# Mono.encoder_resolution: 0.0000050 deg/ct
# Mono.angle_offset: 16.0754326 deg
# Mono.scan_mode: pseudo channel cut
# Mono.scan_type: step
# Mono.direction: forward in energy
# Sample.name: Ce2Ti2O6
# Sample.prep: Powder in PEG pellet
# Sample.x: 142.329 mm
# Sample.y: 114.126 mm
# Sample.SDD_position: 45.000 mm
# Scan.experimenters: Bruce Ravel
# Scan.edge_energy: 5723.4
# Scan.start_time: 2023-05-06T10:41:00
# Scan.end_time: 2023-05-06T10:46:39
# Scan.transient_id: 74731
# Scan.uid: cc88a37e-e65a-4420-a81e-01732a121c20
# Scan.plot_hint: (Ce1+Ce2+Ce3+Ce4)/I0  --  ($8+$9+$10+$11)/$5
# Column.1: energy eV
# Column.2: requested_energy eV
# Column.3: measurement_time seconds
# Column.4: xmu 
# Column.5: I0 nA
# Column.6: It nA
# Column.7: Ir nA
# Column.8: Ce1 
# Column.9: Ce2 
# Column.10: Ce3 
# Column.11: Ce4 
# ///////////
# sample courtesy Martin Stennett, University of Sheffield
# -----------
# energy  requested_energy  measurement_time  xmu  I0  It  Ir  Ce1  Ce2  Ce3  Ce4
  5523.402  5523.400  0.500  209.301428  108.631560  1.268570  0.093352  5589.213671  5912.823225  5617.876922  5616.826816
  5533.408  5533.400  0.500  208.732076  108.949164  1.306355  0.097393  5549.611774  5847.829033  5689.909828  5653.834558
  5543.412  5543.400  0.500  212.723558  109.269343  1.345070  0.101777  5720.309906  6008.935215  5710.950428  5803.967867
  5553.414  5553.400  0.500  215.006904  109.591827  1.382883  0.105881  5892.928261  6090.012425  5817.069967  5762.988694
  5563.410  5563.400  0.500  216.852085  109.899175  1.423505  0.110495  5900.733364  6187.015706  5945.131309  5798.984745
  5573.411  5573.400  0.500  216.745398  110.102829  1.463046  0.115110  5905.938342  6323.171387  5814.099505  5821.072225
  5583.410  5583.400  0.500  219.621566  110.317313  1.501880  0.119651  5941.402612  6215.162275  6033.271248  6038.224874
  5593.407  5593.400  0.500  219.357138  110.459788  1.541601  0.124508  5957.428005  6337.249108  5950.243486  5985.222452
  5603.410  5603.400  0.500  220.501041  110.632712  1.584272  0.129731  6131.021267  6238.154167  6115.310991  5910.141692
  5613.405  5613.400  0.500  223.366644  110.772603  1.624976  0.135030  6150.867356  6472.386676  6122.373896  5997.276771
  5623.461  5623.400  0.500  225.132358  110.856807  1.665733  0.140082  6090.308107  6511.385269  6259.453663  6096.307256
  5633.388  5633.400  0.500  227.264690  111.324616  1.714171  0.145801  6245.727826  6547.450998  6174.463266  6332.512179
  5643.388  5643.400  0.500  229.603051  111.408296  1.757648  0.151837  6164.984610  6789.630755  6251.496940  6373.572237
  5653.394  5653.400  0.500  229.657475  111.462244  1.800825  0.157595  6277.377976  6727.629556  6279.565704  6313.564174
  5663.399  5663.400  0.500  231.991749  111.484326  1.844287  0.163213  6289.582470  6866.681056  6347.610689  6359.569636
  5673.397  5673.400  0.500  236.126279  111.534098  1.888513  0.169233  6362.915479  6806.664368  6565.799146  6600.752703
  5683.400  5683.400  0.500  240.244736  111.528264  1.932238  0.175443  6709.646071  6895.792686  6658.872478  6529.767196
  5693.394  5693.400  0.500  243.242895  111.488365  1.975124  0.181491  6649.027288  6962.847495  6763.975876  6742.901959
  5695.396  5695.400  0.500  245.692708  111.463473  1.984886  0.182732  6697.959922  7148.927978  6737.952494  6800.922102
  5697.392  5697.400  0.500  249.204625  111.483678  1.992689  0.183915  6680.957138  7307.126151  6946.134350  6848.030590
  5699.388  5699.400  0.500  250.858367  111.435675  1.999268  0.185007  6753.332404  7334.087654  6939.100152  6928.051362
  5701.391  5701.400  0.500  248.298790  111.447819  2.006080  0.186066  6752.302495  7129.958553  6951.107247  6838.990391
  5703.399  5703.400  0.500  252.740341  111.432342  2.012688  0.187051  6967.190291  7315.084926  6904.072896  6977.100104
  5705.399  5705.400  0.500  258.287487  111.425090  2.020445  0.188261  7103.172617  7471.179565  7128.214212  7077.140138
  5707.395  5707.400  0.500  261.170267  111.420791  2.025938  0.189359  7187.036134  7562.247147  7243.326269  7107.188277
  5709.399  5709.400  0.500  265.193939  111.327187  2.028392  0.189793  7293.302997  7712.344556  7147.292497  7370.355155
  5711.400  5711.400  0.500  270.757127  111.348391  2.030957  0.190484  7418.072690  7775.410602  7499.481702  7455.405411
  5713.403  5713.400  0.500  280.676415  111.378819  2.031111  0.190938  7719.498749  8017.546751  7723.690030  7800.672030
  5713.891  5713.900  0.500  282.541554  111.355314  2.029762  0.190818  7536.294851  8142.670432  7963.858564  7819.679504
  5714.389  5714.400  0.500  285.865663  111.351751  2.028564  0.190998  7862.445249  8246.707427  8044.879635  7677.609841
  5714.891  5714.900  0.500  286.747380  111.327363  2.026881  0.190661  7755.392781  8359.838884  8019.893752  7787.704370
  5715.390  5715.400  0.500  292.569975  111.285380  2.024884  0.190526  7940.057146  8496.911215  8133.983909  7987.808474
  5715.889  5715.900  0.500  296.501913  111.312270  2.022997  0.190359  8267.497838  8625.013720  8191.015577  7920.773863
  5716.389  5716.400  0.500  302.018208  111.294832  2.019110  0.189881  8214.848636  8786.119672  8454.168470  8157.929034
  5716.891  5716.900  0.500  308.682468  111.299552  2.014937  0.189675  8536.768036  8802.090469  8487.187595  8530.174418
  5717.390  5717.400  0.500  314.501024  111.281792  2.010242  0.189355  8493.294876  9106.326746  8798.380664  8600.235192
  5717.890  5717.900  0.500  320.021460  111.263927  2.003274  0.188389  8790.738530  9269.389919  8853.423843  8693.292056
  5718.391  5718.400  0.500  330.863567  111.222922  1.993036  0.187859  9014.789447  9595.623755  9194.684629  8994.515002
  5718.895  5718.900  0.500  338.302214  111.254772  1.982661  0.186620  9303.498047  9845.816909  9267.731876  9220.688950
  5719.394  5719.400  0.500  357.276068  111.249613  1.968135  0.185158  9720.264973  10241.087302  9937.341283  9848.130724
  5719.893  5719.900  0.500  373.092232  111.261912  1.950916  0.183253  10263.354537  10700.491453  10365.658917  10181.450221
  5720.389  5720.400  0.500  391.331285  111.245162  1.931604  0.181483  10637.146650  11295.806571  10901.015913  10699.742996
  5720.893  5720.900  0.500  405.086979  111.211497  1.914626  0.179750  11070.682536  11771.309100  11264.281533  10944.056199
  5721.395  5721.400  0.500  415.565720  111.210816  1.903620  0.178817  11189.092702  12099.471121  11642.583126  11284.255796
  5721.896  5721.900  0.500  425.402755  111.214605  1.893104  0.177619  11568.945976  12153.602990  11872.819757  11715.630411
  5722.393  5722.400  0.500  442.677060  111.190902  1.876909  0.175873  12121.744272  12684.920147  12358.126726  12056.870445
  5722.893  5722.900  0.500  462.695710  111.199824  1.851464  0.173224  12984.552829  12684.920147  12971.688785  12810.519979
  5723.395  5723.400  0.500  499.951822  111.218082  1.814619  0.169503  13685.871277  14430.292748  13830.369755  13657.148949
  5723.897  5723.900  0.500  541.618130  111.199139  1.765924  0.164562  14858.652728  15562.215427  15095.522362  14711.079323
  5724.395  5724.400  0.500  598.711712  111.191864  1.703412  0.158102  16397.803395  17198.674890  16609.847005  16365.545924
  5724.893  5724.900  0.500  670.987455  111.175427  1.627337  0.150143  18424.440747  19130.543947  18851.972177  18190.359946
  5725.394  5725.400  0.500  729.441438  111.190721  1.540882  0.141321  18424.440747  21444.469504  20897.884525  20340.324951
  5725.898  5725.900  0.500  847.251557  111.179604  1.436287  0.130678  23385.843609  23934.179805  23473.616975  23403.451916
  5726.396  5726.400  0.500  951.692946  111.142812  1.327863  0.119888  26035.603739  27420.734360  26460.165741  25857.326534
  5726.898  5726.900  0.500  1060.766466  111.149212  1.226004  0.109883  28802.459579  30393.066682  29446.653257  29261.177116
  5727.395  5727.400  0.500  1147.362862  111.144523  1.143958  0.101864  31312.550915  32821.413498  32032.953062  31356.180659
  5727.900  5727.900  0.500  1199.768282  111.152318  1.092203  0.096949  32860.428049  34476.342629  33508.548150  32511.706839
  5728.398  5728.400  0.500  1230.108248  111.148360  1.068123  0.094411  33664.072554  35128.324805  34287.916994  33644.200033
  5728.897  5728.900  0.500  1237.122132  111.176624  1.061410  0.093406  33664.072554  35128.324805  35039.184826  33707.479500
  5729.398  5729.400  0.500  1242.209501  111.182265  1.060388  0.093056  34143.266147  35527.731593  34698.516066  33742.152526
  5729.897  5729.900  0.500  1246.947978  111.176307  1.055828  0.092478  34337.741598  35581.742472  34995.173765  33716.413667
  5730.402  5730.400  0.500  1260.621278  111.148420  1.042932  0.091037  34337.741598  36014.614835  35353.437371  34410.270038
  5730.898  5730.900  0.500  1290.462232  111.148929  1.022408  0.089191  35293.763790  36957.564860  36161.195022  35020.971458
  5731.399  5731.400  0.500  1305.959424  111.135814  0.996849  0.086727  35293.763790  36957.564860  36898.186205  35989.348327
  5731.897  5731.900  0.500  1347.431175  111.115089  0.976724  0.085148  37003.005220  38234.616501  37806.900580  36675.412040
  5732.404  5732.400  0.500  1356.368482  111.090268  0.967349  0.084538  36756.482807  39067.421580  37699.580000  37155.853637
  5732.901  5732.900  0.500  1351.156439  111.118007  0.970928  0.085182  36756.482807  38688.082440  37770.626275  36922.619347
  5733.402  5733.400  0.500  1344.922130  111.111072  0.981651  0.086432  36489.326930  38706.877405  37544.252828  36695.282609
  5733.903  5733.900  0.500  1329.116051  111.097229  0.994157  0.087788  36501.022993  37943.655838  37000.155793  36216.276082
  5734.405  5734.400  0.500  1317.026735  111.087587  1.004525  0.089039  36024.966175  37715.381342  36706.058050  35858.916350
  5734.903  5734.900  0.500  1312.990689  111.079025  1.010353  0.089494  35713.226854  37238.251744  37032.349324  35861.897654
  5735.401  5735.400  0.500  1310.876141  111.051299  1.011013  0.089649  35906.300877  37005.819619  36635.091016  36027.287261
  5735.904  5735.900  0.500  1319.800117  111.023414  1.006191  0.089147  35870.003202  37757.765463  36845.544070  36055.402354
  5736.401  5736.400  0.500  1324.243948  111.033145  0.997771  0.088208  36298.015435  37952.974615  36826.533096  35957.447327
  5736.902  5736.900  0.500  1343.503242  110.978713  0.986217  0.087066  36703.778875  38205.577989  37896.902207  36294.002029
  5737.405  5737.400  0.500  1349.646630  110.999296  0.977367  0.086279  36550.709783  38781.524440  37642.955129  36834.635764
  5737.906  5737.900  0.500  1356.451427  111.016276  0.976242  0.085967  36550.709783  38781.524440  38029.985210  37225.965963
  5738.403  5738.400  0.500  1342.163480  111.019535  0.984682  0.086803  36550.339142  38413.485417  37591.479809  36451.060546
  5738.901  5738.900  0.500  1335.652402  111.011365  1.001254  0.088264  36550.339142  38413.485417  37198.142743  36110.629284
  5739.403  5739.400  0.500  1298.695578  111.013924  1.025124  0.090553  35306.960778  37092.950250  36340.702738  35432.678851
  5739.904  5739.900  0.500  1279.803050  111.002640  1.053602  0.093424  35306.960778  35863.477068  35458.401017  35432.678851
  5740.405  5740.400  0.500  1226.660259  111.015246  1.083514  0.096389  33385.273432  35174.207436  34111.560954  33506.948777
  5740.903  5740.900  0.500  1191.950477  110.975267  1.115205  0.099659  32288.608343  33878.585322  33371.945053  32737.883220
  5741.399  5741.400  0.500  1163.222314  110.986338  1.148316  0.103071  31274.413244  33263.014496  32480.429785  32083.926947
  5741.903  5741.900  0.500  1121.439246  110.970194  1.183575  0.106958  30341.635092  32079.413463  31445.072664  30580.209579
  5742.402  5742.400  0.500  1090.143163  110.965995  1.220900  0.110913  29808.214298  31128.141413  30293.513712  29738.951766
  5742.904  5742.900  0.500  1043.532018  110.963339  1.257654  0.114439  28386.814868  29617.323227  29384.321272  28405.337758
  5743.403  5743.400  0.500  1008.808838  110.940585  1.293984  0.118326  27576.503149  28838.364122  28003.809603  27499.166047
  5743.897  5743.900  0.500  985.313444  110.946006  1.328081  0.121969  26865.476621  28339.751152  27338.050823  26773.312939
  5744.396  5744.400  0.500  954.449007  110.951560  1.356943  0.125024  25959.575628  27226.887695  26718.483665  25992.659742
  5744.900  5744.900  0.500  937.499698  110.933301  1.382671  0.127668  25350.124907  26853.001733  26215.812925  25580.996938
  5745.401  5745.400  0.500  914.931059  110.930813  1.402734  0.129620  24929.777348  26217.363026  25613.914458  24732.991112
  5745.904  5745.900  0.500  900.727621  110.906488  1.418459  0.131433  24516.078393  25563.920685  25184.549388  24631.988912
  5746.404  5746.400  0.500  896.777723  110.893584  1.430906  0.132677  24188.836778  25758.035244  24949.226392  24550.797817
  5746.902  5746.900  0.500  892.605242  110.870342  1.440721  0.133898  24186.558644  25467.771905  24835.278059  24473.839771
  5747.399  5747.400  0.500  879.846681  110.869116  1.448714  0.134702  24056.421373  25246.514925  24350.731450  23894.155996
  5747.901  5747.900  0.500  879.080232  110.880540  1.455098  0.135566  23826.277023  25110.471287  24545.861337  23990.281040
  5748.405  5748.400  0.500  869.892754  110.868419  1.460738  0.136035  23816.258999  24898.187165  23837.099527  23892.088635
  5749.398  5749.390  0.500  867.053465  110.855460  1.468298  0.137120  23720.414498  24706.976811  24125.443954  23564.775875
  5750.405  5750.390  0.500  873.208022  110.852011  1.474752  0.138220  23673.310354  24696.876440  24600.745841  23825.932732
  5751.410  5751.410  0.500  861.073449  110.817361  1.480406  0.138786  23655.809097  24550.006615  23848.273630  23367.798276
  5752.468  5752.460  0.500  867.699112  110.794545  1.486539  0.139500  23364.889851  24720.947989  24405.691786  23644.798256
  5753.531  5753.520  0.500  870.844437  110.792840  1.492793  0.140108  23667.724454  24765.113715  24405.691786  23644.798256
  5754.605  5754.600  0.500  860.724135  110.745758  1.496022  0.140670  23615.940699  24446.807540  23817.098983  23441.699494
  5755.706  5755.700  0.500  867.960412  110.732717  1.497700  0.140709  23601.901748  24835.213763  24150.576510  23523.922694
  5756.830  5756.820  0.500  872.428457  110.731779  1.496924  0.140732  23601.901748  25151.294187  24122.466279  23729.892605
  5757.972  5757.960  0.500  883.722230  110.716915  1.493338  0.140506  23914.427344  25312.717974  24379.104283  24236.749369
  5759.119  5759.110  0.500  881.568886  110.693372  1.490557  0.140147  24077.863750  25161.715462  24279.738874  24064.514569
  5760.301  5760.290  0.500  889.369629  110.684416  1.487712  0.140141  24272.929499  25077.501519  24723.146328  24365.780803
  5761.487  5761.480  0.500  895.780295  110.673090  1.484379  0.139922  24574.959076  25419.893609  24646.029266  24497.891116
  5762.705  5762.700  0.500  910.821928  110.667882  1.479066  0.139508  24832.577772  25923.307671  25319.762261  24723.086325
  5763.939  5763.930  0.500  921.607781  110.610879  1.470030  0.138558  25312.373419  26256.901150  25470.052966  24900.519328
  5765.187  5765.180  0.500  940.978171  110.597730  1.460008  0.137831  25534.594959  26836.496033  26111.836735  25587.121586
  5766.455  5766.450  0.500  949.213488  110.593100  1.450625  0.136818  25788.207091  26989.705121  26529.240185  25669.309435
  5767.746  5767.740  0.500  963.042511  110.600052  1.443919  0.136048  26146.188619  27467.045050  26736.490796  26162.827706
  5769.060  5769.050  0.500  975.543311  110.556148  1.439071  0.135989  26427.669175  27770.477424  27140.878465  26513.285139
  5770.388  5770.380  0.500  978.522592  110.560244  1.436372  0.135925  26492.804498  28066.693325  26958.888832  26667.309931
  5771.736  5771.730  0.500  978.650268  110.543395  1.437074  0.136184  26654.244803  28042.818441  26958.888832  26527.371256
  5773.111  5773.100  0.500  982.895761  110.516207  1.438623  0.136481  26812.444511  27746.457983  27157.267731  26909.741484
  5774.489  5774.480  0.500  984.464682  110.497761  1.441619  0.136970  26641.319972  28038.885338  27398.328369  26702.609828
  5775.902  5775.890  0.500  990.767650  110.492151  1.446118  0.137748  26641.319972  28333.294218  27468.469123  27028.965898
  5777.318  5777.310  0.500  986.744463  110.453238  1.450557  0.138566  26811.076141  28181.032358  27252.317146  26744.695610
  5778.756  5778.750  0.500  987.386706  110.425784  1.457498  0.139482  26962.939579  28002.976442  27489.515282  26577.519858
  5780.221  5780.210  0.500  990.057297  110.431036  1.467535  0.140918  26962.939579  28098.912556  27489.515282  26781.685488
  5781.699  5781.690  0.500  970.102163  110.398396  1.479623  0.142558  26104.357965  27865.522308  26773.708852  26354.133579
  5783.197  5783.190  0.500  966.553057  110.378882  1.494085  0.144184  26548.959866  27348.301172  26754.801841  26034.983348
  5784.718  5784.710  0.500  956.463489  110.362401  1.508013  0.146040  25837.610026  27417.137282  26439.228842  25863.631106
  5786.260  5786.250  0.500  953.576989  110.316883  1.520442  0.147399  25617.745387  27208.825559  26416.350934  25952.719240
  5787.819  5787.810  0.500  950.402961  110.349007  1.532855  0.148941  25778.295037  27033.820348  26162.194758  25901.712817
  5789.391  5789.380  0.500  947.843232  110.298824  1.541887  0.150151  25701.529184  26735.455872  26404.455069  25704.553326
  5790.994  5790.980  0.500  947.220658  110.320807  1.551435  0.151416  25457.453887  27116.845331  26386.470779  25537.377396
  5792.600  5792.590  0.500  948.099630  110.227927  1.555974  0.152158  25555.709862  27219.876615  26266.238370  25465.231694
  5794.240  5794.230  0.500  939.091869  110.209971  1.563386  0.153081  25613.725946  26516.320447  26220.240068  25147.000946
  5795.891  5795.880  0.500  942.114016  110.166796  1.571602  0.154340  25386.702663  26639.472080  26060.955110  25702.552933
  5797.560  5797.550  0.500  938.472801  110.108742  1.579744  0.155409  25386.702663  26639.472080  25995.814447  25312.070457
  5799.249  5799.240  0.500  939.436802  110.118781  1.588444  0.156724  25561.470099  26690.250110  25798.755504  25399.160097
  5800.960  5800.950  0.500  938.633481  110.093222  1.596547  0.157765  25372.383362  26735.654543  25813.872152  25415.273912
  5802.692  5802.680  0.500  938.425919  110.089977  1.604540  0.158946  25161.963719  26520.309732  26128.721518  25500.292801
  5804.440  5804.430  0.500  934.384941  110.019367  1.611780  0.159985  25302.149566  26424.342281  25845.820392  25228.127352
  5806.196  5806.190  0.500  935.296590  109.967300  1.618500  0.160859  25203.480562  26479.016395  25839.590975  25329.952994
  5807.987  5807.980  0.500  934.837274  110.311847  1.630079  0.162233  25367.418829  26585.342713  25815.698152  25355.166550
