# XDI/1.0 BlueSky/1.10.0 BMM/2023-1.0-py310-tiled
# Beamline.name: BMM (06BM) -- Beamline for Materials Measurement (NIST)
# Beamline.xray_source: NSLS-II three-pole wiggler
# Beamline.collimation: paraboloid mirror, 5 nm Rh on 30 nm Pt
# Beamline.focusing: not in use
# Beamline.harmonic_rejection: flat mirror, Si stripe, pitch = 7.0 mrad relative to beam
# Beamline.software: Bluesky 1.10.0, Ophyd 1.7.0, DataBroker 2.0.0b13, Python 3.10.8, 2023-1.0-py310-tiled
# Detector.I0: 10 cm N2
# Detector.I1: 25 cm N2
# Detector.I2: 25 cm N2
# Detector.fluorescence: SII Vortex ME4 (4-element silicon drift)
# Detector.deadtime_correction: Xspress3
# Element.symbol: Ce
# Element.edge: L3
# Element.reference: Ce
# Element.reference_material: CeO2
# Facility.name: NSLS-II
# Facility.energy: 3.0
# Facility.current: 399.7
# Facility.mode: top-off
# Facility.GUP: 123456
# Facility.SAF: 301027
# Facility.cycle: 2023-2
# Mono.name: Si(111)
# Mono.d_spacing: 3.1351860
# Mono.encoder_resolution: 0.0000050 deg/ct
# Mono.angle_offset: 16.0754326 deg
# Mono.scan_mode: pseudo channel cut
# Mono.scan_type: step
# Mono.direction: forward in energy
# Sample.name: Ce2SiO7
# Sample.prep: Powder in PEG pellet
# Sample.x: 142.329 mm
# Sample.y: 114.126 mm
# Sample.SDD_position: 45.000 mm
# Scan.experimenters: Bruce Ravel
# Scan.edge_energy: 5723.4
# Scan.start_time: 2023-05-06T11:00:13
# Scan.end_time: 2023-05-06T11:05:54
# Scan.transient_id: 74749
# Scan.uid: 6b3cb612-6d4e-4f77-87d1-a0faeda308f1
# Scan.plot_hint: (Ce1+Ce2+Ce3+Ce4)/I0  --  ($8+$9+$10+$11)/$5
# Column.1: energy eV
# Column.2: requested_energy eV
# Column.3: measurement_time seconds
# Column.4: xmu 
# Column.5: I0 nA
# Column.6: It nA
# Column.7: Ir nA
# Column.8: Ce1 
# Column.9: Ce2 
# Column.10: Ce3 
# Column.11: Ce4 
# ///////////
# sample courtesy Martin Stennett, University of Sheffield
# -----------
# energy  requested_energy  measurement_time  xmu  I0  It  Ir  Ce1  Ce2  Ce3  Ce4
  5523.408  5523.400  0.500  3.137447  109.017672  2.036670  0.150612  76.007396  94.009328  89.010966  83.009442
  5533.408  5533.400  0.500  3.281531  109.412052  2.094199  0.156799  76.007396  94.009328  92.011214  97.011067
  5543.411  5543.400  0.500  3.135020  109.739693  2.150903  0.163674  75.007122  84.007930  90.010500  95.010617
  5553.412  5553.400  0.500  3.051095  110.135756  2.210847  0.170164  96.009150  90.008486  77.008939  73.008027
  5563.410  5563.400  0.500  3.549726  110.724395  2.275980  0.177751  87.008311  106.009965  95.011314  105.011680
  5573.413  5573.400  0.500  3.541229  110.990844  2.335697  0.184945  94.009556  89.009077  103.012727  107.012692
  5583.407  5583.400  0.500  3.587841  111.221304  2.395381  0.192230  84.008516  107.010722  110.013592  98.011543
  5593.407  5593.400  0.500  3.751572  111.432461  2.456083  0.199506  93.009517  110.011034  115.014348  100.011969
  5603.407  5603.400  0.500  3.773439  111.581730  2.516030  0.207345  111.011354  113.011479  88.010962  109.013013
  5613.405  5613.400  0.500  3.659716  111.770257  2.579913  0.215242  107.011333  89.009264  120.015488  93.011264
  5623.424  5623.400  0.500  4.668189  111.833311  2.638326  0.223037  108.011133  132.013482  137.017024  145.017380
  5633.388  5633.400  0.500  4.948598  111.964537  2.700858  0.231300  131.014700  138.015389  145.019425  140.018017
  5643.388  5643.400  0.500  6.227114  112.103710  2.765708  0.239890  160.017454  198.021609  165.021445  175.022075
  5653.394  5653.400  0.500  6.251265  112.150698  2.827093  0.248518  178.019529  176.019226  186.024727  161.020252
  5663.399  5663.400  0.500  8.691429  112.192809  2.890980  0.257129  253.027915  221.024230  247.031657  254.031989
  5673.397  5673.400  0.500  11.831505  112.256763  2.953844  0.266319  325.037599  339.039371  328.045041  336.044459
  5683.402  5683.400  0.500  16.417158  112.275099  3.013874  0.274966  452.054371  480.056599  431.061038  480.066081
  5693.395  5693.400  0.500  25.982417  112.244649  3.068050  0.283296  718.088307  711.085935  732.106503  755.106527
  5695.396  5695.400  0.500  29.081357  112.217308  3.074996  0.284846  809.099398  847.103071  823.119558  784.109580
  5697.393  5697.400  0.500  31.799919  112.247980  3.085400  0.286192  892.111023  910.112035  950.138174  817.115418
  5699.390  5699.400  0.500  31.802633  112.238401  3.092739  0.287861  892.111023  910.112035  950.138174  817.115418
  5701.400  5701.400  0.500  41.018163  112.234359  3.096039  0.288660  1111.144393  1159.151733  1166.177726  1167.173384
  5703.392  5703.400  0.500  46.142961  112.238482  3.099827  0.289585  1269.448909  1339.175465  1293.200867  1277.190653
  5705.401  5705.400  0.500  54.089152  112.219889  3.101281  0.290531  1482.199726  1542.208507  1566.246058  1479.224362
  5707.399  5707.400  0.500  65.469242  112.206543  3.097653  0.290791  1881.256980  1923.263487  1742.280421  1799.276460
  5709.397  5709.400  0.500  77.452593  112.201849  3.088618  0.290196  2135.303213  2311.330058  2156.354883  2087.336010
  5711.400  5711.400  0.500  95.845838  112.227020  3.070117  0.289448  2612.130595  2777.423002  2745.488698  2621.450432
  5713.397  5713.400  0.500  125.264210  112.198741  3.037746  0.286828  3384.559552  3584.594953  3600.690344  3484.641786
  5713.892  5713.900  0.500  134.132648  112.170718  3.024281  0.285823  3763.718668  3872.649734  3758.715379  3650.671634
  5714.391  5714.400  0.500  142.852697  112.226950  3.011372  0.284486  3949.671049  4141.720867  3966.775209  3973.755314
  5714.888  5714.900  0.500  154.518925  112.254579  2.994703  0.283143  4344.994248  4510.798637  4276.861255  4212.802752
  5715.388  5715.400  0.500  167.398928  112.214646  2.973152  0.280995  4639.836795  4944.899848  4543.937076  4655.937825
  5715.891  5715.900  0.500  177.883086  112.230696  2.951385  0.279114  4639.836795  5314.005011  4954.058561  5056.042053
  5716.387  5716.400  0.500  200.676543  112.217553  2.923387  0.276453  5559.855580  5921.174169  5552.226351  5486.174456
  5716.889  5716.900  0.500  223.123266  112.219393  2.889959  0.273552  6180.672162  6465.310842  6231.415002  6161.359508
  5717.387  5717.400  0.500  246.225348  112.130299  2.847272  0.269516  6776.565749  7173.527961  6786.625910  6872.602180
  5717.891  5717.900  0.500  273.157178  112.216493  2.801815  0.265078  7651.217022  8035.809062  7464.883208  7500.831145
  5718.392  5718.400  0.500  309.316882  112.221325  2.746401  0.260035  8620.260495  8947.170584  8581.288207  8563.231156
  5718.895  5718.900  0.500  339.970518  112.205672  2.688185  0.254325  9282.885047  9957.505308  9523.671873  9382.558161
  5719.393  5719.400  0.500  375.695780  112.207207  2.631917  0.248977  10234.757352  10871.898176  10619.148586  10429.969942
  5719.894  5719.900  0.500  415.246839  112.196873  2.574046  0.243292  11416.839409  12108.449092  11620.610243  11443.498001
  5720.393  5720.400  0.500  460.957748  112.201685  2.502597  0.236412  12632.869181  13560.078872  12913.245887  12614.042181
  5720.893  5720.900  0.500  515.825421  112.198207  2.415704  0.228020  14279.397347  15135.050945  14355.245062  14104.993886
  5721.393  5721.400  0.500  582.504781  112.185059  2.310988  0.218139  16148.944010  16842.989788  16333.323872  16023.075566
  5721.895  5721.900  0.500  650.531529  112.187045  2.182445  0.205919  16148.944010  19803.727910  18751.944752  18276.593031
  5722.393  5722.400  0.500  775.725834  112.185777  2.028740  0.191349  21331.188828  22702.050765  21632.253175  21359.912628
  5722.896  5722.900  0.500  912.153356  112.184916  1.841810  0.173675  25374.556444  26566.370854  25484.770733  24904.150049
  5723.395  5723.400  0.500  1073.921817  112.183488  1.626244  0.153016  29965.724728  30954.666602  30205.353578  29350.550209
  5723.898  5723.900  0.500  1257.888908  112.175507  1.410154  0.132267  34644.425091  36791.145109  34823.962433  34844.793832
  5724.395  5724.400  0.500  1435.973109  112.182310  1.214433  0.113627  39892.250460  41396.627295  40429.533099  39372.368974
  5724.893  5724.900  0.500  1589.173859  112.156590  1.060237  0.098432  44165.089757  46340.376990  44536.708218  43194.146038
  5725.391  5725.400  0.500  1700.181624  112.170201  0.954206  0.088121  46733.418160  49620.773106  47719.912246  46635.610735
  5725.901  5725.900  0.500  1741.882249  112.188921  0.879031  0.080372  46733.418160  51891.837573  47719.912246  49074.721814
  5726.398  5726.400  0.500  1844.928561  112.184827  0.837228  0.075867  50975.202681  53510.526668  52006.042950  50481.218528
  5726.895  5726.900  0.500  1847.244719  112.193256  0.825724  0.074311  50975.202681  53673.709906  51949.214245  50650.272371
  5727.395  5727.400  0.500  1816.093308  112.241270  0.845725  0.075670  50062.584599  52776.756367  51086.311178  49914.967616
  5727.899  5727.900  0.500  1757.285226  112.214271  0.891207  0.079414  48688.727410  50932.048123  49412.581994  48159.123507
  5728.400  5728.400  0.500  1677.395244  112.234104  0.958687  0.085053  46425.540965  48788.186987  47054.848341  45992.376816
  5728.899  5728.900  0.500  1583.834757  112.188906  1.040634  0.092123  43863.392842  46365.247522  44212.059754  43247.988911
  5729.398  5729.400  0.500  1492.982747  112.230316  1.129355  0.099540  41490.514931  43262.938238  41935.207532  40869.265350
  5729.899  5729.900  0.500  1404.568901  112.228497  1.220865  0.107263  38937.012639  40882.281934  39313.689778  38499.671745
  5730.401  5730.400  0.500  1311.984012  112.238240  1.308468  0.114666  36263.837616  38097.602541  36841.079871  36052.256476
  5730.898  5730.900  0.500  1238.622530  112.236742  1.388883  0.121444  34547.030500  35960.445311  34525.575853  33985.905713
  5731.399  5731.400  0.500  1185.399754  112.222648  1.465567  0.128170  32947.079269  34320.149792  33299.638996  32461.831625
  5731.897  5731.900  0.500  1127.538612  112.190042  1.533493  0.134249  31458.955905  32525.365603  31664.075077  30850.207391
  5732.404  5732.400  0.500  1081.729329  112.199452  1.595744  0.140107  30102.478276  31628.163263  30343.259105  29295.537088
  5732.901  5732.900  0.500  1031.304735  112.223727  1.653342  0.145796  28897.570824  29650.269103  29040.863349  28148.157790
  5733.400  5733.400  0.500  996.796530  112.250048  1.703590  0.150905  27685.949353  29036.469179  27873.810068  27294.229539
  5733.903  5733.900  0.500  964.357026  112.225757  1.747384  0.155331  26743.757053  28014.501707  27103.069347  26364.369279
  5734.404  5734.400  0.500  943.563734  112.219532  1.786001  0.159109  26304.666147  27427.191515  26221.385746  25933.036942
  5734.903  5734.900  0.500  922.199003  112.197912  1.815800  0.162058  25671.268571  26982.437929  25621.806988  25193.288866
  5735.404  5735.400  0.500  922.213440  112.196155  1.839920  0.164238  25671.268571  26982.437929  25621.806988  25193.288866
  5735.904  5735.900  0.500  897.611623  112.206101  1.857905  0.165463  24904.216988  26160.022459  24987.319527  24665.941638
  5736.405  5736.400  0.500  891.343952  112.192554  1.868060  0.166042  24576.976657  25875.611126  25065.016298  24484.550814
  5736.902  5736.900  0.500  886.140094  112.185116  1.875227  0.166679  24750.860273  25775.567522  24785.911016  24099.390132
  5737.405  5737.400  0.500  887.088657  112.170900  1.879113  0.166714  24494.290257  25789.678851  24817.990391  24403.573365
  5737.905  5737.900  0.500  881.693712  112.193442  1.883592  0.166978  24230.316108  25719.558217  24798.982922  24171.395125
  5738.404  5738.400  0.500  885.733607  112.211488  1.887031  0.167419  24435.505285  25790.560648  24902.967633  24260.452924
  5738.899  5738.900  0.500  881.920725  112.208473  1.890229  0.167930  24188.224920  25791.574037  24647.762646  24331.416355
  5739.403  5739.400  0.500  879.452719  112.201839  1.892157  0.168536  24535.576140  25471.409034  24551.848631  24117.378881
  5739.908  5739.900  0.500  887.242471  112.173948  1.894422  0.169137  24535.576140  25958.653546  24652.788052  24378.472670
  5740.406  5740.400  0.500  886.649308  112.198449  1.897922  0.170165  24603.799902  25889.628961  24652.781886  24334.466581
  5740.904  5740.900  0.500  881.979581  112.185051  1.901009  0.170946  24457.135899  25704.562462  24718.905776  24064.319762
  5741.400  5741.400  0.500  885.157907  112.238637  1.905629  0.172438  24465.635336  25829.738581  24718.905776  24334.637619
  5741.900  5741.900  0.500  888.300574  112.228805  1.910158  0.173359  24782.702165  25995.804233  24653.927938  24260.477197
  5742.400  5742.400  0.500  875.821304  112.227592  1.914208  0.174915  24185.969808  25829.524737  24320.609054  23955.212400
  5742.903  5742.900  0.500  888.398850  112.211902  1.918893  0.175968  24516.656980  26020.713721  24838.047461  24313.506293
  5743.403  5743.400  0.500  876.126813  112.197322  1.921975  0.177061  24414.721071  25579.472551  24362.633887  23942.254277
  5743.897  5743.900  0.500  878.043189  112.199939  1.926332  0.177806  24229.153205  25239.131188  24782.739602  24265.368698
  5744.399  5744.400  0.500  880.689905  112.157805  1.929257  0.178551  24554.009193  25465.293370  24555.667075  24201.276735
  5744.898  5744.900  0.500  878.811871  112.185474  1.932421  0.179501  24428.783979  25503.266434  24514.631198  24143.244883
  5745.402  5745.400  0.500  881.133225  112.178198  1.933244  0.179850  24384.401076  25712.527143  24508.607875  24238.401005
  5745.906  5745.900  0.500  878.706929  112.135747  1.934948  0.180412  24261.822009  25684.573241  24347.626104  24240.436589
  5746.401  5746.400  0.500  882.993199  112.137397  1.933765  0.180361  24401.055347  25653.361714  24797.900522  24164.241033
  5746.898  5746.900  0.500  883.017321  112.131359  1.933248  0.180376  24459.026049  25686.658385  24750.874202  24117.373452
  5747.399  5747.400  0.500  886.754331  112.117959  1.930378  0.180548  24616.113245  25918.696273  24753.911056  24132.364854
  5747.901  5747.900  0.500  895.033246  112.136371  1.925174  0.180183  24605.777095  26060.903405  25060.250643  24638.849194
  5748.404  5748.400  0.500  901.395244  112.093342  1.918092  0.179746  25026.478677  26087.959846  25199.181097  24726.785637
  5749.397  5749.390  0.500  913.744154  112.069518  1.901387  0.178487  25313.664921  26439.221594  25584.767840  25065.212536
  5750.402  5750.390  0.500  939.487535  112.040998  1.879879  0.176952  26242.186361  27516.106820  26063.204485  25439.623591
  5751.417  5751.410  0.500  954.919009  112.025912  1.855085  0.175059  26441.416607  27910.486240  26668.629116  25955.141048
  5752.473  5752.460  0.500  958.614492  112.010702  1.830207  0.172636  26441.416607  28309.895251  26668.629116  25955.141048
  5753.527  5753.520  0.500  1002.264581  111.973042  1.806763  0.170572  27515.966286  29254.855400  28217.309649  27238.483076
  5754.611  5754.600  0.500  1018.067677  111.952329  1.786359  0.168632  28279.273564  29594.234657  28292.571711  27808.967952
  5755.707  5755.700  0.500  1036.264102  111.919075  1.769693  0.167350  28728.643410  30226.797787  29066.096724  27956.181780
  5756.832  5756.820  0.500  1046.158902  111.884376  1.758833  0.166252  29090.521437  30248.712414  29139.061695  28570.540245
  5757.969  5757.960  0.500  1053.351571  111.814490  1.752788  0.165752  29125.605049  30588.151541  29271.390912  28794.821260
  5759.121  5759.110  0.500  1054.129654  111.808527  1.753811  0.166250  28947.239893  30793.149475  29294.406050  28825.888413
  5760.298  5760.290  0.500  1048.095373  111.775651  1.762913  0.166802  29088.532605  30197.930470  29215.310849  28649.768755
  5761.488  5761.480  0.500  1041.072707  111.749543  1.777864  0.168290  28833.640281  30208.621539  28911.794907  28385.342195
  5762.709  5762.700  0.500  1024.298842  111.736305  1.801111  0.170780  28629.698980  29477.104816  28521.553954  27823.010098
  5763.944  5763.930  0.500  1017.765387  111.694548  1.827629  0.173293  28629.698980  29477.104816  28196.445621  27375.595234
  5765.173  5765.180  0.500  994.776367  111.562555  1.852859  0.175588  27525.254742  28617.422644  27481.709962  27355.405922
  5766.451  5766.450  0.500  975.771024  111.542632  1.879477  0.178311  26793.219669  28509.984848  27105.300306  26431.563170
  5767.740  5767.740  0.500  967.315751  111.522551  1.903635  0.180639  26752.370492  27697.528739  27155.200164  26272.420970
  5769.056  5769.050  0.500  955.852181  111.504704  1.922080  0.182493  26121.958094  27785.289975  26744.710968  25930.055424
  5770.388  5770.380  0.500  950.439142  111.474240  1.935641  0.184132  26154.536873  27559.388757  26262.452266  25973.103433
  5771.737  5771.730  0.500  951.478478  111.432479  1.944517  0.185320  26306.272629  27620.130459  26278.340786  25820.861967
  5773.109  5773.100  0.500  950.400110  111.406488  1.951654  0.186449  26115.838781  27630.351204  26454.636728  25679.911487
  5774.489  5774.480  0.500  955.877896  111.385901  1.958645  0.187265  26448.424223  27630.351204  26651.621785  25740.923303
  5775.894  5775.890  0.500  954.528824  111.335505  1.963830  0.188054  26448.424223  27411.045420  26651.621785  25761.857340
  5777.322  5777.310  0.500  950.987871  111.319211  1.970266  0.189273  26456.882938  27387.106414  26204.260397  25814.969809
  5778.756  5778.750  0.500  957.344672  111.263346  1.974828  0.190267  26456.882938  27547.452771  26681.881860  25831.153573
  5780.218  5780.210  0.500  949.534832  111.233281  1.979926  0.191252  26063.124034  27444.282691  26274.478590  25837.989371
  5781.697  5781.690  0.500  952.579229  111.230659  1.985984  0.192233  26202.761898  27503.404908  26409.746582  25840.101628
  5783.194  5783.190  0.500  961.434459  111.176160  1.991427  0.193199  26289.232896  28029.595711  26505.599986  26064.162652
  5784.715  5784.710  0.500  964.254917  111.142091  1.994614  0.194085  26447.545878  28029.595711  26654.884127  26037.282138
  5786.256  5786.250  0.500  965.378402  111.105231  1.994596  0.194605  26754.057441  27882.550509  26622.773682  25999.208606
  5787.817  5787.810  0.500  965.721187  111.434262  1.999952  0.195516  26524.173045  27766.601067  27178.269472  26145.383922
  5789.388  5789.380  0.500  975.264828  111.427788  2.000088  0.195894  26753.001821  28239.779995  27156.200045  26522.620634
  5790.986  5790.980  0.500  976.301413  111.375630  1.998685  0.196090  26753.001821  28185.045177  27197.403971  26600.734186
  5792.597  5792.590  0.500  981.739928  111.334345  1.999883  0.196630  26871.083965  28393.013516  27479.539721  26557.734935
  5794.236  5794.230  0.500  984.795095  111.315728  2.001744  0.197416  26864.052518  28617.363947  27532.804561  26608.961594
  5795.887  5795.880  0.500  995.273449  111.265658  2.004448  0.197908  27265.340950  28887.574736  27439.599454  27147.240502
  5797.557  5797.550  0.500  987.757110  111.225396  2.006660  0.198549  27169.055912  28521.129033  27268.418287  26905.072935
  5799.245  5799.240  0.500  989.212631  111.178232  2.008481  0.199270  27169.055912  28521.129033  27268.418287  27020.308397
  5800.959  5800.950  0.500  1002.563633  111.140959  2.010772  0.199940  27764.926931  28576.514190  27825.942221  27258.500588
  5802.688  5802.680  0.500  999.246750  111.056600  2.013074  0.200515  27492.596298  28633.313812  27536.673228  27310.363486
  5804.440  5804.430  0.500  1007.056111  111.101523  2.018962  0.201559  27839.976521  28912.743712  27670.034828  27462.712834
  5806.194  5806.190  0.500  1005.865388  111.064639  2.025697  0.202575  27839.976521  28912.743712  27894.064933  27069.291484
  5807.987  5807.980  0.500  1007.495844  110.997067  2.032382  0.203318  27241.416331  29184.871463  27783.993899  27618.802140
  5809.788  5809.780  0.500  1013.435602  110.937087  2.039526  0.204441  27772.924017  29121.754869  28367.470907  27165.443596
  5811.619  5811.610  0.500  1012.392278  110.895323  2.046410  0.205633  27616.201566  29040.489471  28078.258057  27534.619744
