# XDI/1.0 BlueSky/1.5.3
# Beamline.name: 6BM
# Beamline.xray_source: NSLS-II three-pole wiggler
# Beamline.collimation: paraboloid mirror, 5 nm Rh on 30 nm Pt
# Beamline.focusing: not in use
# Beamline.harmonic_rejection: flat mirror, Si stripe, pitch = 7.0 mrad relative to beam
# Detector.i0: 10 cm N2
# Detector.i1: 25 cm N2
# Detector.i2: 25 cm N2
# Element.symbol: Cr
# Element.edge: K
# Facility.name: NSLS-II
# Facility.energy: 3.0
# Facility.current: 399.7
# Facility.mode: top-off
# Facility.gup: 305882
# Facility.saf: 305422
# Facility.cycle: 2020-1
# Mono.name: Si(111)
# Mono.d_spacing: 3.1353241
# Mono.encoder_resolution: 0.0000050 deg/ct
# Mono.angle_offset: 16.0581090 deg
# Mono.scan_mode: fixed exit
# Mono.scan_type: step
# Mono.direction: forward in energy
# Sample.name: Cr(NO3)3.9H2O
# Sample.prep: powder on tape 2x
# Sample.x_position: -74.438 mm
# Sample.y_position: 112.405 mm
# Scan.experimenters: Sarah Nicholas, Bruce Ravel
# Scan.edge_energy: 5989.0
# Scan.start_time: 2020-01-29T17:38:26
# Scan.end_time: 2020-01-30T04:05:10
# Scan.transient_id: 20504
# Scan.uid: 5995548d-a23c-4200-a626-7663cf0b30c8
# Scan.plot_hint: ln(I0/It)  --  ln($5/$6)
# Scan.sequence: merge of 16 scans
# Column.1: energy eV
# Column.2: requested_energy eV
# Column.3: measurement_time seconds
# Column.4: mutrans
# Column.5: i0
# Column.6: itrans
# Column.7: irefer
# /////
#  Fisher, ground in AW M&P stored in N2 box
# -----
# energy   requested_energy   measurement_time   mutrans   i0   itrans   irefer
5788.999000 5789.000000 0.500000 2.987266 47.740372 2.407624 0.430112
5799.010000 5799.000000 0.500000 2.969454 47.730027 2.450306 0.441490
5809.013000 5809.000000 0.500000 2.950960 47.674303 2.493126 0.453253
5819.012000 5819.000000 0.500000 2.932943 47.628623 2.536001 0.465040
5829.014000 5829.000000 0.500000 2.914848 47.555659 2.578371 0.477169
5839.013000 5839.000000 0.500000 2.896739 47.471934 2.620860 0.489050
5849.013000 5849.000000 0.500000 2.879036 47.355859 2.661151 0.500831
5859.009000 5859.000000 0.500000 2.861239 47.175970 2.698620 0.512430
5869.005000 5869.000000 0.500000 2.843602 46.044616 2.680765 0.513441
5879.008000 5879.000000 0.500000 2.826063 47.575232 2.818893 0.544334
5889.012000 5889.000000 0.500000 2.808770 47.325892 2.853067 0.555746
5899.006000 5899.000000 0.500000 2.792020 47.145021 2.890129 0.567442
5909.007000 5909.000000 0.500000 2.774523 46.889074 2.925168 0.579119
5919.003000 5919.000000 0.500000 2.756987 34.936935 2.218100 0.442253
5929.002000 5929.000000 0.500000 2.740461 45.197572 2.917200 0.587034
5939.467000 5939.000000 0.500000 2.723806 46.413757 3.048432 0.618508
5948.992000 5949.000000 0.500000 2.707172 46.914399 3.130615 0.640230
5958.993000 5959.000000 0.500000 2.690684 46.558969 3.158508 0.650796
5960.992000 5961.000000 0.500000 2.687479 46.510429 3.165370 0.653394
5962.989000 5963.000000 0.500000 2.684207 46.450202 3.171624 0.655592
5964.993000 5965.000000 0.500000 2.680873 46.391512 3.178246 0.657864
5966.992000 5967.000000 0.500000 2.677528 46.337209 3.185144 0.660238
5968.993000 5969.000000 0.500000 2.674438 46.278107 3.190914 0.662524
5970.992000 5971.000000 0.500000 2.671211 46.215310 3.196881 0.664682
5972.996000 5973.000000 0.500000 2.668013 46.147588 3.202448 0.666885
5974.991000 5975.000000 0.500000 2.664867 46.080697 3.207850 0.668962
5976.993000 5977.000000 0.500000 2.661474 46.015502 3.214208 0.670849
5978.999000 5979.000000 0.500000 2.658379 45.933412 3.218457 0.672569
5979.241000 5979.250000 0.500000 2.658003 45.923867 3.218992 0.672983
5979.489000 5979.500000 0.500000 2.657655 45.903584 3.218695 0.672778
5979.738000 5979.750000 0.500000 2.657042 45.893406 3.219947 0.673092
5979.987000 5980.000000 0.500000 2.656696 45.885357 3.220498 0.673363
5980.237000 5980.250000 0.500000 2.656380 45.859693 3.219726 0.673039
5980.489000 5980.500000 0.500000 2.655957 45.845692 3.220106 0.673669
5980.738000 5980.750000 0.500000 2.655635 45.832949 3.220241 0.673252
5980.989000 5981.000000 0.500000 2.655113 45.817651 3.220854 0.673653
5981.240000 5981.250000 0.500000 2.654893 45.802307 3.220482 0.673831
5981.492000 5981.500000 0.500000 2.654349 45.793010 3.221578 0.673815
5981.740000 5981.750000 0.500000 2.653956 45.777246 3.221735 0.673831
5981.992000 5982.000000 0.500000 2.653696 45.758865 3.221287 0.673838
5982.243000 5982.250000 0.500000 2.653199 45.743304 3.221784 0.673911
5982.490000 5982.500000 0.500000 2.652778 45.729295 3.222143 0.674351
5982.739000 5982.750000 0.500000 2.652530 45.720124 3.222298 0.674268
5982.991000 5983.000000 0.500000 2.652003 45.708900 3.223201 0.674550
5983.240000 5983.250000 0.500000 2.651657 45.690064 3.222977 0.674796
5983.488000 5983.500000 0.500000 2.651201 45.668931 3.222942 0.674776
5983.740000 5983.750000 0.500000 2.650896 45.644973 3.222239 0.674506
5983.990000 5984.000000 0.500000 2.650256 45.636142 3.223672 0.674597
5984.244000 5984.250000 0.500000 2.650199 45.614021 3.222314 0.674660
5984.495000 5984.500000 0.500000 2.649695 45.582513 3.221719 0.674064
5984.747000 5984.750000 0.500000 2.649228 45.561391 3.221727 0.674058
5984.996000 5985.000000 0.500000 2.649060 45.533387 3.220288 0.673928
5985.247000 5985.250000 0.500000 2.648515 45.511425 3.220484 0.673870
5985.496000 5985.500000 0.500000 2.648103 45.475172 3.219229 0.673428
5985.747000 5985.750000 0.500000 2.647859 45.451542 3.218351 0.673201
5985.996000 5986.000000 0.500000 2.647388 45.412608 3.217101 0.672755
5986.244000 5986.250000 0.500000 2.647056 45.380988 3.215921 0.672332
5986.495000 5986.500000 0.500000 2.646754 45.336021 3.213702 0.671748
5986.742000 5986.750000 0.500000 2.646303 45.285199 3.211533 0.670859
5986.998000 5987.000000 0.500000 2.645948 45.224472 3.208387 0.669553
5987.247000 5987.250000 0.500000 2.645556 45.159227 3.205004 0.668751
5987.498000 5987.500000 0.500000 2.645129 45.086646 3.201229 0.666605
5987.749000 5987.750000 0.500000 2.644850 45.001761 3.196096 0.664758
5988.000000 5988.000000 0.500000 2.644569 44.902536 3.189948 0.662083
5988.249000 5988.250000 0.500000 2.644260 44.788750 3.182843 0.658729
5988.499000 5988.500000 0.500000 2.643845 44.647439 3.174130 0.653568
5988.745000 5988.750000 0.500000 2.643535 44.481114 3.163268 0.647183
5988.996000 5989.000000 0.500000 2.643212 44.291308 3.150813 0.638009
5989.246000 5989.250000 0.500000 2.643012 44.036285 3.133301 0.627211
5989.497000 5989.500000 0.500000 2.642968 43.699378 3.109448 0.614631
5989.748000 5989.750000 0.500000 2.643080 43.244221 3.076711 0.601818
5989.999000 5990.000000 0.500000 2.643483 42.591904 3.029091 0.587657
5990.250000 5990.250000 0.500000 2.643821 41.642376 2.960550 0.570520
5990.502000 5990.500000 0.500000 2.644227 40.240196 2.859699 0.547451
5990.754000 5990.750000 0.500000 2.644422 38.242556 2.717223 0.516818
5991.001000 5991.000000 0.500000 2.643890 35.959962 2.556374 0.483097
5991.249000 5991.250000 0.500000 2.643028 34.042933 2.422189 0.455373
5991.498000 5991.500000 0.500000 2.641667 33.321097 2.374094 0.443493
5991.746000 5991.750000 0.500000 2.640220 34.294852 2.447033 0.454829
5991.996000 5992.000000 0.500000 2.639515 37.054389 2.645841 0.489247
5992.248000 5992.250000 0.500000 2.639474 40.858624 2.917614 0.537518
5992.504000 5992.500000 0.500000 2.639274 43.941443 3.138320 0.575584
5992.750000 5992.750000 0.500000 2.639220 45.514274 3.250774 0.593816
5993.001000 5993.000000 0.500000 2.638806 46.183472 3.299928 0.600777
5993.252000 5993.250000 0.500000 2.638346 46.434436 3.319383 0.602449
5993.499000 5993.500000 0.500000 2.637914 46.530280 3.327677 0.602381
5993.748000 5993.750000 0.500000 2.637397 46.550856 3.330858 0.601744
5993.995000 5994.000000 0.500000 2.637002 46.552184 3.332250 0.601034
5994.246000 5994.250000 0.500000 2.636471 46.533473 3.332679 0.600178
5994.499000 5994.500000 0.500000 2.636394 46.508046 3.331142 0.599754
5994.751000 5994.750000 0.500000 2.636059 46.482705 3.330447 0.599198
5995.005000 5995.000000 0.500000 2.635859 46.449476 3.328734 0.599230
5995.254000 5995.250000 0.500000 2.635726 46.418125 3.326930 0.599292
5995.504000 5995.500000 0.500000 2.635644 46.392703 3.325379 0.599020
5995.751000 5995.750000 0.500000 2.635497 46.366724 3.324001 0.599280
5996.000000 5996.000000 0.500000 2.635449 46.334497 3.321857 0.598952
5996.249000 5996.250000 0.500000 2.635397 46.308558 3.320170 0.598678
5996.497000 5996.500000 0.500000 2.635463 46.285165 3.318277 0.597864
5996.746000 5996.750000 0.500000 2.635728 46.260192 3.315606 0.595612
5996.999000 5997.000000 0.500000 2.636116 46.231458 3.312253 0.592630
5997.247000 5997.250000 0.500000 2.636484 46.207937 3.309383 0.588995
5997.500000 5997.500000 0.500000 2.637195 46.174568 3.304645 0.584460
5997.750000 5997.750000 0.500000 2.637850 46.152710 3.300922 0.579659
5998.002000 5998.000000 0.500000 2.638877 46.131640 3.296005 0.574668
5998.249000 5998.250000 0.500000 2.640339 46.103987 3.289243 0.569101
5998.500000 5998.500000 0.500000 2.641886 46.094695 3.283468 0.563596
5998.750000 5998.750000 0.500000 2.643809 46.084013 3.276389 0.557745
5999.001000 5999.000000 0.500000 2.645906 46.066349 3.268260 0.551892
5999.251000 5999.250000 0.500000 2.648132 46.053566 3.260121 0.546656
5999.500000 5999.500000 0.500000 2.650615 46.040130 3.251124 0.541048
5999.752000 5999.750000 0.500000 2.652975 46.043242 3.243635 0.535969
6000.000000 6000.000000 0.500000 2.655573 46.021316 3.233750 0.530637
6000.253000 6000.250000 0.500000 2.658532 46.015592 3.223702 0.525595
6000.501000 6000.500000 0.500000 2.661339 46.019075 3.214978 0.521168
6000.751000 6000.750000 0.500000 2.664211 46.008019 3.204954 0.516877
6000.999000 6001.000000 0.500000 2.666876 45.999566 3.195898 0.513029
6001.249000 6001.250000 0.500000 2.669712 45.982925 3.185653 0.509137
6001.497000 6001.500000 0.500000 2.672439 45.962985 3.175708 0.505173
6001.749000 6001.750000 0.500000 2.675242 45.958212 3.166395 0.501781
6002.001000 6002.000000 0.500000 2.678015 45.949983 3.157031 0.498426
6002.254000 6002.250000 0.500000 2.680748 45.938928 3.147603 0.494708
6002.504000 6002.500000 0.500000 2.683612 45.931357 3.138108 0.491586
6002.751000 6002.750000 0.500000 2.686656 45.938127 3.129132 0.488330
6003.003000 6003.000000 0.500000 2.690113 45.932680 3.117876 0.484972
6003.252000 6003.250000 0.500000 2.693574 45.922644 3.106446 0.481413
6003.500000 6003.500000 0.500000 2.697656 45.913661 3.093295 0.477847
6003.749000 6003.750000 0.500000 2.701524 45.905022 3.080802 0.474710
6003.999000 6004.000000 0.500000 2.705611 45.892733 3.067425 0.471148
6004.247000 6004.250000 0.500000 2.709923 45.884954 3.053827 0.467637
6004.498000 6004.500000 0.500000 2.714442 45.868922 3.039016 0.464074
6004.750000 6004.750000 0.500000 2.718731 45.867791 3.025862 0.460418
6005.002000 6005.000000 0.500000 2.722994 45.856258 3.012163 0.456920
6005.253000 6005.250000 0.500000 2.727245 45.859264 2.999595 0.453714
6005.504000 6005.500000 0.500000 2.731481 45.855170 2.986568 0.450116
6005.754000 6005.750000 0.500000 2.735661 45.841755 2.973226 0.446549
6006.002000 6006.000000 0.500000 2.740276 45.834856 2.959195 0.442903
6006.250000 6006.250000 0.500000 2.745022 45.827916 2.944764 0.439385
6006.497000 6006.500000 0.500000 2.750141 45.817774 2.929281 0.435926
6006.748000 6006.750000 0.500000 2.755134 45.810221 2.914205 0.432178
6006.997000 6007.000000 0.500000 2.760128 45.798908 2.899016 0.428804
6007.249000 6007.250000 0.500000 2.765200 45.784592 2.883357 0.424997
6007.500000 6007.500000 0.500000 2.770240 45.775231 2.868256 0.421387
6007.751000 6007.750000 0.500000 2.774649 45.763744 2.854818 0.418093
6008.004000 6008.000000 0.500000 2.778638 45.764071 2.843373 0.414685
6008.252000 6008.250000 0.500000 2.781528 45.759039 2.834912 0.412083
6008.502000 6008.500000 0.500000 2.783552 45.749504 2.828585 0.409323
6008.753000 6008.750000 0.500000 2.784602 45.744518 2.825313 0.407549
6009.001000 6009.000000 0.500000 2.785043 45.736569 2.823576 0.406361
6009.250000 6009.250000 0.500000 2.784842 45.731588 2.823855 0.406055
6009.501000 6009.500000 0.500000 2.783929 45.719165 2.825672 0.406014
6009.749000 6009.750000 0.500000 2.782685 45.710751 2.828615 0.406706
6010.002000 6010.000000 0.500000 2.780916 45.703050 2.833179 0.408182
6010.254000 6010.250000 0.500000 2.778945 45.694728 2.838333 0.410360
6010.502000 6010.500000 0.500000 2.776420 45.686817 2.844952 0.412837
6010.751000 6010.750000 0.500000 2.773728 45.676560 2.851940 0.416055
6011.000000 6011.000000 0.500000 2.770873 45.670534 2.859740 0.419177
6011.249000 6011.250000 0.500000 2.767834 45.662054 2.867913 0.422581
6011.501000 6011.500000 0.500000 2.764930 45.650911 2.875616 0.425884
6011.751000 6011.750000 0.500000 2.761943 45.643877 2.883780 0.429633
6011.999000 6012.000000 0.500000 2.759227 45.640440 2.891342 0.432919
6012.251000 6012.250000 0.500000 2.756754 45.635583 2.898252 0.436210
6012.501000 6012.500000 0.500000 2.754724 45.625819 2.903478 0.438782
6012.754000 6012.750000 0.500000 2.752811 45.619057 2.908668 0.441468
6013.004000 6013.000000 0.500000 2.751242 45.601314 2.912087 0.443666
6013.256000 6013.250000 0.500000 2.750005 45.596576 2.915422 0.445677
6013.503000 6013.500000 0.500000 2.749098 45.595836 2.917989 0.447120
6013.753000 6013.750000 0.500000 2.748289 45.586558 2.919757 0.448253
6013.997000 6014.000000 0.500000 2.747728 45.579142 2.920869 0.448767
6015.006000 6014.990000 0.500000 2.747243 45.548137 2.920294 0.449431
6015.990000 6015.990000 0.500000 2.748076 45.524451 2.916323 0.446589
6017.010000 6017.010000 0.500000 2.747933 45.518995 2.916376 0.442820
6018.068000 6018.060000 0.500000 2.747436 45.491338 2.916079 0.438604
6019.129000 6019.120000 0.500000 2.745582 45.461026 2.919540 0.436990
6020.208000 6020.200000 0.500000 2.741200 45.432565 2.930515 0.438665
6021.310000 6021.300000 0.500000 2.734943 45.404693 2.947160 0.443780
6022.427000 6022.420000 0.500000 2.727868 45.386427 2.966815 0.449079
6023.569000 6023.560000 0.500000 2.721072 45.349850 2.984678 0.453351
6024.714000 6024.710000 0.500000 2.714723 45.334318 3.002569 0.455273
6025.896000 6025.890000 0.500000 2.709037 45.306517 3.017877 0.454788
6027.083000 6027.080000 0.500000 2.703531 45.274868 3.032355 0.453964
6028.312000 6028.300000 0.500000 2.697603 45.248523 3.048745 0.454185
6029.535000 6029.530000 0.500000 2.691448 45.221823 3.065604 0.455513
6030.792000 6030.780000 0.500000 2.684796 45.188581 3.083895 0.457046
6032.054000 6032.050000 0.500000 2.678375 45.153045 3.101188 0.459609
6033.350000 6033.340000 0.500000 2.672316 45.114802 3.117476 0.462059
6034.655000 6034.650000 0.500000 2.666744 45.081201 3.132470 0.464399
6035.989000 6035.980000 0.500000 2.661975 45.043890 3.144896 0.465692
6037.336000 6037.330000 0.500000 2.658321 45.007338 3.153801 0.465447
6038.711000 6038.700000 0.500000 2.655771 44.965639 3.158946 0.464956
6040.090000 6040.080000 0.500000 2.653834 44.942039 3.163423 0.465938
6041.499000 6041.490000 0.500000 2.652904 44.906999 3.163910 0.467268
6042.921000 6042.910000 0.500000 2.652856 44.864907 3.161115 0.468673
6044.353000 6044.350000 0.500000 2.652316 44.822490 3.159820 0.470294
6045.821000 6045.810000 0.500000 2.652028 44.776329 3.157490 0.471704
6047.300000 6047.290000 0.500000 2.651520 44.732740 3.156012 0.473618
6048.800000 6048.790000 0.500000 2.651436 44.686701 3.153044 0.476183
6050.322000 6050.310000 0.500000 2.651063 44.640211 3.150938 0.480050
6051.858000 6051.850000 0.500000 2.650537 44.589363 3.149000 0.484489
6053.422000 6053.410000 0.500000 2.649907 44.532140 3.146945 0.488325
6054.987000 6054.980000 0.500000 2.649184 44.458155 3.143966 0.491867
6056.586000 6056.580000 0.500000 2.648035 44.384501 3.142364 0.494483
6058.199000 6058.190000 0.500000 2.646595 44.320761 3.142392 0.496943
6059.837000 6059.830000 0.500000 2.644951 44.240198 3.141834 0.498954
6061.489000 6061.480000 0.500000 2.643157 44.163848 3.142057 0.499377
6063.160000 6063.150000 0.500000 2.641452 44.103344 3.143107 0.498071
6064.846000 6064.840000 0.500000 2.639715 44.047749 3.144583 0.495581
6066.556000 6066.550000 0.500000 2.637938 43.992277 3.146217 0.492519
6068.286000 6068.280000 0.500000 2.636326 43.939981 3.147533 0.487990
6070.037000 6070.030000 0.500000 2.634429 43.883725 3.149490 0.483854
6071.795000 6071.790000 0.500000 2.632616 43.822325 3.150776 0.482711
6073.586000 6073.580000 0.500000 2.630430 43.764672 3.153516 0.485942
6075.385000 6075.380000 0.500000 2.628300 43.696538 3.155307 0.490640
6077.217000 6077.210000 0.500000 2.625717 43.640631 3.159436 0.496927
6079.058000 6079.050000 0.500000 2.622732 43.572567 3.163940 0.503235
6080.920000 6080.910000 0.500000 2.619373 43.519189 3.170703 0.510167
6082.796000 6082.790000 0.500000 2.615915 43.445978 3.176314 0.516480
6084.693000 6084.690000 0.500000 2.612116 43.371416 3.182914 0.520371
6086.616000 6086.610000 0.500000 2.607912 43.296851 3.190822 0.521255
6088.557000 6088.550000 0.500000 2.603565 43.217519 3.198868 0.517518
6090.519000 6090.510000 0.500000 2.599022 43.149953 3.208423 0.511937
6092.488000 6092.480000 0.500000 2.594568 43.079307 3.217450 0.504873
6094.487000 6094.480000 0.500000 2.590012 42.999983 3.226197 0.498616
6096.499000 6096.490000 0.500000 2.585584 42.913789 3.234020 0.493179
6098.526000 6098.520000 0.500000 2.581196 42.825969 3.241596 0.490251
6100.586000 6100.580000 0.500000 2.577160 42.738680 3.248057 0.491042
6102.658000 6102.650000 0.500000 2.573402 42.649198 3.253469 0.496312
6104.751000 6104.740000 0.500000 2.569490 42.556216 3.259128 0.505358
6106.856000 6106.850000 0.500000 2.566024 42.469639 3.263761 0.514944
6108.987000 6108.980000 0.500000 2.562421 42.383925 3.268926 0.525233
6111.129000 6111.120000 0.500000 2.559143 42.287578 3.272217 0.533566
6113.298000 6113.290000 0.500000 2.555686 42.196057 3.276426 0.540050
6115.488000 6115.480000 0.500000 2.552342 42.091903 3.279291 0.543301
6117.688000 6117.680000 0.500000 2.548890 41.977953 3.281731 0.544372
6119.906000 6119.900000 0.500000 2.545481 41.881798 3.285393 0.544063
6122.159000 6122.150000 0.500000 2.542253 41.769521 3.287189 0.543807
6124.419000 6124.410000 0.500000 2.539095 41.653116 3.288409 0.544316
6126.700000 6126.690000 0.500000 2.535988 41.548178 3.290318 0.546832
6128.997000 6128.990000 0.500000 2.532742 41.418991 3.290750 0.550234
6131.314000 6131.310000 0.500000 2.529644 41.291871 3.290816 0.553165
6133.653000 6133.650000 0.500000 2.526502 41.152626 3.290050 0.555599
6136.004000 6136.000000 0.500000 2.523431 41.026609 3.290075 0.556639
6138.390000 6138.380000 0.500000 2.520564 40.875358 3.287402 0.556114
6140.781000 6140.770000 0.500000 2.517510 40.733745 3.286021 0.555806
6143.198000 6143.190000 0.500000 2.514266 40.584207 3.284592 0.555595
6145.630000 6145.620000 0.500000 2.511318 40.422207 3.281153 0.553744
6148.076000 6148.070000 0.500000 2.508111 40.258192 3.278331 0.551198
6150.556000 6150.550000 0.500000 2.504723 40.075019 3.274515 0.548975
6153.050000 6153.040000 0.500000 2.501465 39.858743 3.267474 0.547973
6155.559000 6155.550000 0.500000 2.498051 39.602849 3.257619 0.545922
6158.077000 6158.070000 0.500000 2.494494 39.199331 3.235929 0.540714
6160.630000 6160.620000 0.500000 2.490695 38.421219 3.183779 0.528472
6163.193000 6163.190000 0.500000 2.487031 36.988548 3.076266 0.507136
6165.776000 6165.770000 0.500000 2.483262 36.470921 3.044708 0.500374
6168.386000 6168.380000 0.500000 2.479414 39.286006 3.292404 0.543285
6171.008000 6171.000000 0.500000 2.475274 39.124538 3.292493 0.548371
6173.664000 6173.650000 0.500000 2.471059 38.880627 3.285833 0.553725
6176.317000 6176.310000 0.500000 2.466799 38.642185 3.279611 0.558689
6178.999000 6178.990000 0.500000 2.462402 38.402458 3.273646 0.563116
6181.697000 6181.690000 0.500000 2.457834 38.174904 3.269161 0.566445
6184.423000 6184.410000 0.500000 2.453339 37.937869 3.263549 0.568903
6187.162000 6187.150000 0.500000 2.448841 37.700478 3.257755 0.569713
6189.909000 6189.900000 0.500000 2.444357 37.463263 3.251803 0.570235
6192.689000 6192.680000 0.500000 2.440020 37.215804 3.244375 0.570525
6195.483000 6195.470000 0.500000 2.435628 36.968702 3.237063 0.571467
