# XDI/1.0 BlueSky/1.10.0 BMM/2023-1.0-py310-tiled
# Beamline.name: BMM (06BM) -- Beamline for Materials Measurement (NIST)
# Beamline.xray_source: NSLS-II three-pole wiggler
# Beamline.collimation: paraboloid mirror, 5 nm Rh on 30 nm Pt
# Beamline.focusing: not in use
# Beamline.harmonic_rejection: flat mirror, Pt stripe, pitch = 7.0 mrad relative to beam
# Beamline.software: Bluesky 1.10.0, Ophyd 1.7.0, DataBroker 2.0.0b13, Python 3.10.8, 2023-1.0-py310-tiled
# Detector.I0: 10 cm N2
# Detector.I1: 25 cm N2
# Detector.I2: 25 cm N2
# Element.symbol: Nb
# Element.edge: K
# Element.reference: Nb
# Element.reference_material: Nb foil
# Facility.name: NSLS-II
# Facility.energy: 3.0
# Facility.current: 399.3
# Facility.mode: top-off
# Facility.GUP: 301027
# Facility.SAF: 310583
# Facility.cycle: 2023-2
# Mono.name: Si(111)
# Mono.d_spacing: 3.1351860
# Mono.encoder_resolution: 0.0000050 deg/ct
# Mono.angle_offset: 16.0754326 deg
# Mono.scan_mode: pseudo channel cut
# Mono.scan_type: step
# Mono.direction: forward in energy
# Sample.name: Nb2O5
# Sample.prep: powder in PEG pellet
# Sample.x: 117.785 mm
# Sample.y: 114.695 mm
# Sample.SDD_position: 205.000 mm
# Scan.experimenters: Bruce Ravel
# Scan.edge_energy: 18985.6
# Scan.start_time: 2023-06-23T20:15:37
# Scan.end_time: 2023-06-23T20:23:08
# Scan.transient_id: 85001
# Scan.uid: 6f661fdc-5c7f-4198-b5db-7da75444c5d4
# Scan.plot_hint: ln(I0/It)  --  ln($5/$6)
# Column.1: energy eV
# Column.2: requested_energy eV
# Column.3: measurement_time seconds
# Column.4: xmu 
# Column.5: I0 nA
# Column.6: It nA
# Column.7: Ir nA
# ///////////
# sample courtesy Martin Stennett, University of Sheffield
# -----------
# energy  requested_energy  measurement_time  xmu  I0  It  Ir
  18785.464  18785.600  0.500  -0.162050  10.046332  11.813669  10.222277
  18795.598  18795.600  0.500  -0.162533  10.030244  11.800448  10.214723
  18805.636  18805.600  0.500  -0.163139  10.005869  11.778915  10.197278
  18815.606  18815.600  0.500  -0.163748  9.988668  11.765824  10.186339
  18825.711  18825.600  0.500  -0.164011  9.959792  11.734898  10.165492
  18835.734  18835.600  0.500  -0.164596  9.935596  11.713245  10.146062
  18845.720  18845.600  0.500  -0.164919  9.912496  11.689788  10.128202
  18855.702  18855.600  0.500  -0.165372  9.878810  11.655340  10.097618
  18865.679  18865.600  0.500  -0.165527  9.861298  11.636476  10.083844
  18875.745  18875.600  0.500  -0.165571  9.832278  11.602747  10.057353
  18885.711  18885.600  0.500  -0.165455  9.807504  11.572172  10.030804
  18895.704  18895.600  0.500  -0.165332  9.781496  11.540055  10.002978
  18905.661  18905.600  0.500  -0.164710  9.753686  11.500096  9.968129
  18915.691  18915.600  0.500  -0.164247  9.716991  11.451522  9.924632
  18925.716  18925.600  0.500  -0.162866  9.700276  11.416056  9.894230
  18935.642  18935.600  0.500  -0.160869  9.680549  11.370111  9.849891
  18945.672  18945.600  0.500  -0.157915  9.652218  11.303390  9.784893
  18955.619  18955.600  0.500  -0.152713  9.626977  11.215333  9.698704
  18957.654  18957.600  0.500  -0.151027  9.626065  11.195380  9.679941
  18959.626  18959.600  0.500  -0.149869  9.618423  11.173548  9.657678
  18961.661  18961.600  0.500  -0.147896  9.614065  11.146476  9.629965
  18963.587  18963.600  0.500  -0.146169  9.604855  11.116582  9.596887
  18965.544  18965.600  0.500  -0.143997  9.602582  11.089836  9.570767
  18968.055  18967.600  0.500  -0.140976  9.593722  11.046185  9.527292
  18969.713  18969.600  0.500  -0.137907  9.630076  11.054067  9.526953
  18971.546  18971.600  0.500  -0.135232  9.622427  11.015772  9.480747
  18973.552  18973.600  0.500  -0.131097  9.618074  10.965356  9.424163
  18975.559  18975.600  0.500  -0.125808  9.608250  10.896370  9.352350
  18975.765  18975.900  0.500  -0.125364  9.603744  10.886428  9.342067
  18976.081  18976.200  0.500  -0.124640  9.605356  10.880379  9.332057
  18976.444  18976.500  0.500  -0.123419  9.605485  10.867242  9.317659
  18976.729  18976.800  0.500  -0.122422  9.600844  10.851173  9.302310
  18977.013  18977.100  0.500  -0.121645  9.602502  10.844619  9.290768
  18977.314  18977.400  0.500  -0.120824  9.593662  10.825735  9.272867
  18977.598  18977.700  0.500  -0.119783  9.591837  10.812423  9.256721
  18977.883  18978.000  0.500  -0.118569  9.590822  10.798160  9.241682
  18978.199  18978.300  0.500  -0.117885  9.581919  10.780758  9.222078
  18978.515  18978.600  0.500  -0.116609  9.573277  10.757303  9.196522
  18978.800  18978.900  0.500  -0.115687  9.576681  10.751207  9.185866
  18979.084  18979.200  0.500  -0.114384  9.569006  10.728603  9.162232
  18979.432  18979.500  0.500  -0.113054  9.566994  10.712095  9.143776
  18979.733  18979.800  0.500  -0.111866  9.563963  10.695985  9.123440
  18980.033  18980.100  0.500  -0.110559  9.555321  10.672362  9.097596
  18980.334  18980.400  0.500  -0.108861  9.555382  10.654316  9.076903
  18980.618  18980.700  0.500  -0.107850  9.551827  10.639592  9.057359
  18980.919  18981.000  0.500  -0.106416  9.559708  10.633110  9.043261
  18981.251  18981.300  0.500  -0.104829  9.551276  10.606894  9.010753
  18981.551  18981.600  0.500  -0.102723  9.557659  10.591651  8.989447
  18981.883  18981.900  0.500  -0.101290  9.563409  10.582847  8.969769
  18982.168  18982.200  0.500  -0.099497  9.556701  10.556473  8.937317
  18982.453  18982.500  0.500  -0.097693  9.564406  10.545943  8.917071
  18982.737  18982.800  0.500  -0.095584  9.561802  10.520861  8.883853
  18983.054  18983.100  0.500  -0.093606  9.568398  10.507321  8.856517
  18983.339  18983.400  0.500  -0.091562  9.569980  10.487590  8.821051
  18983.655  18983.700  0.500  -0.089130  9.578062  10.470954  8.791055
  18983.955  18984.000  0.500  -0.086593  9.577657  10.443984  8.747121
  18984.288  18984.300  0.500  -0.083996  9.582606  10.422282  8.702894
  18984.572  18984.600  0.500  -0.080779  9.584891  10.391283  8.650575
  18984.889  18984.900  0.500  -0.078025  9.578801  10.356119  8.591116
  18985.158  18985.200  0.500  -0.074903  9.583817  10.329239  8.537668
  18985.458  18985.500  0.500  -0.071529  9.579233  10.289523  8.474428
  18985.743  18985.800  0.500  -0.068181  9.577697  10.253485  8.402837
  18986.075  18986.100  0.500  -0.063825  9.575618  10.206706  8.322182
  18986.376  18986.400  0.500  -0.059050  9.581408  10.164233  8.243310
  18986.677  18986.700  0.500  -0.053970  9.578923  10.110104  8.145780
  18987.009  18987.000  0.500  -0.048769  9.587468  10.066627  8.060410
  18987.310  18987.300  0.500  -0.042369  9.575302  9.989719  7.947906
  18987.626  18987.600  0.500  -0.036329  9.575982  9.930263  7.853242
  18987.911  18987.900  0.500  -0.029307  9.582169  9.867149  7.752843
  18988.196  18988.200  0.500  -0.021685  9.574997  9.784898  7.642053
  18988.512  18988.500  0.500  -0.013113  9.570989  9.697317  7.532402
  18988.813  18988.800  0.500  -0.003284  9.572718  9.604205  7.414764
  18989.082  18989.100  0.500  0.007084  9.571961  9.504396  7.303592
  18989.399  18989.400  0.500  0.019352  9.570077  9.386658  7.178398
  18989.715  18989.700  0.500  0.032290  9.570404  9.266309  7.053850
  18990.032  18990.000  0.500  0.046513  9.567843  9.133009  6.922172
  18990.317  18990.300  0.500  0.061117  9.566317  8.999161  6.796809
  18990.586  18990.600  0.500  0.076855  9.573535  8.865324  6.676887
  18990.887  18990.900  0.500  0.094230  9.567997  8.707577  6.536003
  18991.188  18991.200  0.500  0.112971  9.570405  8.548058  6.400086
  18991.504  18991.500  0.500  0.131738  9.569486  8.388332  6.260630
  18991.821  18991.800  0.500  0.154302  9.566757  8.198835  6.099157
  18992.122  18992.100  0.500  0.175798  9.563324  8.021596  5.948932
  18992.422  18992.400  0.500  0.197689  9.566151  7.850225  5.805566
  18992.723  18992.700  0.500  0.219502  9.559056  7.675144  5.658055
  18993.008  18993.000  0.500  0.240216  9.562749  7.520703  5.526447
  18993.293  18993.300  0.500  0.261727  9.563388  7.361144  5.392116
  18993.578  18993.600  0.500  0.282986  9.569095  7.210600  5.261805
  18993.895  18993.900  0.500  0.304378  9.561427  7.052337  5.126984
  18994.180  18994.200  0.500  0.325352  9.570467  6.912491  5.002990
  18994.528  18994.500  0.500  0.346318  9.561539  6.762759  4.875286
  18994.798  18994.800  0.500  0.364203  9.553482  6.637284  4.763394
  18995.099  18995.100  0.500  0.381882  9.551616  6.519699  4.656269
  18995.431  18995.400  0.500  0.397785  9.557592  6.420849  4.563739
  18995.700  18995.700  0.500  0.411499  9.555147  6.331779  4.479386
  18995.970  18996.000  0.500  0.424158  9.556161  6.252792  4.401914
  18996.287  18996.300  0.500  0.435735  9.550236  6.176986  4.327420
  18996.603  18996.600  0.500  0.446265  9.560458  6.118828  4.262909
  18996.888  18996.900  0.500  0.456337  9.552231  6.052297  4.194827
  18997.205  18997.200  0.500  0.466004  9.549120  5.992118  4.128317
  18997.522  18997.500  0.500  0.476137  9.547569  5.930745  4.062235
  18997.823  18997.800  0.500  0.485607  9.545876  5.873802  3.999217
  18998.124  18998.100  0.500  0.495067  9.547996  5.819792  3.938015
  18998.425  18998.400  0.500  0.504860  9.546530  5.762188  3.876541
  18998.694  18998.700  0.500  0.515880  9.548442  5.700179  3.811665
  18998.980  18999.000  0.500  0.528135  9.551637  5.632639  3.743734
  18999.297  18999.300  0.500  0.541991  9.541722  5.549360  3.665211
  18999.582  18999.600  0.500  0.557387  9.542556  5.465056  3.587445
  18999.899  18999.900  0.500  0.575917  9.544526  5.365829  3.499291
  19000.231  19000.200  0.500  0.595409  9.543064  5.261447  3.407939
  19000.485  19000.500  0.500  0.617590  9.539071  5.143872  3.312086
  19000.834  19000.800  0.500  0.643017  9.535802  5.013008  3.207184
  19001.087  19001.100  0.500  0.669459  9.537724  4.883176  3.106104
  19001.388  19001.400  0.500  0.697681  9.539371  4.748112  3.004355
  19001.674  19001.700  0.500  0.728943  9.537053  4.600854  2.896984
  19001.975  19002.000  0.500  0.764499  9.538860  4.440981  2.781789
  19002.276  19002.300  0.500  0.803173  9.534801  4.270692  2.663649
  19002.561  19002.600  0.500  0.844581  9.540905  4.100085  2.546391
  19002.894  19002.900  0.500  0.892498  9.528588  3.903206  2.414589
  19003.195  19003.200  0.500  0.943558  9.534143  3.711073  2.287771
  19003.496  19003.500  0.500  0.993364  9.525081  3.527412  2.168754
  19003.797  19003.800  0.500  1.045386  9.537410  3.352936  2.057674
  19004.067  19004.100  0.500  1.101009  9.531538  3.169574  1.941524
  19004.384  19004.400  0.500  1.158512  9.530241  2.992048  1.830709
  19004.654  19004.700  0.500  1.214532  9.537884  2.831309  1.729405
  19004.971  19005.000  0.500  1.281287  9.527872  2.645698  1.617159
  19005.288  19005.300  0.500  1.346539  9.524923  2.477805  1.513893
  19005.573  19005.600  0.500  1.410928  9.524383  2.323157  1.419589
  19005.890  19005.900  0.500  1.476000  9.523775  2.176660  1.331308
  19006.191  19006.200  0.500  1.542320  9.525147  2.037280  1.247278
  19006.461  19006.500  0.500  1.603424  9.521658  1.915819  1.173253
  19006.762  19006.800  0.500  1.665592  9.522336  1.800471  1.105250
  19007.048  19007.100  0.500  1.721751  9.526323  1.702858  1.046514
  19007.333  19007.400  0.500  1.781379  9.520980  1.603389  0.986361
  19007.666  19007.700  0.500  1.837119  9.520848  1.516440  0.934339
  19007.968  19008.000  0.500  1.889936  9.528470  1.439576  0.888338
  19008.285  19008.300  0.500  1.938795  9.517038  1.369285  0.845873
  19008.634  19008.600  0.500  1.986134  9.514800  1.305668  0.807207
  19008.887  19008.900  0.500  2.022826  9.522625  1.259664  0.779506
  19009.205  19009.200  0.500  2.055981  9.519463  1.218179  0.753894
  19009.474  19009.500  0.500  2.085005  9.513581  1.182600  0.732746
  19009.776  19009.800  0.500  2.109131  9.514368  1.154505  0.714554
  19010.093  19010.100  0.500  2.131198  9.512501  1.129087  0.698834
  19010.394  19010.400  0.500  2.148836  9.515244  1.109666  0.686327
  19010.616  19010.600  0.500  2.160271  9.517214  1.097277  0.678565
  19011.632  19011.590  0.500  2.195624  9.515084  1.058925  0.653387
  19012.584  19012.590  0.500  2.215438  9.506667  1.037232  0.638658
  19013.663  19013.610  0.500  2.234203  9.505499  1.017824  0.625268
  19014.694  19014.660  0.500  2.252432  9.496938  0.998539  0.612475
  19015.710  19015.720  0.500  2.268343  9.499933  0.983086  0.602369
  19016.853  19016.800  0.500  2.279674  9.493921  0.971394  0.595582
  19017.948  19017.900  0.500  2.287475  9.495275  0.963984  0.590384
  19019.060  19019.020  0.500  2.297232  9.490047  0.954098  0.584370
  19020.219  19020.160  0.500  2.310495  9.488887  0.941413  0.574548
  19021.346  19021.310  0.500  2.327281  9.482066  0.925077  0.562818
  19022.553  19022.490  0.500  2.341412  9.476083  0.911521  0.552562
  19023.697  19023.680  0.500  2.342213  9.475374  0.910723  0.549602
  19024.968  19024.900  0.500  2.323717  9.480161  0.928193  0.558124
  19026.160  19026.130  0.500  2.285409  9.476383  0.964056  0.577448
  19027.431  19027.380  0.500  2.233476  9.471367  1.014907  0.606520
  19028.687  19028.650  0.500  2.177204  9.466578  1.073113  0.640437
  19029.974  19029.940  0.500  2.121117  9.458932  1.134104  0.677711
  19031.278  19031.250  0.500  2.068470  9.461201  1.195697  0.717314
  19032.581  19032.580  0.500  2.022097  9.448126  1.250720  0.754488
  19033.949  19033.930  0.500  1.978918  9.449444  1.306090  0.794243
  19035.285  19035.300  0.500  1.939578  9.442822  1.357544  0.830697
  19036.716  19036.680  0.500  1.905530  9.440795  1.404259  0.863722
  19038.069  19038.090  0.500  1.880441  9.437047  1.439365  0.890285
  19039.517  19039.510  0.500  1.860451  9.435432  1.468176  0.909172
  19040.965  19040.950  0.500  1.845630  9.424035  1.488298  0.921869
  19042.445  19042.410  0.500  1.834294  9.421345  1.504837  0.931167
  19043.909  19043.890  0.500  1.823377  9.421043  1.521305  0.940514
  19045.358  19045.390  0.500  1.812204  9.415104  1.537428  0.949084
  19046.966  19046.910  0.500  1.799192  9.410648  1.556826  0.959628
  19048.479  19048.450  0.500  1.786140  9.405800  1.576468  0.971777
  19050.072  19050.010  0.500  1.772948  9.403175  1.596956  0.985290
  19051.586  19051.580  0.500  1.761759  9.382797  1.611425  0.995169
  19053.211  19053.180  0.500  1.753798  9.379171  1.623676  1.004028
  19054.821  19054.790  0.500  1.750896  9.382547  1.628983  1.009380
  19056.446  19056.430  0.500  1.752336  9.391656  1.628217  1.009971
  19058.136  19058.080  0.500  1.757797  9.383364  1.617921  1.004359
  19059.779  19059.750  0.500  1.765310  9.377925  1.604880  0.995666
  19061.453  19061.440  0.500  1.774582  9.375381  1.589636  0.983594
  19063.192  19063.150  0.500  1.786745  9.376135  1.570546  0.969010
  19064.851  19064.880  0.500  1.800462  9.370691  1.548249  0.951412
  19066.606  19066.630  0.500  1.816742  9.364194  1.522191  0.931562
  19068.394  19068.390  0.500  1.835190  9.361559  1.493947  0.912411
  19070.181  19070.180  0.500  1.854973  9.356665  1.463917  0.894005
  19071.938  19071.980  0.500  1.875253  9.350521  1.433586  0.876795
  19073.822  19073.810  0.500  1.895989  9.347518  1.403715  0.862034
  19075.659  19075.650  0.500  1.916217  9.334943  1.373755  0.846269
  19077.544  19077.510  0.500  1.932816  9.332937  1.350850  0.835162
  19079.429  19079.390  0.500  1.944799  9.335421  1.335114  0.828018
  19081.331  19081.290  0.500  1.950413  9.331100  1.327026  0.823366
  19083.249  19083.210  0.500  1.950956  9.318771  1.324553  0.821648
  19085.167  19085.150  0.500  1.946687  9.312018  1.329255  0.823817
  19087.102  19087.110  0.500  1.940005  9.309431  1.337796  0.829957
  19089.085  19089.080  0.500  1.929967  9.301519  1.350143  0.836616
  19091.037  19091.080  0.500  1.919848  9.294168  1.362797  0.845675
  19093.085  19093.090  0.500  1.908931  9.289679  1.377090  0.854792
  19095.118  19095.120  0.500  1.896903  9.287484  1.393425  0.864156
  19097.183  19097.180  0.500  1.886407  9.284823  1.407724  0.872208
  19099.280  19099.250  0.500  1.877663  9.280570  1.419437  0.878127
  19101.362  19101.340  0.500  1.868872  9.272846  1.430778  0.882998
  19103.492  19103.450  0.500  1.862626  9.271774  1.439577  0.887238
  19105.623  19105.580  0.500  1.856466  9.289956  1.451312  0.893887
  19107.771  19107.720  0.500  1.850783  9.286865  1.459098  0.897988
  19109.919  19109.890  0.500  1.846143  9.285522  1.465671  0.902659
  19112.051  19112.080  0.500  1.841173  9.275972  1.471460  0.908262
  19114.312  19114.280  0.500  1.836379  9.276128  1.478555  0.915173
  19116.526  19116.500  0.500  1.831111  9.256865  1.483278  0.920844
  19118.788  19118.750  0.500  1.825663  9.252696  1.490709  0.928296
  19121.002  19121.010  0.500  1.820562  9.247414  1.497478  0.934729
  19123.330  19123.290  0.500  1.815219  9.250310  1.505971  0.942645
  19125.594  19125.590  0.500  1.810088  9.241360  1.512254  0.947738
  19127.938  19127.910  0.500  1.806224  9.236728  1.517347  0.950878
  19130.283  19130.250  0.500  1.804699  9.236170  1.519571  0.954108
  19132.613  19132.600  0.500  1.803680  9.214763  1.517594  0.952482
  19135.024  19134.980  0.500  1.804247  9.212267  1.516324  0.952084
  19137.371  19137.370  0.500  1.805212  9.212861  1.514959  0.950002
  19139.799  19139.790  0.500  1.806270  9.206804  1.512363  0.947461
  19142.211  19142.220  0.500  1.807232  9.197575  1.509393  0.944616
  19144.673  19144.670  0.500  1.806691  9.188963  1.508797  0.943435
  19147.199  19147.150  0.500  1.806740  9.185050  1.508080  0.943059
  19149.694  19149.640  0.500  1.805645  9.181387  1.509130  0.943383
  19152.205  19152.150  0.500  1.803788  9.172251  1.510430  0.944359
  19154.669  19154.670  0.500  1.801885  9.170731  1.513056  0.945225
  19157.198  19157.220  0.500  1.800715  9.162108  1.513404  0.943481
  19159.809  19159.790  0.500  1.799916  9.155128  1.513460  0.941199
  19162.404  19162.370  0.500  1.800046  9.150791  1.512546  0.937743
  19164.999  19164.980  0.500  1.799795  9.143081  1.511652  0.935368
  19167.644  19167.600  0.500  1.800651  9.133421  1.508761  0.933341
  19170.289  19170.250  0.500  1.800195  9.128489  1.508635  0.934301
  19172.968  19172.910  0.500  1.800365  9.120660  1.507085  0.936006
  19175.598  19175.590  0.500  1.799431  9.110817  1.506865  0.940622
  19178.311  19178.290  0.500  1.798061  9.098835  1.506946  0.945839
  19181.056  19181.010  0.500  1.795051  9.093421  1.510590  0.952170
  19183.737  19183.750  0.500  1.791981  9.073726  1.511953  0.956894
  19186.500  19186.500  0.500  1.789953  9.075234  1.515273  0.962280
  19189.345  19189.280  0.500  1.785982  9.083315  1.522658  0.967228
  19192.126  19192.070  0.500  1.782193  9.076733  1.527331  0.970054
  19194.923  19194.890  0.500  1.777828  9.065184  1.532060  0.972381
  19197.787  19197.720  0.500  1.773219  9.055569  1.537505  0.974794
  19200.586  19200.570  0.500  1.769170  9.045543  1.542033  0.977628
  19203.467  19203.450  0.500  1.764627  9.041422  1.548350  0.981307
  19206.382  19206.340  0.500  1.761658  9.035032  1.551855  0.981690
  19209.249  19209.250  0.500  1.758140  9.023893  1.555404  0.982550
  19212.213  19212.170  0.500  1.756430  9.019768  1.557355  0.981966
  19215.179  19215.120  0.500  1.754647  9.013176  1.558994  0.980511
  19218.130  19218.090  0.500  1.753466  8.999726  1.558507  0.978469
  19221.113  19221.070  0.500  1.753644  8.994639  1.557348  0.975692
  19224.114  19224.080  0.500  1.754589  8.983088  1.553880  0.973504
  19227.149  19227.100  0.500  1.755860  8.976536  1.550774  0.970427
  19230.119  19230.150  0.500  1.757763  8.965886  1.545989  0.968048
  19233.204  19233.210  0.500  1.759309  8.958383  1.542309  0.965274
  19236.339  19236.290  0.500  1.760659  8.958057  1.540173  0.964720
  19239.410  19239.390  0.500  1.761095  8.948888  1.537925  0.964247
  19242.546  19242.510  0.500  1.760946  8.944551  1.537408  0.965047
