# XDI/1.0 BlueSky/1.10.0 BMM/2023-1.0-py310-tiled
# Beamline.name: BMM (06BM) -- Beamline for Materials Measurement (NIST)
# Beamline.xray_source: NSLS-II three-pole wiggler
# Beamline.collimation: paraboloid mirror, 5 nm Rh on 30 nm Pt
# Beamline.focusing: not in use
# Beamline.harmonic_rejection: flat mirror, Pt stripe, pitch = 7.0 mrad relative to beam
# Beamline.software: Bluesky 1.10.0, Ophyd 1.7.0, DataBroker 2.0.0b13, Python 3.10.8, 2023-1.0-py310-tiled
# Detector.I0: 10 cm N2
# Detector.I1: 25 cm N2
# Detector.I2: 25 cm N2
# Element.symbol: Nb
# Element.edge: K
# Element.reference: Nb
# Element.reference_material: Nb foil
# Facility.name: NSLS-II
# Facility.energy: 3.0
# Facility.current: 400.7
# Facility.mode: top-off
# Facility.GUP: 301027
# Facility.SAF: 310583
# Facility.cycle: 2023-2
# Mono.name: Si(111)
# Mono.d_spacing: 3.1351860
# Mono.encoder_resolution: 0.0000050 deg/ct
# Mono.angle_offset: 16.0754326 deg
# Mono.scan_mode: pseudo channel cut
# Mono.scan_type: step
# Mono.direction: forward in energy
# Sample.name: CeTiNbO6
# Sample.prep: powder in PEG pellet
# Sample.x: 117.785 mm
# Sample.y: 114.695 mm
# Sample.SDD_position: 205.000 mm
# Scan.experimenters: Bruce Ravel
# Scan.edge_energy: 18985.6
# Scan.start_time: 2023-06-23T20:39:52
# Scan.end_time: 2023-06-23T20:47:32
# Scan.transient_id: 85016
# Scan.uid: 27c241a0-c5c7-48f1-90a5-b652c1484fde
# Scan.plot_hint: ln(I0/It)  --  ln($5/$6)
# Column.1: energy eV
# Column.2: requested_energy eV
# Column.3: measurement_time seconds
# Column.4: xmu 
# Column.5: I0 nA
# Column.6: It nA
# Column.7: Ir nA
# ///////////
# sample courtesy Martin Stennett, University of Sheffield
# -----------
# energy  requested_energy  measurement_time  xmu  I0  It  Ir
  18785.510  18785.600  0.500  0.633658  9.968270  5.289634  4.578394
  18795.660  18795.600  0.500  0.631968  9.952926  5.290427  4.578394
  18805.667  18805.600  0.500  0.630443  9.930915  5.286784  4.576912
  18815.652  18815.600  0.500  0.628830  9.908697  5.283471  4.574837
  18825.664  18825.600  0.500  0.626879  9.886053  5.281690  4.573638
  18835.687  18835.600  0.500  0.625431  9.859466  5.275120  4.568062
  18845.689  18845.600  0.500  0.624129  9.840744  5.271961  4.567232
  18855.687  18855.600  0.500  0.622792  9.814483  5.264927  4.563362
  18865.741  18865.600  0.500  0.620758  9.785584  5.260110  4.558113
  18875.745  18875.600  0.500  0.619494  9.765244  5.255816  4.554464
  18885.743  18885.600  0.500  0.618265  9.736661  5.246881  4.546791
  18895.689  18895.600  0.500  0.616914  9.710674  5.239948  4.540590
  18905.692  18905.600  0.500  0.615876  9.686956  5.232579  4.534293
  18915.675  18915.600  0.500  0.614709  9.650741  5.219102  4.521990
  18925.732  18925.600  0.500  0.614370  9.639799  5.214952  4.519386
  18935.720  18935.600  0.500  0.613355  9.608435  5.203267  4.504534
  18945.672  18945.600  0.500  0.613908  9.583920  5.187119  4.490417
  18955.635  18955.600  0.500  0.615203  9.561422  5.168245  4.469492
  18957.638  18957.600  0.500  0.615667  9.558961  5.164517  4.464219
  18959.689  18959.600  0.500  0.616129  9.552842  5.158832  4.457295
  18961.677  18961.600  0.500  0.616501  9.545406  5.152897  4.449503
  18963.681  18963.600  0.500  0.617346  9.538799  5.144982  4.441914
  18965.655  18965.600  0.500  0.618096  9.536027  5.139631  4.433808
  18967.644  18967.600  0.500  0.618974  9.530586  5.132189  4.424729
  18969.650  18969.600  0.500  0.620422  9.522339  5.120330  4.411915
  18971.577  18971.600  0.500  0.621667  9.520156  5.112784  4.400000
  18973.584  18973.600  0.500  0.623517  9.516348  5.101294  4.384641
  18975.623  18975.600  0.500  0.625693  9.506455  5.084914  4.361419
  18975.844  18975.900  0.500  0.626085  9.508235  5.083870  4.358598
  18976.192  18976.200  0.500  0.626366  9.504949  5.080687  4.354258
  18976.492  18976.500  0.500  0.626927  9.504569  5.077636  4.350827
  18976.792  18976.800  0.500  0.627276  9.498490  5.072616  4.346454
  18977.093  18977.100  0.500  0.627561  9.498070  5.070948  4.341162
  18977.409  18977.400  0.500  0.628495  9.490296  5.062067  4.335316
  18977.725  18977.700  0.500  0.628838  9.494165  5.062395  4.330574
  18978.009  18978.000  0.500  0.629275  9.485878  5.055766  4.323139
  18978.294  18978.300  0.500  0.629609  9.469831  5.045526  4.311253
  18978.594  18978.600  0.500  0.630141  9.471555  5.043763  4.307293
  18978.895  18978.900  0.500  0.630440  9.464542  5.038518  4.299002
  18979.195  18979.200  0.500  0.631034  9.460614  5.033437  4.294102
  18979.464  18979.500  0.500  0.631726  9.455810  5.027401  4.287097
  18979.812  18979.800  0.500  0.632524  9.456645  5.023833  4.280089
  18980.128  18980.100  0.500  0.633158  9.459840  5.022348  4.274432
  18980.381  18980.400  0.500  0.633515  9.453167  5.017012  4.267218
  18980.697  18980.700  0.500  0.634624  9.458226  5.014137  4.261442
  18980.998  18981.000  0.500  0.635120  9.461227  5.013240  4.255834
  18981.298  18981.300  0.500  0.635724  9.458334  5.008681  4.247201
  18981.567  18981.600  0.500  0.636444  9.462396  5.007226  4.241669
  18981.868  18981.900  0.500  0.637307  9.465377  5.004479  4.232687
  18982.200  18982.200  0.500  0.638498  9.471706  5.001863  4.224093
  18982.500  18982.500  0.500  0.639327  9.470718  4.997202  4.214813
  18982.769  18982.800  0.500  0.640136  9.475335  4.995595  4.205726
  18983.085  18983.100  0.500  0.640921  9.474986  4.991487  4.192673
  18983.370  18983.400  0.500  0.642229  9.483239  4.989309  4.181123
  18983.639  18983.700  0.500  0.643382  9.476930  4.980241  4.165472
  18983.924  18984.000  0.500  0.644624  9.487163  4.979432  4.151962
  18984.288  18984.300  0.500  0.645982  9.480796  4.969338  4.128310
  18984.572  18984.600  0.500  0.647379  9.481868  4.962958  4.108628
  18984.857  18984.900  0.500  0.648971  9.484427  4.956400  4.089174
  18985.142  18985.200  0.500  0.650222  9.480247  4.948026  4.063309
  18985.458  18985.500  0.500  0.651997  9.480364  4.939309  4.034697
  18985.743  18985.800  0.500  0.653858  9.485246  4.932665  4.009622
  18986.044  18986.100  0.500  0.656158  9.480218  4.918726  3.974497
  18986.392  18986.400  0.500  0.658825  9.476010  4.903446  3.937022
  18986.677  18986.700  0.500  0.661136  9.483138  4.895810  3.907706
  18986.977  18987.000  0.500  0.663900  9.482057  4.881739  3.873966
  18987.294  18987.300  0.500  0.666877  9.487545  4.870045  3.835546
  18987.595  18987.600  0.500  0.670559  9.478311  4.847422  3.795121
  18987.864  18987.900  0.500  0.674302  9.478017  4.829163  3.761028
  18988.180  18988.200  0.500  0.678901  9.472782  4.804348  3.719325
  18988.512  18988.500  0.500  0.683707  9.478738  4.784321  3.681503
  18988.813  18988.800  0.500  0.688522  9.476488  4.760209  3.644749
  18989.098  18989.100  0.500  0.693923  9.466273  4.729465  3.605909
  18989.399  18989.400  0.500  0.699861  9.471261  4.703944  3.571585
  18989.715  18989.700  0.500  0.706842  9.472288  4.671723  3.533364
  18989.969  18990.000  0.500  0.713139  9.471114  4.641825  3.498181
  18990.317  18990.300  0.500  0.720804  9.467127  4.604441  3.458324
  18990.602  18990.600  0.500  0.729507  9.471760  4.566778  3.419263
  18990.903  18990.900  0.500  0.736990  9.469663  4.531727  3.384688
  18991.188  18991.200  0.500  0.745142  9.467868  4.494086  3.346549
  18991.504  18991.500  0.500  0.754990  9.466877  4.449576  3.302201
  18991.805  18991.800  0.500  0.763708  9.466071  4.410577  3.264792
  18992.090  18992.100  0.500  0.773191  9.458659  4.365531  3.221087
  18992.391  18992.400  0.500  0.782529  9.465181  4.327936  3.183633
  18992.739  18992.700  0.500  0.792929  9.458289  4.280039  3.135965
  18993.008  18993.000  0.500  0.801917  9.462641  4.243697  3.098924
  18993.277  18993.300  0.500  0.810382  9.455074  4.204558  3.059898
  18993.626  18993.600  0.500  0.820586  9.453951  4.161381  3.016061
  18993.895  18993.900  0.500  0.830347  9.459022  4.123169  2.976318
  18994.164  18994.200  0.500  0.837938  9.461914  4.093239  2.941887
  18994.449  18994.500  0.500  0.845955  9.451990  4.056297  2.903146
  18994.782  18994.800  0.500  0.854693  9.451456  4.020780  2.865497
  18995.099  18995.100  0.500  0.862660  9.452902  3.989482  2.829391
  18995.368  18995.400  0.500  0.869456  9.451902  3.962043  2.796873
  18995.669  18995.700  0.500  0.876005  9.449799  3.935305  2.763551
  18995.970  18996.000  0.500  0.882458  9.448952  3.909642  2.732317
  18996.287  18996.300  0.500  0.888499  9.448248  3.885805  2.700922
  18996.540  18996.600  0.500  0.894025  9.448808  3.864619  2.673674
  18996.841  18996.900  0.500  0.899613  9.444796  3.841453  2.642828
  18997.189  18997.200  0.500  0.905770  9.445262  3.818063  2.609548
  18997.506  18997.500  0.500  0.911683  9.446909  3.796215  2.578613
  18997.760  18997.800  0.500  0.917893  9.446282  3.772463  2.548863
  18998.061  18998.100  0.500  0.924466  9.440179  3.745328  2.515651
  18998.362  18998.400  0.500  0.931327  9.442377  3.720585  2.481413
  18998.694  18998.700  0.500  0.939725  9.437983  3.687754  2.442603
  18998.995  18999.000  0.500  0.947909  9.443510  3.659836  2.410658
  18999.249  18999.300  0.500  0.957093  9.438381  3.624410  2.372601
  18999.566  18999.600  0.500  0.968311  9.435375  3.582836  2.328050
  18999.899  18999.900  0.500  0.980913  9.445182  3.541646  2.285646
  19000.184  19000.200  0.500  0.993312  9.435901  3.494568  2.242000
  19000.453  19000.500  0.500  1.005541  9.426321  3.448589  2.199705
  19000.786  19000.800  0.500  1.022496  9.426828  3.390793  2.150259
  19001.103  19001.100  0.500  1.040426  9.431718  3.332265  2.101227
  19001.420  19001.400  0.500  1.058465  9.428116  3.271442  2.051944
  19001.689  19001.700  0.500  1.076234  9.428503  3.213958  2.007538
  19001.991  19002.000  0.500  1.098155  9.432169  3.145493  1.954484
  19002.307  19002.300  0.500  1.121610  9.424714  3.070148  1.901496
  19002.609  19002.600  0.500  1.143777  9.426757  3.003492  1.854928
  19002.910  19002.900  0.500  1.165699  9.424942  2.937799  1.809023
  19003.179  19003.200  0.500  1.191767  9.426347  2.862633  1.759790
  19003.528  19003.500  0.500  1.219175  9.428428  2.785853  1.709083
  19003.782  19003.800  0.500  1.242885  9.421441  2.718562  1.666087
  19004.083  19004.100  0.500  1.267160  9.421177  2.653290  1.624896
  19004.400  19004.400  0.500  1.297710  9.418067  2.572608  1.575184
  19004.733  19004.700  0.500  1.326163  9.424043  2.502026  1.532904
  19005.002  19005.000  0.500  1.351503  9.425374  2.439766  1.495651
  19005.304  19005.300  0.500  1.378568  9.412916  2.371481  1.455099
  19005.589  19005.600  0.500  1.407259  9.415637  2.305075  1.416283
  19005.922  19005.900  0.500  1.435376  9.417953  2.241717  1.380160
  19006.176  19006.200  0.500  1.459659  9.411859  2.186521  1.348678
  19006.493  19006.500  0.500  1.485555  9.412876  2.130855  1.316430
  19006.794  19006.800  0.500  1.513465  9.414418  2.072546  1.282799
  19007.111  19007.100  0.500  1.539944  9.410243  2.017491  1.251080
  19007.397  19007.400  0.500  1.562253  9.411961  1.973342  1.225645
  19007.682  19007.700  0.500  1.583310  9.404495  1.930690  1.200994
  19007.999  19008.000  0.500  1.605931  9.413273  1.889269  1.176786
  19008.285  19008.300  0.500  1.625436  9.409166  1.851967  1.155199
  19008.570  19008.600  0.500  1.643838  9.413864  1.819106  1.134985
  19008.840  19008.900  0.500  1.659812  9.416325  1.790747  1.118169
  19009.046  19009.200  0.500  1.669294  9.402098  1.771167  1.105151
  19009.363  19009.500  0.500  1.684503  9.394707  1.743063  1.088918
  19009.950  19009.800  0.500  1.708234  9.393324  1.701934  1.062610
  19009.982  19010.100  0.500  1.708382  9.392749  1.701579  1.062148
  19010.236  19010.400  0.500  1.715772  9.395271  1.689503  1.054103
  19010.458  19010.600  0.500  1.720958  9.391984  1.680176  1.047931
  19011.505  19011.590  0.500  1.736295  9.395425  1.655210  1.029478
  19012.457  19012.590  0.500  1.738982  9.389964  1.649808  1.024639
  19013.504  19013.610  0.500  1.733735  9.396903  1.659714  1.028101
  19014.583  19014.660  0.500  1.726202  9.400552  1.672913  1.035448
  19015.631  19015.720  0.500  1.722226  9.398009  1.679123  1.039551
  19016.742  19016.800  0.500  1.722862  9.389905  1.676608  1.038198
  19017.821  19017.900  0.500  1.731263  9.393363  1.663194  1.029485
  19018.980  19019.020  0.500  1.747957  9.392076  1.635435  1.010613
  19020.076  19020.160  0.500  1.770975  9.387547  1.597450  0.984751
  19021.235  19021.310  0.500  1.799003  9.384024  1.552716  0.954236
  19022.458  19022.490  0.500  1.829256  9.381376  1.506019  0.921668
  19023.618  19023.680  0.500  1.852357  9.384158  1.472065  0.897723
  19024.857  19024.900  0.500  1.861232  9.382569  1.458811  0.885546
  19026.001  19026.130  0.500  1.854308  9.370550  1.467064  0.887746
  19027.320  19027.380  0.500  1.830306  9.367879  1.502275  0.905856
  19028.575  19028.650  0.500  1.798058  9.363723  1.550822  0.933954
  19029.879  19029.940  0.500  1.760888  9.357380  1.608460  0.969828
  19031.182  19031.250  0.500  1.721749  9.351662  1.671640  1.010813
  19032.518  19032.580  0.500  1.684881  9.347452  1.733640  1.054572
  19033.869  19033.930  0.500  1.652342  9.351210  1.791698  1.097111
  19035.269  19035.300  0.500  1.624519  9.345645  1.841152  1.135088
  19036.605  19036.680  0.500  1.600967  9.338233  1.883535  1.167220
  19038.116  19038.090  0.500  1.580568  9.336381  1.921971  1.195320
  19039.501  19039.510  0.500  1.564692  9.328686  1.951117  1.215083
  19040.933  19040.950  0.500  1.552132  9.330750  1.976214  1.230401
  19042.365  19042.410  0.500  1.542534  9.323575  1.993740  1.240705
  19043.893  19043.890  0.500  1.535629  9.315354  2.005785  1.246885
  19045.374  19045.390  0.500  1.530946  9.319637  2.016126  1.250133
  19046.919  19046.910  0.500  1.528261  9.311116  2.019698  1.251631
  19048.416  19048.450  0.500  1.526956  9.305542  2.021125  1.251875
  19050.025  19050.010  0.500  1.524904  9.298610  2.023767  1.254648
  19051.570  19051.580  0.500  1.522580  9.287470  2.026046  1.257862
  19053.147  19053.180  0.500  1.519737  9.282538  2.030736  1.262154
  19054.805  19054.790  0.500  1.517654  9.282433  2.034948  1.267944
  19056.367  19056.430  0.500  1.516338  9.286082  2.038427  1.271175
  19058.057  19058.080  0.500  1.516333  9.282825  2.037723  1.272200
  19059.715  19059.750  0.500  1.516140  9.277773  2.037006  1.269601
  19061.405  19061.440  0.500  1.518014  9.275703  2.032739  1.264455
  19063.128  19063.150  0.500  1.520111  9.276775  2.028716  1.255932
  19064.851  19064.880  0.500  1.524514  9.265193  2.017281  1.245616
  19066.622  19066.630  0.500  1.530040  9.263634  2.005827  1.233869
  19068.394  19068.390  0.500  1.537510  9.263975  1.990972  1.222112
  19070.197  19070.180  0.500  1.547906  9.253323  1.968117  1.208982
  19072.017  19071.980  0.500  1.559248  9.246601  1.944505  1.196852
  19073.822  19073.810  0.500  1.570565  9.241713  1.921608  1.187270
  19075.674  19075.650  0.500  1.582352  9.238217  1.898372  1.178867
  19077.544  19077.510  0.500  1.591993  9.236262  1.879761  1.169630
  19079.413  19079.390  0.500  1.600613  9.228461  1.862052  1.161808
  19081.283  19081.290  0.500  1.607228  9.225563  1.849194  1.154884
  19083.233  19083.210  0.500  1.611530  9.218944  1.839935  1.148941
  19085.167  19085.150  0.500  1.613983  9.215386  1.834720  1.144860
  19087.070  19087.110  0.500  1.615653  9.215059  1.831592  1.142152
  19089.053  19089.080  0.500  1.615981  9.203084  1.828613  1.140825
  19091.069  19091.080  0.500  1.614871  9.195370  1.829109  1.141176
  19093.101  19093.090  0.500  1.613181  9.188406  1.830816  1.142887
  19095.102  19095.120  0.500  1.610371  9.182841  1.834856  1.144630
  19097.167  19097.180  0.500  1.606652  9.184443  1.842013  1.147383
  19099.296  19099.250  0.500  1.600467  9.173905  1.851314  1.150397
  19101.378  19101.340  0.500  1.594685  9.169242  1.861104  1.155645
  19103.444  19103.450  0.500  1.588168  9.164524  1.872307  1.160353
  19105.607  19105.580  0.500  1.581482  9.161288  1.884203  1.166429
  19107.771  19107.720  0.500  1.575462  9.153467  1.893962  1.173059
  19109.935  19109.890  0.500  1.570336  9.150487  1.903076  1.179587
  19112.083  19112.080  0.500  1.566563  9.142724  1.908648  1.184972
  19114.280  19114.280  0.500  1.562860  9.133336  1.913762  1.191438
  19116.477  19116.500  0.500  1.558691  9.121904  1.919352  1.198903
  19118.740  19118.750  0.500  1.554041  9.114157  1.926661  1.206401
  19121.034  19121.010  0.500  1.549692  9.120090  1.936317  1.216158
  19123.265  19123.290  0.500  1.545253  9.115434  1.943938  1.224074
  19125.577  19125.590  0.500  1.541814  9.109921  1.949456  1.228945
  19127.922  19127.910  0.500  1.538009  9.103812  1.955574  1.233349
  19130.251  19130.250  0.500  1.534939  9.093331  1.959329  1.237002
  19132.677  19132.600  0.500  1.532048  9.084929  1.963187  1.239430
  19135.024  19134.980  0.500  1.530126  9.086726  1.967353  1.241706
  19137.435  19137.370  0.500  1.528344  9.076764  1.968700  1.241355
  19139.799  19139.790  0.500  1.526807  9.072850  1.970878  1.241118
  19142.259  19142.220  0.500  1.525882  9.075987  1.973384  1.242020
  19144.656  19144.670  0.500  1.523470  9.058036  1.974237  1.241070
  19147.151  19147.150  0.500  1.522594  9.056469  1.975627  1.241602
  19149.581  19149.640  0.500  1.522397  9.048937  1.974371  1.240540
  19152.125  19152.150  0.500  1.523244  9.040703  1.970905  1.239260
  19154.669  19154.670  0.500  1.524303  9.031168  1.966743  1.234484
  19157.247  19157.220  0.500  1.525803  9.029116  1.963348  1.230500
  19159.809  19159.790  0.500  1.527406  9.020431  1.958318  1.223408
  19162.404  19162.370  0.500  1.528443  9.013277  1.954737  1.217908
  19164.983  19164.980  0.500  1.529475  9.008082  1.951596  1.214353
  19167.563  19167.600  0.500  1.530167  9.000116  1.948522  1.212238
  19170.225  19170.250  0.500  1.530679  8.991793  1.945722  1.212523
  19172.935  19172.910  0.500  1.530290  8.988651  1.945800  1.215641
  19175.631  19175.590  0.500  1.530624  8.976671  1.942558  1.219297
  19178.327  19178.290  0.500  1.530098  8.964810  1.941011  1.225430
  19181.040  19181.010  0.500  1.529533  8.960831  1.941247  1.231059
  19183.786  19183.750  0.500  1.529116  8.945726  1.938782  1.235757
  19186.500  19186.500  0.500  1.527984  8.956845  1.943390  1.241136
  19189.296  19189.280  0.500  1.526081  8.946419  1.944826  1.242446
  19192.029  19192.070  0.500  1.523776  8.945677  1.949152  1.244184
  19194.907  19194.890  0.500  1.522000  8.940030  1.951384  1.244629
  19197.754  19197.720  0.500  1.519348  8.916838  1.951491  1.244184
  19200.602  19200.570  0.500  1.517516  8.916161  1.954921  1.245700
  19203.467  19203.450  0.500  1.515749  8.910789  1.957199  1.246234
  19206.382  19206.340  0.500  1.514852  8.898112  1.956168  1.244039
  19209.265  19209.250  0.500  1.513515  8.892069  1.957455  1.242242
  19212.165  19212.170  0.500  1.513995  8.886924  1.955383  1.239033
  19215.114  19215.120  0.500  1.513841  8.880505  1.954272  1.235426
  19218.113  19218.090  0.500  1.514033  8.871757  1.951972  1.231744
  19221.130  19221.070  0.500  1.514052  8.863478  1.950112  1.228676
  19224.114  19224.080  0.500  1.513918  8.856117  1.948755  1.227280
  19227.133  19227.100  0.500  1.512531  8.850431  1.950206  1.226725
  19230.217  19230.150  0.500  1.510717  8.838947  1.951212  1.227650
  19233.172  19233.210  0.500  1.508175  8.831552  1.954542  1.229423
  19236.306  19236.290  0.500  1.505713  8.828228  1.958622  1.233171
  19239.393  19239.390  0.500  1.502645  8.821413  1.963123  1.237943
  19242.563  19242.510  0.500  1.499606  8.815233  1.967720  1.242367
  19245.668  19245.650  0.500  1.496692  8.796527  1.969274  1.245826
  19248.839  19248.800  0.500  1.494713  8.794015  1.972612  1.250700
