# XDI/1.0 BlueSky/1.10.0 BMM/2023-1.0-py310-tiled
# Beamline.name: BMM (06BM) -- Beamline for Materials Measurement (NIST)
# Beamline.xray_source: NSLS-II three-pole wiggler
# Beamline.collimation: paraboloid mirror, 5 nm Rh on 30 nm Pt
# Beamline.focusing: not in use
# Beamline.harmonic_rejection: flat mirror, Pt stripe, pitch = 7.0 mrad relative to beam
# Beamline.software: Bluesky 1.10.0, Ophyd 1.7.0, DataBroker 2.0.0b13, Python 3.10.8, 2023-1.0-py310-tiled
# Detector.I0: 10 cm N2
# Detector.I1: 25 cm N2
# Detector.I2: 25 cm N2
# Element.symbol: Gd
# Element.edge: L1
# Element.reference: Gd
# Element.reference_material: Gd2O3
# Facility.name: NSLS-II
# Facility.energy: 3.0
# Facility.current: 400.6
# Facility.mode: top-off
# Facility.GUP: 301027
# Facility.SAF: 310583
# Facility.cycle: 2023-2
# Mono.name: Si(111)
# Mono.d_spacing: 3.1351860
# Mono.encoder_resolution: 0.0000050 deg/ct
# Mono.angle_offset: 16.0754326 deg
# Mono.scan_mode: pseudo channel cut
# Mono.scan_type: step
# Mono.direction: forward in energy
# Sample.name: Gd2O3
# Sample.prep: PEG pellet
# Sample.x: 109.138 mm
# Sample.y: 153.150 mm
# Sample.SDD_position: 205.000 mm
# Scan.experimenters: Bruce Ravel
# Scan.edge_energy: 8375.6
# Scan.start_time: 2023-05-28T15:16:49
# Scan.end_time: 2023-05-28T15:24:59
# Scan.transient_id: 78791
# Scan.uid: bb3ec8ad-72f4-41bc-ab94-efd46cfe316d
# Scan.plot_hint: ln(It/Ir)  --  ln($6/$7)
# Column.1: energy eV
# Column.2: requested_energy eV
# Column.3: measurement_time seconds
# Column.4: xmu 
# Column.5: I0 nA
# Column.6: It nA
# Column.7: Ir nA
# ///////////
# sample courtesy Martin Stennett, University of Sheffield
# -----------
# energy  requested_energy  measurement_time  xmu  I0  It  Ir
  8175.604  8175.600  0.500  1.551149  134.231700  167.656641  35.543914
  8185.621  8185.600  0.500  1.546669  134.087056  167.704876  35.713794
  8195.671  8195.600  0.500  1.541429  133.961146  167.851171  35.932742
  8205.644  8205.600  0.500  1.535784  133.835408  167.971448  36.162050
  8215.624  8215.600  0.500  1.530311  133.660038  167.987811  36.364056
  8225.643  8225.600  0.500  1.525563  133.518385  168.082837  36.557773
  8235.641  8235.600  0.500  1.521056  133.373311  168.199945  36.748515
  8245.665  8245.600  0.500  1.516077  133.234698  168.293734  36.952511
  8255.637  8255.600  0.500  1.510912  133.086027  168.402488  37.167878
  8265.626  8265.600  0.500  1.505957  132.956319  168.493199  37.372604
  8275.625  8275.600  0.500  1.501387  132.829508  168.608073  37.569408
  8285.631  8285.600  0.500  1.496556  132.618545  168.614705  37.752820
  8295.612  8295.600  0.500  1.492122  132.487404  168.703935  37.940649
  8305.618  8305.600  0.500  1.487606  132.364993  168.794191  38.132761
  8315.622  8315.600  0.500  1.482865  132.271511  168.901850  38.338422
  8325.609  8325.600  0.500  1.477973  132.101279  168.944916  38.536264
  8335.612  8335.600  0.500  1.473167  131.730017  168.785685  38.685412
  8345.601  8345.600  0.500  1.468616  131.474452  168.716020  38.845854
  8347.594  8347.600  0.500  1.467698  131.412819  168.681082  38.873471
  8349.590  8349.600  0.500  1.466746  131.298061  168.583327  38.887936
  8351.587  8351.600  0.500  1.465898  131.152583  168.421810  38.883639
  8353.589  8353.600  0.500  1.465078  130.988855  168.260523  38.878290
  8355.588  8355.600  0.500  1.464275  130.975888  168.317484  38.922680
  8357.588  8357.600  0.500  1.463518  130.970800  168.371617  38.964673
  8359.590  8359.600  0.500  1.462939  130.941508  168.384880  38.990326
  8361.592  8361.600  0.500  1.462555  130.959936  168.463561  39.023526
  8363.586  8363.600  0.500  1.461965  130.930813  168.477922  39.049865
  8365.587  8365.600  0.500  1.461185  130.888951  168.468570  39.078191
  8365.873  8365.900  0.500  1.461074  130.886899  168.445180  39.077090
  8366.170  8366.200  0.500  1.461045  130.896344  168.448517  39.078992
  8366.473  8366.500  0.500  1.460868  130.884450  168.503078  39.098570
  8366.773  8366.800  0.500  1.460759  130.873670  168.436878  39.087491
  8367.079  8367.100  0.500  1.460622  130.844724  168.396915  39.083562
  8367.379  8367.400  0.500  1.460564  130.844820  168.428489  39.093134
  8367.674  8367.700  0.500  1.460464  130.849647  168.468162  39.106279
  8367.983  8368.000  0.500  1.460402  130.849720  168.497596  39.115537
  8368.277  8368.300  0.500  1.460273  130.831662  168.476751  39.115752
  8368.587  8368.600  0.500  1.460221  130.835838  168.461600  39.114239
  8368.884  8368.900  0.500  1.460166  130.825000  168.448811  39.113423
  8369.184  8369.200  0.500  1.460047  130.830658  168.472570  39.123597
  8369.491  8369.500  0.500  1.459964  130.862908  168.522108  39.138364
  8369.788  8369.800  0.500  1.459975  130.835174  168.507109  39.134446
  8370.092  8370.100  0.500  1.459910  130.811168  168.467944  39.127901
  8370.386  8370.400  0.500  1.459839  130.828016  168.481170  39.133751
  8370.692  8370.700  0.500  1.459821  130.781022  168.426843  39.121823
  8370.990  8371.000  0.500  1.459865  130.815340  168.455742  39.126815
  8371.288  8371.300  0.500  1.459824  130.828970  168.511051  39.141276
  8371.588  8371.600  0.500  1.459821  130.810768  168.483455  39.134970
  8371.886  8371.900  0.500  1.459833  130.762955  168.412536  39.118021
  8372.189  8372.200  0.500  1.459787  130.786349  168.468189  39.132750
  8372.487  8372.500  0.500  1.459860  130.752387  168.446382  39.124853
  8372.787  8372.800  0.500  1.459949  130.754163  168.464332  39.125519
  8373.094  8373.100  0.500  1.459972  130.744694  168.472191  39.126455
  8373.383  8373.400  0.500  1.460021  130.716315  168.445560  39.118350
  8373.699  8373.700  0.500  1.460172  130.739990  168.486459  39.121923
  8373.993  8374.000  0.500  1.460269  130.722947  168.474220  39.115308
  8374.297  8374.300  0.500  1.460292  130.739924  168.520722  39.125200
  8374.601  8374.600  0.500  1.460431  130.716593  168.453923  39.104268
  8374.896  8374.900  0.500  1.460547  130.716651  168.469348  39.103285
  8375.196  8375.200  0.500  1.460716  130.692800  168.454381  39.093223
  8375.497  8375.500  0.500  1.460976  130.680121  168.457401  39.083760
  8375.801  8375.800  0.500  1.461176  130.688187  168.463573  39.077358
  8376.093  8376.100  0.500  1.461435  130.667449  168.467688  39.068210
  8376.388  8376.400  0.500  1.461865  130.664813  168.457801  39.049132
  8376.695  8376.700  0.500  1.462224  130.662334  168.459794  39.035572
  8376.987  8377.000  0.500  1.462781  130.681996  168.533946  39.030997
  8377.291  8377.300  0.500  1.463387  130.667727  168.491974  38.997648
  8377.592  8377.600  0.500  1.463987  130.670230  168.505164  38.977300
  8377.890  8377.900  0.500  1.464782  130.668116  168.491525  38.943153
  8378.200  8378.200  0.500  1.465600  130.630704  168.444844  38.900563
  8378.501  8378.500  0.500  1.466324  130.639854  168.475984  38.879596
  8378.805  8378.800  0.500  1.467021  130.644402  168.486133  38.854815
  8379.100  8379.100  0.500  1.467631  130.626564  168.454240  38.823770
  8379.398  8379.400  0.500  1.468303  130.642002  168.477347  38.803012
  8379.702  8379.700  0.500  1.468911  130.630734  168.471441  38.778088
  8379.988  8380.000  0.500  1.469507  130.620987  168.507261  38.763222
  8380.298  8380.300  0.500  1.470046  130.614580  168.475342  38.735004
  8380.591  8380.600  0.500  1.470721  130.606587  168.465438  38.706583
  8380.895  8380.900  0.500  1.471345  130.593851  168.433939  38.675196
  8381.196  8381.200  0.500  1.471932  130.577401  168.411623  38.647367
  8381.500  8381.500  0.500  1.472639  130.608144  168.483459  38.636545
  8381.802  8381.800  0.500  1.473255  130.579790  168.444829  38.603882
  8382.097  8382.100  0.500  1.473761  130.571883  168.429491  38.580839
  8382.401  8382.400  0.500  1.474484  130.548659  168.407640  38.547953
  8382.697  8382.700  0.500  1.475212  130.537594  168.409184  38.520262
  8383.007  8383.000  0.500  1.475776  130.527820  168.386722  38.493414
  8383.306  8383.300  0.500  1.476464  130.529885  168.408868  38.472019
  8383.610  8383.600  0.500  1.477081  130.505061  168.410374  38.448618
  8383.896  8383.900  0.500  1.477692  130.511782  168.424423  38.428326
  8384.195  8384.200  0.500  1.478336  130.480428  168.373390  38.391948
  8384.493  8384.500  0.500  1.479019  130.501554  168.418214  38.375963
  8384.789  8384.800  0.500  1.479652  130.500476  168.429765  38.354319
  8385.096  8385.100  0.500  1.480435  130.460796  168.366105  38.309808
  8385.392  8385.400  0.500  1.481147  130.459244  168.372088  38.283895
  8385.706  8385.700  0.500  1.481935  130.478786  168.425286  38.265818
  8386.004  8386.000  0.500  1.482905  130.440772  168.411380  38.225574
  8386.309  8386.300  0.500  1.483777  130.421961  168.375452  38.184102
  8386.604  8386.600  0.500  1.484745  130.407649  168.368909  38.145663
  8386.900  8386.900  0.500  1.485870  130.391293  168.364785  38.101847
  8387.199  8387.200  0.500  1.486975  130.397203  168.378064  38.062777
  8387.504  8387.500  0.500  1.488116  130.368904  168.345552  38.012043
  8387.793  8387.800  0.500  1.489259  130.372213  168.366980  37.973457
  8388.092  8388.100  0.500  1.490507  130.386012  168.382616  37.929617
  8388.397  8388.400  0.500  1.491827  130.344501  168.335426  37.868944
  8388.699  8388.700  0.500  1.493197  130.333776  168.335399  37.817102
  8389.006  8389.000  0.500  1.494468  130.323068  168.295621  37.760148
  8389.302  8389.300  0.500  1.495914  130.291820  168.262378  37.698143
  8389.604  8389.600  0.500  1.497283  130.304313  168.289949  37.652717
  8389.903  8389.900  0.500  1.498572  130.291365  168.292285  37.604755
  8390.193  8390.200  0.500  1.499637  130.297961  168.321292  37.571202
  8390.501  8390.500  0.500  1.500776  130.280903  168.308789  37.525651
  8390.797  8390.800  0.500  1.501720  130.266446  168.331777  37.495339
  8391.108  8391.100  0.500  1.502452  130.260559  168.324862  37.466357
  8391.401  8391.400  0.500  1.503088  130.269270  168.315184  37.440414
  8391.697  8391.700  0.500  1.503591  130.229819  168.232187  37.403107
  8391.993  8392.000  0.500  1.503942  130.227788  168.260566  37.396285
  8392.289  8392.300  0.500  1.504158  130.237663  168.292629  37.395364
  8392.594  8392.600  0.500  1.504180  130.257105  168.325137  37.401739
  8392.893  8392.900  0.500  1.504200  130.215264  168.277788  37.390462
  8393.207  8393.200  0.500  1.504197  130.572129  168.773590  37.500740
  8393.500  8393.500  0.500  1.504020  130.616944  168.826514  37.519174
  8393.803  8393.800  0.500  1.503841  130.607939  168.807103  37.521559
  8394.102  8394.100  0.500  1.503654  130.616218  168.817999  37.531003
  8394.404  8394.400  0.500  1.503396  130.608567  168.842559  37.546148
  8394.703  8394.700  0.500  1.503071  130.618927  168.851424  37.560309
  8395.002  8395.000  0.500  1.502949  130.599176  168.838203  37.561958
  8395.305  8395.300  0.500  1.502667  130.590862  168.838667  37.572671
  8395.595  8395.600  0.500  1.502528  130.584857  168.793974  37.567933
  8395.894  8395.900  0.500  1.502352  130.573834  168.796479  37.575117
  8396.194  8396.200  0.500  1.502179  130.556839  168.798636  37.582068
  8396.493  8396.500  0.500  1.502084  130.553067  168.804293  37.586908
  8396.798  8396.800  0.500  1.501931  130.541806  168.781531  37.587586
  8397.104  8397.100  0.500  1.501873  130.520297  168.762111  37.585470
  8397.409  8397.400  0.500  1.501845  130.539011  168.808985  37.596928
  8397.709  8397.700  0.500  1.501832  130.506292  168.792023  37.593674
  8398.005  8398.000  0.500  1.501856  130.500842  168.802115  37.595004
  8398.302  8398.300  0.500  1.501728  130.504433  168.798226  37.598930
  8398.598  8398.600  0.500  1.501679  130.489507  168.770341  37.594565
  8398.907  8398.900  0.500  1.501682  130.476533  168.760829  37.592333
  8399.197  8399.200  0.500  1.501649  130.473678  168.770369  37.595717
  8399.506  8399.500  0.500  1.501601  130.476887  168.779670  37.599583
  8399.797  8399.800  0.500  1.501591  130.457034  168.777883  37.599565
  8400.093  8400.100  0.500  1.501515  130.446634  168.771224  37.600941
  8400.393  8400.400  0.500  1.501478  130.422314  168.750118  37.597642
  8400.596  8400.600  0.500  1.501389  130.444451  168.783338  37.608371
  8401.598  8401.590  0.500  1.501054  130.423957  168.785973  37.621549
  8402.582  8402.590  0.500  1.500442  130.396114  168.786814  37.644778
  8403.618  8403.610  0.500  1.499401  130.400756  168.794060  37.685598
  8404.684  8404.660  0.500  1.497863  130.371232  168.776766  37.739756
  8405.745  8405.720  0.500  1.496051  130.351179  168.793416  37.811911
  8406.821  8406.800  0.500  1.493944  130.346141  168.800912  37.893351
  8407.919  8407.900  0.500  1.491565  130.309680  168.785644  37.980168
  8409.041  8409.020  0.500  1.489207  130.314380  168.836574  38.081333
  8410.184  8410.160  0.500  1.486954  130.278921  168.791292  38.156995
  8411.341  8411.310  0.500  1.484683  130.257382  168.780082  38.241189
  8412.473  8412.490  0.500  1.482944  130.229069  168.746705  38.300198
  8413.873  8413.680  0.500  1.481018  130.174144  168.735964  38.371586
  8414.966  8414.900  0.500  1.479848  130.168417  168.783626  38.427355
  8416.169  8416.130  0.500  1.478724  130.132147  168.741835  38.461051
  8417.379  8417.380  0.500  1.477684  130.082082  168.718995  38.495847
  8418.637  8418.650  0.500  1.476918  130.058712  168.717240  38.524971
  8419.923  8419.940  0.500  1.476126  130.077652  168.765695  38.566536
  8421.238  8421.250  0.500  1.475652  130.013753  168.719837  38.574342
  8422.564  8422.580  0.500  1.475288  130.009650  168.768249  38.599464
  8423.922  8423.930  0.500  1.474868  129.977583  168.759005  38.613580
  8425.289  8425.300  0.500  1.474575  129.975802  168.791310  38.632258
  8426.669  8426.680  0.500  1.474222  129.940441  168.790894  38.645810
  8428.080  8428.090  0.500  1.474087  129.905496  168.778023  38.648099
  8429.500  8429.510  0.500  1.473832  129.892964  168.775582  38.657377
  8430.939  8430.950  0.500  1.473734  129.873434  168.793822  38.665373
  8432.412  8432.410  0.500  1.473679  129.833095  168.782733  38.664950
  8433.880  8433.890  0.500  1.473721  129.814196  168.799089  38.667081
  8435.382  8435.390  0.500  1.473620  129.801813  168.794568  38.669919
  8436.908  8436.910  0.500  1.473749  129.797563  168.842394  38.675921
  8438.448  8438.450  0.500  1.474001  129.730570  168.810992  38.658975
  8440.003  8440.010  0.500  1.474231  129.709976  168.818091  38.651690
  8441.568  8441.580  0.500  1.474400  129.679062  168.805362  38.642260
  8443.180  8443.180  0.500  1.474518  129.651295  168.812911  38.639408
  8444.789  8444.790  0.500  1.474294  129.613581  168.788198  38.642404
  8446.417  8446.430  0.500  1.473936  129.597233  168.769545  38.651983
  8448.080  8448.080  0.500  1.473208  129.571580  168.816810  38.690978
  8449.749  8449.750  0.500  1.472434  129.518876  168.773716  38.711035
  8451.425  8451.440  0.500  1.471280  129.496246  168.757706  38.752047
  8453.148  8453.150  0.500  1.469883  129.471660  168.791279  38.813967
  8454.878  8454.880  0.500  1.468237  129.431913  168.808949  38.881964
  8456.630  8456.630  0.500  1.466648  129.399380  168.829111  38.948464
  8458.385  8458.390  0.500  1.464945  129.367075  168.800326  39.008202
  8460.182  8460.180  0.500  1.463459  129.328593  168.792724  39.064427
  8461.979  8461.980  0.500  1.462262  129.299147  168.808476  39.114890
  8463.808  8463.810  0.500  1.461323  129.287066  168.833759  39.157490
  8465.643  8465.650  0.500  1.460440  129.226285  168.819337  39.188730
  8467.517  8467.510  0.500  1.459586  129.202382  168.812856  39.220718
  8469.382  8469.390  0.500  1.458940  129.164037  168.814505  39.246434
  8471.291  8471.290  0.500  1.458297  129.123099  168.808989  39.270393
  8473.213  8473.210  0.500  1.457613  129.104998  168.814653  39.298592
  8475.145  8475.150  0.500  1.456565  129.046958  168.799115  39.336165
  8477.115  8477.110  0.500  1.455808  129.032113  168.803964  39.367090
  8479.080  8479.080  0.500  1.454634  128.978562  168.780472  39.407857
  8481.083  8481.080  0.500  1.453441  128.955115  168.777301  39.454160
  8483.100  8483.090  0.500  1.452209  128.953330  168.834463  39.516142
  8485.120  8485.120  0.500  1.450960  128.891858  168.802984  39.558157
  8487.194  8487.180  0.500  1.449624  128.864821  168.805088  39.611567
  8489.247  8489.250  0.500  1.448394  128.818308  168.793411  39.657567
  8491.345  8491.340  0.500  1.447036  128.770382  168.804678  39.714098
  8493.456  8493.450  0.500  1.445985  128.714689  168.785174  39.751257
  8495.581  8495.580  0.500  1.444882  128.701644  168.816969  39.802635
  8497.735  8497.720  0.500  1.443986  128.655046  168.828625  39.841062
  8499.889  8499.890  0.500  1.443230  128.626641  168.873829  39.881860
  8502.092  8502.080  0.500  1.442487  128.581224  168.848650  39.905572
  8504.292  8504.280  0.500  1.441833  128.530620  168.802239  39.920679
  8506.503  8506.500  0.500  1.441302  128.494327  168.799055  39.941125
  8508.762  8508.750  0.500  1.440874  128.467189  168.838875  39.967662
  8511.016  8511.010  0.500  1.440392  128.406748  168.817915  39.981961
  8513.317  8513.290  0.500  1.439579  128.349526  168.808576  40.012273
  8515.595  8515.590  0.500  1.438627  128.310445  168.792360  40.046542
  8517.927  8517.910  0.500  1.437545  128.265322  168.802215  40.092228
  8520.255  8520.250  0.500  1.436406  128.224240  168.791411  40.135346
  8522.621  8522.600  0.500  1.435351  128.166424  168.782165  40.175522
  8524.985  8524.980  0.500  1.434415  128.113554  168.761634  40.208254
  8527.385  8527.370  0.500  1.433319  127.861506  168.471801  40.183203
  8529.802  8529.790  0.500  1.432017  125.403769  165.286934  39.474947
  8532.233  8532.220  0.500  1.431029  118.130486  155.766560  37.237996
  8534.681  8534.670  0.500  1.429346  127.261928  167.844590  40.192982
  8537.155  8537.150  0.500  1.427944  127.649942  168.403586  40.383409
  8539.663  8539.640  0.500  1.426403  127.682180  168.488170  40.466001
  8542.156  8542.150  0.500  1.424986  127.688787  168.572476  40.543685
  8544.688  8544.670  0.500  1.423599  127.658465  168.598572  40.606252
  8547.234  8547.220  0.500  1.422528  127.622062  168.621628  40.655293
  8549.801  8549.790  0.500  1.421715  127.592379  168.637705  40.692237
  8552.375  8552.370  0.500  1.420897  127.525702  168.603028  40.717191
  8554.992  8554.980  0.500  1.419962  127.521971  168.668012  40.770962
  8557.611  8557.600  0.500  1.419031  127.434881  168.621353  40.797659
  8560.269  8560.250  0.500  1.417907  127.390675  168.646142  40.849545
  8562.922  8562.910  0.500  1.416830  127.324377  168.597971  40.881865
  8565.603  8565.590  0.500  1.415648  127.264920  168.616216  40.934665
  8568.310  8568.290  0.500  1.414372  127.217808  168.593838  40.981490
  8571.025  8571.010  0.500  1.413043  127.189111  168.578311  41.032192
  8573.755  8573.750  0.500  1.411669  127.115884  168.564336  41.085240
  8576.509  8576.500  0.500  1.410271  127.009443  168.523458  41.132712
  8579.293  8579.280  0.500  1.408855  126.938906  168.455495  41.174379
  8582.091  8582.070  0.500  1.407377  126.839924  168.386863  41.218486
  8584.907  8584.890  0.500  1.406038  126.691535  168.258291  41.242219
  8587.728  8587.720  0.500  1.404565  126.465489  168.030963  41.247201
  8590.596  8590.570  0.500  1.403269  125.670107  167.046694  41.058752
  8593.468  8593.450  0.500  1.402070  109.370195  145.444647  35.792055
  8596.362  8596.340  0.500  1.401048  126.198423  167.891484  41.358153
  8599.264  8599.250  0.500  1.400023  126.503059  168.320591  41.506383
  8602.190  8602.170  0.500  1.399054  126.419750  168.291406  41.539430
  8605.138  8605.120  0.500  1.397819  126.251670  168.124375  41.549476
  8608.103  8608.090  0.500  1.396742  125.991661  167.848729  41.526041
