# XDI/1.0 BlueSky/1.10.0 BMM/2023-1.0-py310-tiled
# Beamline.name: BMM (06BM) -- Beamline for Materials Measurement (NIST)
# Beamline.xray_source: NSLS-II three-pole wiggler
# Beamline.collimation: paraboloid mirror, 5 nm Rh on 30 nm Pt
# Beamline.focusing: not in use
# Beamline.harmonic_rejection: flat mirror, Si stripe, pitch = 7.0 mrad relative to beam
# Beamline.software: Bluesky 1.10.0, Ophyd 1.7.0, DataBroker 2.0.0b13, Python 3.10.8, 2023-1.0-py310-tiled
# Detector.I0: 10 cm N2
# Detector.I1: 25 cm N2
# Detector.I2: 25 cm N2
# Element.symbol: Gd
# Element.edge: L3
# Element.reference: Gd
# Element.reference_material: Gd2O3
# Facility.name: NSLS-II
# Facility.energy: 3.0
# Facility.current: 397.3
# Facility.mode: top-off
# Facility.GUP: 123456
# Facility.SAF: 301027
# Facility.cycle: 2023-2
# Mono.name: Si(111)
# Mono.d_spacing: 3.1351860
# Mono.encoder_resolution: 0.0000050 deg/ct
# Mono.angle_offset: 16.0754326 deg
# Mono.scan_mode: pseudo channel cut
# Mono.scan_type: step
# Mono.direction: forward in energy
# Sample.name: Gd2Ti2O7
# Sample.prep: Powder in PEG pellet
# Sample.x: 149.848 mm
# Sample.y: 114.690 mm
# Sample.SDD_position: 205.000 mm
# Scan.experimenters: Bruce Ravel
# Scan.edge_energy: 7242.8
# Scan.start_time: 2023-05-08T18:17:32
# Scan.end_time: 2023-05-08T18:23:15
# Scan.transient_id: 75483
# Scan.uid: c05e67ee-5012-4dd7-bfc7-33af8a257bb2
# Scan.plot_hint: ln(I0/It)  --  ln($5/$6)
# Column.1: energy eV
# Column.2: requested_energy eV
# Column.3: measurement_time seconds
# Column.4: xmu 
# Column.5: I0 nA
# Column.6: It nA
# Column.7: Ir nA
# ///////////
# sample courtesy Martin Stennett, University of Sheffield
# -----------
# energy  requested_energy  measurement_time  xmu  I0  It  Ir
  7042.807  7042.800  0.500  1.512848  150.048762  33.052994  6.388432
  7052.808  7052.800  0.500  1.504330  150.043959  33.334689  6.486907
  7062.815  7062.800  0.500  1.495925  148.693873  33.313553  6.528078
  7072.848  7072.800  0.500  1.487688  150.021522  33.889005  6.685698
  7082.845  7082.800  0.500  1.479462  148.913227  33.916517  6.735646
  7092.818  7092.800  0.500  1.471098  149.996540  34.450192  6.887630
  7102.827  7102.800  0.500  1.462985  150.018846  34.735988  6.992342
  7112.816  7112.800  0.500  1.454949  149.789714  34.962744  7.085475
  7122.821  7122.800  0.500  1.446923  149.912961  35.273510  7.195839
  7132.817  7132.800  0.500  1.439442  149.618686  35.468617  7.278848
  7142.816  7142.800  0.500  1.431246  149.675992  35.774203  7.390829
  7152.818  7152.800  0.500  1.423631  149.750862  36.065688  7.499504
  7162.812  7162.800  0.500  1.415808  149.690305  36.334229  7.604975
  7172.810  7172.800  0.500  1.407758  149.548613  36.593257  7.707479
  7182.815  7182.800  0.500  1.400181  149.474122  36.853187  7.809533
  7192.809  7192.800  0.500  1.392602  148.554245  36.905047  7.868863
  7202.814  7202.800  0.500  1.385966  149.123932  37.293230  7.995748
  7212.811  7212.800  0.500  1.379624  149.040562  37.509513  8.083297
  7214.802  7214.800  0.500  1.378537  149.004675  37.541261  8.095775
  7216.802  7216.800  0.500  1.377664  148.960022  37.562787  8.106440
  7218.801  7218.800  0.500  1.376700  148.912061  37.586905  8.116721
  7220.796  7220.800  0.500  1.376424  148.875375  37.588032  8.120792
  7222.795  7222.800  0.500  1.376229  148.824706  37.582564  8.122476
  7224.798  7224.800  0.500  1.376064  148.780355  37.577547  8.122002
  7226.799  7226.800  0.500  1.376347  148.485208  37.492411  8.100693
  7228.793  7228.800  0.500  1.377102  148.566955  37.484746  8.092611
  7230.801  7230.800  0.500  1.379000  148.827513  37.479254  8.076589
  7232.801  7232.800  0.500  1.382612  148.785625  37.333634  8.022836
  7233.286  7233.300  0.500  1.383863  148.767973  37.282523  8.004244
  7233.781  7233.800  0.500  1.385051  148.759113  37.236047  7.984975
  7234.283  7234.300  0.500  1.386197  148.737286  37.187943  7.963385
  7234.787  7234.800  0.500  1.387938  148.717306  37.118284  7.938451
  7235.285  7235.300  0.500  1.389944  148.702670  37.040245  7.907604
  7235.783  7235.800  0.500  1.392224  148.696168  36.954261  7.873833
  7236.285  7236.300  0.500  1.395200  148.686141  36.841970  7.832407
  7236.783  7236.800  0.500  1.398101  148.675233  36.732536  7.786015
  7237.282  7237.300  0.500  1.401758  148.675041  36.598414  7.734164
  7237.784  7237.800  0.500  1.405897  148.657184  36.442860  7.671926
  7238.287  7238.300  0.500  1.410928  148.667398  36.262466  7.598742
  7238.787  7238.800  0.500  1.417080  148.646744  36.035072  7.509608
  7239.288  7239.300  0.500  1.424912  148.646948  35.754000  7.398813
  7239.791  7239.800  0.500  1.433897  148.638690  35.432207  7.273400
  7240.294  7240.300  0.500  1.444256  148.616017  35.061708  7.127514
  7240.788  7240.800  0.500  1.455607  148.602516  34.662835  6.970571
  7241.284  7241.300  0.500  1.467575  148.583782  34.246148  6.806579
  7241.788  7241.800  0.500  1.480257  148.582161  33.814198  6.634100
  7242.289  7242.300  0.500  1.495204  148.571738  33.310192  6.435002
  7242.787  7242.800  0.500  1.514351  148.562197  32.676376  6.186523
  7243.295  7243.300  0.500  1.540292  148.528760  31.832461  5.857196
  7243.794  7243.800  0.500  1.573647  148.359307  30.753068  5.450378
  7244.293  7244.300  0.500  1.613842  147.353275  29.341148  4.967667
  7244.792  7244.800  0.500  1.662356  146.094413  27.712877  4.436012
  7245.292  7245.300  0.500  1.716209  146.114987  26.263625  3.950589
  7245.789  7245.800  0.500  1.768208  147.745247  25.211036  3.583227
  7246.288  7246.300  0.500  1.814407  148.266058  24.157660  3.279864
  7246.792  7246.800  0.500  1.851820  148.359326  23.285179  3.057226
  7247.294  7247.300  0.500  1.881624  148.406807  22.608658  2.889589
  7247.793  7247.800  0.500  1.902061  148.426953  22.154310  2.768909
  7248.297  7248.300  0.500  1.912806  148.422632  21.916904  2.693334
  7248.799  7248.800  0.500  1.912760  148.421088  21.917668  2.673119
  7249.299  7249.300  0.500  1.902344  148.403964  22.144610  2.710619
  7249.792  7249.800  0.500  1.883565  148.398458  22.563551  2.808285
  7250.292  7250.300  0.500  1.856597  148.379904  23.177421  2.970173
  7250.795  7250.800  0.500  1.825209  148.357200  23.912793  3.179992
  7251.292  7251.300  0.500  1.792421  148.326625  24.704745  3.414614
  7251.795  7251.800  0.500  1.757795  148.302907  25.571076  3.678402
  7252.300  7252.300  0.500  1.725192  148.260340  26.410925  3.944946
  7252.798  7252.800  0.500  1.697021  148.188794  27.152417  4.188970
  7253.298  7253.300  0.500  1.673441  148.009548  27.766641  4.400320
  7253.798  7253.800  0.500  1.654171  147.333242  28.177560  4.569333
  7254.290  7254.300  0.500  1.638138  145.914828  28.357325  4.687208
  7254.795  7254.800  0.500  1.624643  146.397030  28.837592  4.843190
  7255.293  7255.300  0.500  1.614446  148.156664  29.483308  5.016601
  7255.799  7255.800  0.500  1.606333  148.477254  29.787787  5.122135
  7256.297  7256.300  0.500  1.598840  148.456192  30.007584  5.205511
  7256.796  7256.800  0.500  1.591221  148.421148  30.229929  5.281747
  7257.299  7257.300  0.500  1.584487  148.378246  30.425392  5.348018
  7257.796  7257.800  0.500  1.578799  148.338888  30.590829  5.403104
  7258.299  7258.300  0.500  1.573592  148.301559  30.742783  5.454286
  7258.800  7258.800  0.500  1.569216  148.266042  30.870223  5.498657
  7259.304  7259.300  0.500  1.565052  148.226198  30.990717  5.539134
  7259.803  7259.800  0.500  1.561814  148.181296  31.081809  5.569505
  7260.300  7260.300  0.500  1.558919  148.115681  31.158106  5.593609
  7260.797  7260.800  0.500  1.556588  148.007318  31.207988  5.610463
  7261.303  7261.300  0.500  1.554717  147.856138  31.234475  5.619565
  7261.802  7261.800  0.500  1.553594  147.630045  31.221755  5.617731
  7262.304  7262.300  0.500  1.553058  147.265777  31.161433  5.604234
  7262.805  7262.800  0.500  1.553144  146.504470  30.997666  5.571192
  7263.303  7263.300  0.500  1.554131  144.491112  30.541518  5.486895
  7263.807  7263.800  0.500  1.555771  136.202862  28.742427  5.159955
  7264.309  7264.300  0.500  1.556917  123.023708  25.931530  4.652207
  7264.800  7264.800  0.500  1.558347  124.400481  26.184269  4.693771
  7265.299  7265.300  0.500  1.560726  138.203996  29.020554  5.199858
  7265.799  7265.800  0.500  1.564214  146.843773  30.727414  5.508411
  7266.299  7266.300  0.500  1.566962  148.108499  30.907024  5.541897
  7266.799  7266.800  0.500  1.569379  148.420171  30.897285  5.545743
  7267.304  7267.300  0.500  1.571456  148.548679  30.859863  5.545724
  7267.800  7267.800  0.500  1.572909  148.607446  30.827243  5.547768
  7268.791  7268.790  0.500  1.574442  148.619560  30.782531  5.557971
  7269.795  7269.790  0.500  1.574192  148.607686  30.787769  5.574979
  7270.820  7270.810  0.500  1.573222  148.572552  30.810386  5.588854
  7271.869  7271.860  0.500  1.572267  148.510703  30.826981  5.590326
  7272.920  7272.920  0.500  1.572762  148.312806  30.770651  5.567525
  7274.008  7274.000  0.500  1.574166  146.017271  30.251907  5.453907
  7275.114  7275.100  0.500  1.576698  148.411559  30.670205  5.503581
  7276.227  7276.220  0.500  1.579743  148.663434  30.628828  5.466143
  7277.367  7277.360  0.500  1.583381  148.625815  30.509887  5.410058
  7278.528  7278.510  0.500  1.587365  148.599361  30.383178  5.350207
  7279.698  7279.690  0.500  1.591094  148.580480  30.266239  5.288475
  7280.889  7280.880  0.500  1.594701  148.557633  30.152628  5.231402
  7282.114  7282.100  0.500  1.597234  148.512538  30.067227  5.186320
  7283.342  7283.330  0.500  1.598292  148.207665  29.973764  5.152333
  7284.584  7284.580  0.500  1.597419  145.746969  29.501849  5.069697
  7285.860  7285.850  0.500  1.594641  148.191446  30.080092  5.180418
  7287.159  7287.140  0.500  1.591045  148.319202  30.214500  5.226320
  7288.449  7288.450  0.500  1.586698  148.342765  30.350938  5.280411
  7289.794  7289.780  0.500  1.581794  148.354883  30.502646  5.339085
  7291.136  7291.130  0.500  1.576619  148.338606  30.657524  5.399016
  7292.507  7292.500  0.500  1.571099  148.320294  30.823414  5.456800
  7293.892  7293.880  0.500  1.565913  148.314894  30.982581  5.509156
  7295.302  7295.290  0.500  1.561576  148.291270  31.112282  5.553480
  7296.720  7296.710  0.500  1.557744  148.274852  31.228262  5.593745
  7298.157  7298.150  0.500  1.554636  148.224681  31.314873  5.628408
  7299.617  7299.610  0.500  1.552246  148.141378  31.372172  5.657179
  7301.100  7301.090  0.500  1.550026  146.716487  31.139479  5.630551
  7302.602  7302.590  0.500  1.548842  148.276744  31.507900  5.710614
  7304.118  7304.110  0.500  1.548287  148.294431  31.529150  5.726911
  7305.664  7305.650  0.500  1.548339  148.245115  31.517017  5.736611
  7307.215  7307.210  0.500  1.548645  148.218988  31.501847  5.746202
  7308.799  7308.780  0.500  1.548811  148.186033  31.489603  5.752155
  7310.390  7310.380  0.500  1.550079  148.166799  31.445604  5.751351
  7311.998  7311.990  0.500  1.552042  148.142873  31.378887  5.745032
  7313.650  7313.630  0.500  1.553887  148.119436  31.316101  5.735518
  7315.287  7315.280  0.500  1.555096  148.097003  31.273506  5.726271
  7316.963  7316.950  0.500  1.555106  148.079627  31.269534  5.721228
  7318.652  7318.640  0.500  1.554300  148.045161  31.287451  5.717304
  7320.364  7320.350  0.500  1.552504  148.029900  31.340473  5.718274
  7322.093  7322.080  0.500  1.550512  148.012090  31.399189  5.720561
  7323.845  7323.830  0.500  1.548982  147.978779  31.440201  5.719767
  7325.610  7325.590  0.500  1.546980  147.952732  31.497644  5.725029
  7327.391  7327.380  0.500  1.544371  147.925743  31.574163  5.733826
  7329.199  7329.180  0.500  1.542080  147.902021  31.641516  5.745649
  7331.014  7331.010  0.500  1.539494  147.876718  31.718029  5.762521
  7332.865  7332.850  0.500  1.537063  147.848250  31.789098  5.781157
  7334.723  7334.710  0.500  1.535623  147.827968  31.830551  5.795869
  7336.605  7336.590  0.500  1.535101  147.813044  31.843952  5.807118
  7338.505  7338.490  0.500  1.535146  146.759975  31.615669  5.775231
  7340.423  7340.410  0.500  1.535492  147.322759  31.725901  5.804263
  7342.363  7342.350  0.500  1.535935  147.583244  31.767922  5.819671
  7344.323  7344.310  0.500  1.536184  147.605671  31.764861  5.827946
  7346.295  7346.280  0.500  1.535861  147.585562  31.770791  5.837503
  7348.301  7348.280  0.500  1.534487  147.570519  31.811225  5.852864
  7350.305  7350.290  0.500  1.532372  147.536519  31.871217  5.870604
  7352.338  7352.320  0.500  1.529824  147.509413  31.946684  5.890221
  7354.393  7354.380  0.500  1.527322  147.463649  32.016777  5.909151
  7356.458  7356.450  0.500  1.525476  147.449606  32.072866  5.926451
  7358.557  7358.540  0.500  1.523342  147.413806  32.133578  5.944929
  7360.664  7360.650  0.500  1.521057  147.395006  32.202978  5.969963
  7362.800  7362.780  0.500  1.518529  147.358444  32.276493  5.997808
  7364.927  7364.920  0.500  1.515717  147.303077  32.355201  6.031398
  7367.107  7367.090  0.500  1.512617  147.283141  32.451278  6.069133
  7369.298  7369.280  0.500  1.509861  147.277279  32.539551  6.107214
  7371.494  7371.480  0.500  1.508025  147.253132  32.593990  6.138077
  7373.724  7373.700  0.500  1.507452  147.214957  32.604236  6.159279
  7375.954  7375.950  0.500  1.506942  147.168108  32.610478  6.172768
  7378.221  7378.210  0.500  1.506651  147.132552  32.612099  6.179846
  7380.502  7380.490  0.500  1.506180  147.085205  32.616957  6.184081
  7382.800  7382.790  0.500  1.505976  147.061384  32.618317  6.184358
  7385.123  7385.110  0.500  1.505422  147.023950  32.628089  6.186452
  7387.460  7387.450  0.500  1.504338  146.996980  32.657494  6.193511
  7389.811  7389.800  0.500  1.503017  146.970588  32.694793  6.203419
  7392.192  7392.180  0.500  1.501309  146.935013  32.742742  6.211238
  7394.577  7394.570  0.500  1.500000  146.893583  32.776396  6.214805
  7397.006  7396.990  0.500  1.498459  146.859559  32.819340  6.219465
  7399.434  7399.420  0.500  1.496664  146.831186  32.871954  6.229123
  7401.884  7401.870  0.500  1.494756  146.789949  32.925469  6.241179
  7404.362  7404.350  0.500  1.492316  146.755948  32.998258  6.260347
  7406.858  7406.840  0.500  1.489535  146.724552  33.083085  6.283015
  7409.360  7409.350  0.500  1.486755  146.679348  33.164955  6.313337
  7411.883  7411.870  0.500  1.484195  146.641246  33.241334  6.345674
  7414.442  7414.420  0.500  1.482090  146.604234  33.302987  6.378535
  7417.002  7416.990  0.500  1.480038  146.635821  33.378580  6.413311
  7419.581  7419.570  0.500  1.478284  147.163348  33.557476  6.465877
  7422.193  7422.180  0.500  1.476675  147.123877  33.602481  6.489053
  7424.814  7424.800  0.500  1.475278  147.072909  33.637793  6.507334
  7427.456  7427.450  0.500  1.474091  147.020629  33.665775  6.521396
  7430.116  7430.110  0.500  1.473221  146.963814  33.682051  6.531645
  7432.804  7432.790  0.500  1.472318  146.917319  33.701824  6.541710
  7435.501  7435.490  0.500  1.471179  146.856894  33.726353  6.552613
  7438.214  7438.210  0.500  1.469728  146.794510  33.760993  6.566687
  7440.959  7440.950  0.500  1.468015  146.716117  33.800791  6.581871
  7443.705  7443.700  0.500  1.465888  146.589317  33.843491  6.596507
  7446.483  7446.480  0.500  1.463956  143.973152  33.303765  6.500321
  7449.273  7449.270  0.500  1.462591  146.610667  33.960196  6.641080
  7452.103  7452.090  0.500  1.460662  146.357372  33.967008  6.657039
  7454.928  7454.920  0.500  1.458414  146.589848  34.097508  6.701352
  7457.774  7457.770  0.500  1.456297  146.371005  34.118748  6.723014
  7460.658  7460.650  0.500  1.453304  146.460564  34.241967  6.764182
  7463.549  7463.540  0.500  1.450411  146.434114  34.334976  6.798914
  7466.459  7466.450  0.500  1.448053  146.132446  34.345148  6.815771
  7469.374  7469.370  0.500  1.445723  146.460398  34.502509  6.857518
  7472.331  7472.320  0.500  1.443647  146.336423  34.544933  6.875613
  7475.310  7475.290  0.500  1.441767  146.277706  34.596063  6.893699
  7478.279  7478.270  0.500  1.439904  146.193775  34.640675  6.911062
  7481.285  7481.280  0.500  1.438325  146.138424  34.682304  6.926237
  7484.311  7484.300  0.500  1.436824  146.050231  34.713421  6.941568
  7487.367  7487.350  0.500  1.434894  146.013922  34.771836  6.960524
  7490.423  7490.410  0.500  1.433190  145.936559  34.812685  6.977736
  7493.500  7493.490  0.500  1.431393  145.878333  34.861401  6.995970
  7496.602  7496.590  0.500  1.429695  145.827512  34.908477  7.015356
  7499.726  7499.710  0.500  1.427868  145.772953  34.959219  7.036836
  7502.864  7502.850  0.500  1.425835  145.712864  35.015934  7.061965
  7506.005  7506.000  0.500  1.423619  145.630396  35.073753  7.087413
  7509.199  7509.180  0.500  1.421378  145.561196  35.135733  7.115207
  7512.386  7512.370  0.500  1.418521  145.506764  35.223079  7.148903
  7515.600  7515.590  0.500  1.415810  145.457697  35.306774  7.181648
  7518.827  7518.820  0.500  1.413480  145.391149  35.372946  7.213183
  7522.083  7522.070  0.500  1.410967  145.321565  35.444991  7.245298
  7525.366  7525.350  0.500  1.409002  145.259416  35.499530  7.272711
  7528.657  7528.640  0.500  1.406596  145.195073  35.569285  7.303681
  7531.958  7531.950  0.500  1.404543  145.122804  35.624623  7.327558
  7535.276  7535.270  0.500  1.402592  145.042409  35.674437  7.350543
  7538.632  7538.620  0.500  1.400606  144.986138  35.731490  7.374215
  7542.012  7541.990  0.500  1.398725  144.918541  35.782064  7.397006
  7545.384  7545.370  0.500  1.396814  144.846906  35.832794  7.418627
  7548.802  7548.780  0.500  1.395051  144.750396  35.872112  7.438813
  7552.214  7552.200  0.500  1.393174  144.697636  35.926398  7.463870
  7555.667  7555.650  0.500  1.390901  144.605684  35.985285  7.491764
  7559.127  7559.110  0.500  1.388825  144.534161  36.042229  7.521126
  7562.614  7562.590  0.500  1.386361  144.447063  36.109375  7.553807
  7566.110  7566.090  0.500  1.383756  144.350732  36.179405  7.584892
  7569.647  7569.610  0.500  1.381207  144.294006  36.257482  7.617963
  7573.189  7573.150  0.500  1.378386  144.192151  36.334237  7.649038
  7576.714  7576.700  0.500  1.375731  144.115238  36.411419  7.681990
  7580.296  7580.280  0.500  1.373464  144.017158  36.469224  7.709127
  7583.894  7583.880  0.500  1.370639  143.914741  36.546371  7.738728
  7587.513  7587.490  0.500  1.367952  143.798976  36.615233  7.767490
  7591.138  7591.120  0.500  1.365533  143.662504  36.669078  7.795885
  7594.816  7594.780  0.500  1.363354  143.518699  36.712286  7.822136
  7598.468  7598.450  0.500  1.361062  143.362374  36.756436  7.846440
  7602.158  7602.140  0.500  1.358845  141.639632  36.395356  7.784661
  7605.866  7605.850  0.500  1.356752  142.727484  36.751718  7.875738
  7609.603  7609.580  0.500  1.354589  142.500623  36.772778  7.895344
  7613.336  7613.320  0.500  1.352342  142.436471  36.838903  7.923147
  7617.108  7617.090  0.500  1.350095  142.438702  36.922337  7.956338
  7620.898  7620.880  0.500  1.347774  142.546306  37.036095  7.995921
  7624.698  7624.680  0.500  1.345489  142.624060  37.141060  8.036255
  7628.531  7628.510  0.500  1.343174  142.592656  37.218951  8.070767
  7632.365  7632.350  0.500  1.340480  142.520169  37.300390  8.106663
  7636.224  7636.210  0.500  1.337799  142.418716  37.373911  8.141657
  7640.111  7640.090  0.500  1.335141  142.312584  37.445440  8.175949
  7644.010  7643.990  0.500  1.332603  142.196461  37.509967  8.209779
  7647.928  7647.910  0.500  1.330203  142.071660  37.567081  8.241204
  7651.872  7651.850  0.500  1.327676  141.984512  37.639044  8.276399
  7655.839  7655.810  0.500  1.324716  141.880468  37.722945  8.313732
  7659.802  7659.780  0.500  1.321970  141.766684  37.796352  8.349257
  7663.797  7663.780  0.500  1.319653  141.637252  37.849444  8.381314
