# XDI/1.0 BlueSky/1.10.0 BMM/2023-1.0-py310-tiled
# Beamline.name: BMM (06BM) -- Beamline for Materials Measurement (NIST)
# Beamline.xray_source: NSLS-II three-pole wiggler
# Beamline.collimation: paraboloid mirror, 5 nm Rh on 30 nm Pt
# Beamline.focusing: not in use
# Beamline.harmonic_rejection: flat mirror, Si stripe, pitch = 7.0 mrad relative to beam
# Beamline.software: Bluesky 1.10.0, Ophyd 1.7.0, DataBroker 2.0.0b13, Python 3.10.8, 2023-1.0-py310-tiled
# Detector.I0: 10 cm N2
# Detector.I1: 25 cm N2
# Detector.I2: 25 cm N2
# Element.symbol: Gd
# Element.edge: L3
# Element.reference: Gd
# Element.reference_material: Gd2O3
# Facility.name: NSLS-II
# Facility.energy: 3.0
# Facility.current: 399.0
# Facility.mode: top-off
# Facility.GUP: 123456
# Facility.SAF: 301027
# Facility.cycle: 2023-2
# Mono.name: Si(111)
# Mono.d_spacing: 3.1351860
# Mono.encoder_resolution: 0.0000050 deg/ct
# Mono.angle_offset: 16.0754326 deg
# Mono.scan_mode: pseudo channel cut
# Mono.scan_type: step
# Mono.direction: forward in energy
# Sample.name: Gd2TiO5
# Sample.prep: Powder in PEG pellet
# Sample.x: 149.848 mm
# Sample.y: 114.690 mm
# Sample.SDD_position: 205.000 mm
# Scan.experimenters: Bruce Ravel
# Scan.edge_energy: 7242.8
# Scan.start_time: 2023-05-08T18:10:48
# Scan.end_time: 2023-05-08T18:16:48
# Scan.transient_id: 75478
# Scan.uid: d40312a8-d397-45f7-b91b-5e2d895c82bb
# Scan.plot_hint: ln(I0/It)  --  ln($5/$6)
# Column.1: energy eV
# Column.2: requested_energy eV
# Column.3: measurement_time seconds
# Column.4: xmu 
# Column.5: I0 nA
# Column.6: It nA
# Column.7: Ir nA
# ///////////
# sample courtesy Martin Stennett, University of Sheffield
# -----------
# energy  requested_energy  measurement_time  xmu  I0  It  Ir
  7042.807  7042.800  0.500  1.359467  150.315014  38.600545  7.465898
  7052.810  7052.800  0.500  1.351140  150.366760  38.936710  7.583241
  7062.820  7062.800  0.500  1.343271  149.068806  38.905543  7.629841
  7072.833  7072.800  0.500  1.334833  150.457399  39.600716  7.818790
  7082.822  7082.800  0.500  1.326782  149.336238  39.623328  7.876445
  7092.822  7092.800  0.500  1.318618  150.420365  40.238146  8.053055
  7102.825  7102.800  0.500  1.310573  150.455468  40.572661  8.173838
  7112.818  7112.800  0.500  1.302208  150.379767  40.892887  8.292871
  7122.819  7122.800  0.500  1.294336  150.128833  41.147273  8.398879
  7132.817  7132.800  0.500  1.286229  149.689671  41.360856  8.496213
  7142.807  7142.800  0.500  1.278302  149.792519  41.718667  8.626890
  7152.816  7152.800  0.500  1.270465  149.878183  42.070986  8.755873
  7162.810  7162.800  0.500  1.262414  149.816109  42.393486  8.880206
  7172.816  7172.800  0.500  1.254704  149.675874  42.681603  8.997262
  7182.812  7182.800  0.500  1.247280  149.592748  42.975789  9.114434
  7192.778  7192.800  0.500  1.240212  148.661847  43.011290  9.177288
  7202.773  7202.800  0.500  1.233691  149.293265  43.476556  9.330043
  7212.781  7212.800  0.500  1.228428  149.121920  43.655804  9.413909
  7214.782  7214.800  0.500  1.227198  149.096569  43.702096  9.430194
  7216.777  7216.800  0.500  1.226650  149.058694  43.714942  9.442345
  7218.783  7218.800  0.500  1.226216  149.010462  43.719770  9.449265
  7220.785  7220.800  0.500  1.226280  148.980194  43.708088  9.450763
  7222.791  7222.800  0.500  1.225731  148.925408  43.716024  9.455018
  7224.789  7224.800  0.500  1.226457  148.854239  43.663416  9.443970
  7226.786  7226.800  0.500  1.227304  148.581959  43.546647  9.415652
  7228.784  7228.800  0.500  1.229069  148.624509  43.482301  9.393977
  7230.788  7230.800  0.500  1.231981  148.921135  43.442393  9.370661
  7232.786  7232.800  0.500  1.236766  148.877217  43.222287  9.296209
  7233.279  7233.300  0.500  1.238598  148.861336  43.138553  9.269556
  7233.783  7233.800  0.500  1.240544  148.846066  43.050259  9.240014
  7234.281  7234.300  0.500  1.242821  148.818638  42.944426  9.205570
  7234.781  7234.800  0.500  1.245282  148.798167  42.833010  9.167431
  7235.283  7235.300  0.500  1.248050  148.789636  42.712153  9.127030
  7235.785  7235.800  0.500  1.251323  148.777104  42.568980  9.078538
  7236.283  7236.300  0.500  1.254635  148.762155  42.423988  9.026322
  7236.777  7236.800  0.500  1.258964  148.754799  42.238617  8.963014
  7237.284  7237.300  0.500  1.264009  148.749656  42.024633  8.889131
  7237.784  7237.800  0.500  1.269693  148.740373  41.783844  8.804276
  7238.282  7238.300  0.500  1.276697  148.718832  41.486197  8.703831
  7238.785  7238.800  0.500  1.285345  148.717863  41.128704  8.579578
  7239.292  7239.300  0.500  1.296028  148.703882  40.687841  8.429749
  7239.791  7239.800  0.500  1.308416  148.691269  40.183495  8.257254
  7240.289  7240.300  0.500  1.322862  148.686166  39.605824  8.062062
  7240.786  7240.800  0.500  1.339095  148.666617  38.962974  7.845439
  7241.287  7241.300  0.500  1.356668  148.631598  38.275207  7.616416
  7241.783  7241.800  0.500  1.375254  148.654881  37.576300  7.383087
  7242.286  7242.300  0.500  1.397152  148.649950  36.761174  7.112458
  7242.796  7242.800  0.500  1.426213  148.620923  35.701269  6.767088
  7243.291  7243.300  0.500  1.464700  148.591013  34.346415  6.331542
  7243.792  7243.800  0.500  1.516020  148.428036  32.592444  5.790742
  7244.298  7244.300  0.500  1.578887  147.380532  30.390512  5.157929
  7244.792  7244.800  0.500  1.654808  146.151534  27.933765  4.486537
  7245.287  7245.300  0.500  1.740409  146.180156  25.647114  3.874106
  7245.789  7245.800  0.500  1.825127  147.841025  23.831556  3.397247
  7246.293  7246.300  0.500  1.897296  148.335750  22.246455  3.028593
  7246.788  7246.800  0.500  1.953286  148.430391  21.048517  2.771090
  7247.298  7247.300  0.500  1.995882  148.475205  20.176859  2.584963
  7247.793  7247.800  0.500  2.025496  148.479255  19.588624  2.454135
  7248.293  7248.300  0.500  2.043920  148.481212  19.231283  2.368810
  7248.788  7248.800  0.500  2.050984  148.473979  19.094993  2.333572
  7249.290  7249.300  0.500  2.044864  148.462701  19.210737  2.355689
  7249.797  7249.800  0.500  2.022720  148.450319  19.639253  2.449101
  7250.299  7250.300  0.500  1.984965  148.433606  20.392609  2.620162
  7250.799  7250.800  0.500  1.936250  148.408879  21.407066  2.852375
  7251.301  7251.300  0.500  1.881804  148.391634  22.602283  3.132763
  7251.793  7251.800  0.500  1.826367  148.358798  23.885385  3.442876
  7252.297  7252.300  0.500  1.772959  148.300767  25.185888  3.767787
  7252.793  7252.800  0.500  1.726391  148.229261  26.373737  4.073739
  7253.296  7253.300  0.500  1.686813  148.049613  27.405257  4.349312
  7253.798  7253.800  0.500  1.653115  147.366455  28.213688  4.581783
  7254.299  7254.300  0.500  1.624100  145.940363  28.763242  4.762987
  7254.800  7254.800  0.500  1.599381  146.508258  29.597808  4.980087
  7255.302  7255.300  0.500  1.579609  148.227674  30.543158  5.204788
  7255.803  7255.800  0.500  1.563346  148.529208  31.107073  5.356985
  7256.300  7256.300  0.500  1.549628  148.510280  31.532735  5.477812
  7256.796  7256.800  0.500  1.538120  148.474817  31.890104  5.579886
  7257.297  7257.300  0.500  1.528897  148.436849  32.177358  5.663687
  7257.802  7257.800  0.500  1.521660  148.398764  32.402754  5.732902
  7258.306  7258.300  0.500  1.515248  148.374898  32.605939  5.792450
  7258.807  7258.800  0.500  1.510161  148.327171  32.761682  5.843789
  7259.304  7259.300  0.500  1.506002  148.273313  32.886283  5.885292
  7259.798  7259.800  0.500  1.503071  148.226683  32.972416  5.916494
  7260.300  7260.300  0.500  1.501081  148.145116  33.019933  5.936296
  7260.794  7260.800  0.500  1.500115  148.047830  33.030149  5.946609
  7261.300  7261.300  0.500  1.500318  147.895112  32.989353  5.942927
  7261.804  7261.800  0.500  1.501193  147.660930  32.908322  5.929347
  7262.301  7262.300  0.500  1.502877  147.287623  32.769912  5.901983
  7262.801  7262.800  0.500  1.505273  146.530717  32.523465  5.854712
  7263.300  7263.300  0.500  1.507435  144.511264  32.005970  5.757481
  7263.796  7263.800  0.500  1.509359  136.429304  30.157908  5.421254
  7264.295  7264.300  0.500  1.511621  123.179059  27.167399  4.881872
  7264.795  7264.800  0.500  1.513815  124.425634  27.382212  4.914682
  7265.299  7265.300  0.500  1.515353  138.473667  30.426890  5.459245
  7265.797  7265.800  0.500  1.515406  146.927219  32.282694  5.794565
  7266.306  7266.300  0.500  1.515419  148.159315  32.552977  5.846421
  7266.802  7266.800  0.500  1.514750  148.488333  32.647118  5.867991
  7267.304  7267.300  0.500  1.513960  148.590982  32.695491  5.884473
  7267.795  7267.800  0.500  1.512600  148.649832  32.752958  5.903796
  7268.794  7268.790  0.500  1.508575  148.690304  32.894019  5.948544
  7269.804  7269.790  0.500  1.504597  148.688101  33.024625  5.989236
  7270.816  7270.810  0.500  1.502012  148.674479  33.107073  6.013140
  7271.867  7271.860  0.500  1.502309  148.645493  33.090810  6.009367
  7272.927  7272.920  0.500  1.505414  148.443165  32.943317  5.969454
  7274.012  7274.000  0.500  1.511644  146.128593  32.228241  5.818152
  7275.105  7275.100  0.500  1.521003  148.533738  32.453527  5.831972
  7276.231  7276.220  0.500  1.531729  148.820644  32.169299  5.750042
  7277.374  7277.360  0.500  1.543360  148.800062  31.792902  5.646433
  7278.519  7278.510  0.500  1.554910  148.798248  31.427445  5.543191
  7279.698  7279.690  0.500  1.567091  148.787298  31.044658  5.433087
  7280.896  7280.880  0.500  1.578673  148.768681  30.683342  5.331139
  7282.110  7282.100  0.500  1.588447  148.744427  30.379927  5.247589
  7283.335  7283.330  0.500  1.592871  148.485174  30.193128  5.198022
  7284.595  7284.580  0.500  1.590889  146.042984  29.755446  5.120942
  7285.860  7285.850  0.500  1.583503  148.511871  30.482783  5.258762
  7287.150  7287.140  0.500  1.572077  148.658166  30.863438  5.347212
  7288.458  7288.450  0.500  1.559013  148.695290  31.277085  5.449486
  7289.788  7289.780  0.500  1.546830  148.707999  31.663193  5.550491
  7291.133  7291.130  0.500  1.536199  148.712673  32.002596  5.644758
  7292.516  7292.500  0.500  1.527645  148.715541  32.278149  5.722404
  7293.887  7293.880  0.500  1.521179  148.729669  32.490617  5.785773
  7295.300  7295.290  0.500  1.516143  148.723468  32.653291  5.837490
  7296.720  7296.710  0.500  1.512353  148.700603  32.772240  5.879117
  7298.159  7298.150  0.500  1.509263  148.678441  32.868761  5.916331
  7299.621  7299.610  0.500  1.506936  148.601419  32.928261  5.944696
  7301.106  7301.090  0.500  1.504981  147.147431  32.669884  5.914741
  7302.595  7302.590  0.500  1.503415  148.744799  33.076287  6.002602
  7304.127  7304.110  0.500  1.501435  148.776836  33.149005  6.029494
  7305.652  7305.650  0.500  1.499609  148.757202  33.205209  6.052444
  7307.226  7307.210  0.500  1.497970  148.753220  33.258784  6.074972
  7308.790  7308.780  0.500  1.496979  148.733016  33.287219  6.091052
  7310.390  7310.380  0.500  1.496537  148.721228  33.299323  6.099926
  7312.001  7311.990  0.500  1.496974  148.705461  33.281218  6.101984
  7313.641  7313.630  0.500  1.497588  148.686981  33.256659  6.100298
  7315.289  7315.280  0.500  1.498230  148.672807  33.232152  6.093932
  7316.961  7316.950  0.500  1.499029  148.665750  33.204037  6.083660
  7318.661  7318.640  0.500  1.499689  148.659191  33.180667  6.072273
  7320.362  7320.350  0.500  1.500814  148.646860  33.140620  6.055452
  7322.095  7322.080  0.500  1.502125  148.622166  33.091686  6.037831
  7323.843  7323.830  0.500  1.504117  148.597294  33.020321  6.016494
  7325.607  7325.590  0.500  1.506493  148.582267  32.938611  5.994370
  7327.391  7327.380  0.500  1.508778  148.553848  32.857152  5.975795
  7329.190  7329.180  0.500  1.510639  148.515858  32.787664  5.962420
  7331.021  7331.010  0.500  1.511218  148.496191  32.764357  5.961582
  7332.860  7332.850  0.500  1.510669  148.501619  32.783559  5.970560
  7334.723  7334.710  0.500  1.509673  148.486592  32.812902  5.983964
  7336.601  7336.590  0.500  1.507472  148.463127  32.879999  6.005312
  7338.502  7338.490  0.500  1.504223  147.382780  32.746975  5.990951
  7340.425  7340.410  0.500  1.501330  147.986899  32.976456  6.041408
  7342.363  7342.350  0.500  1.498111  148.245355  33.140541  6.079317
  7344.318  7344.310  0.500  1.495462  148.272673  33.234569  6.106069
  7346.302  7346.280  0.500  1.493308  148.251561  33.301512  6.127376
  7348.269  7348.280  0.500  1.491380  148.228633  33.360602  6.146590
  7350.280  7350.290  0.500  1.489180  148.208690  33.429586  6.166896
  7352.308  7352.320  0.500  1.486924  148.194053  33.501797  6.186666
  7354.370  7354.380  0.500  1.484783  148.158026  33.565410  6.205065
  7356.442  7356.450  0.500  1.482245  148.143415  33.647401  6.226218
  7358.545  7358.540  0.500  1.479213  148.106562  33.741165  6.250125
  7360.652  7360.650  0.500  1.476012  148.065704  33.840023  6.281444
  7362.793  7362.780  0.500  1.472594  148.038573  33.949660  6.318216
  7364.932  7364.920  0.500  1.469386  147.990333  34.047665  6.355674
  7367.112  7367.090  0.500  1.466180  147.955661  34.148989  6.395882
  7369.291  7369.280  0.500  1.463638  147.927710  34.229422  6.433454
  7371.492  7371.480  0.500  1.461060  147.906479  34.312867  6.470614
  7373.710  7373.700  0.500  1.458930  147.863813  34.376101  6.502788
  7375.961  7375.950  0.500  1.457383  147.824141  34.420080  6.524668
  7378.226  7378.210  0.500  1.456376  147.774514  34.443208  6.535071
  7380.500  7380.490  0.500  1.456137  147.748818  34.445424  6.539682
  7382.803  7382.790  0.500  1.456391  147.706713  34.426896  6.537002
  7385.121  7385.110  0.500  1.457274  147.664939  34.386777  6.529923
  7387.457  7387.450  0.500  1.458178  147.652521  34.352808  6.524418
  7389.814  7389.800  0.500  1.458904  147.622602  34.320906  6.521219
  7392.188  7392.180  0.500  1.459444  147.591940  34.295268  6.515915
  7394.580  7394.570  0.500  1.459430  147.657906  34.311061  6.514865
  7397.004  7396.990  0.500  1.458538  147.625867  34.334235  6.516195
  7399.431  7399.420  0.500  1.456171  147.596708  34.408809  6.531131
  7401.882  7401.870  0.500  1.453862  147.556566  34.478981  6.544909
  7404.364  7404.350  0.500  1.451862  147.514806  34.538205  6.560432
  7406.851  7406.840  0.500  1.450056  147.490590  34.594960  6.579606
  7409.358  7409.350  0.500  1.447705  147.447442  34.666269  6.608363
  7411.885  7411.870  0.500  1.445169  147.396259  34.742233  6.641158
  7414.433  7414.420  0.500  1.442451  147.353325  34.826621  6.680337
  7416.995  7416.990  0.500  1.439864  147.309170  34.906392  6.716489
  7419.577  7419.570  0.500  1.437347  147.265271  34.983916  6.749671
  7422.188  7422.180  0.500  1.435179  147.209692  35.046627  6.777064
  7424.807  7424.800  0.500  1.433173  147.158144  35.104708  6.801314
  7427.456  7427.450  0.500  1.431292  147.094904  35.155687  6.819984
  7430.120  7430.110  0.500  1.429251  147.043146  35.215096  6.837296
  7432.797  7432.790  0.500  1.427162  146.979920  35.273565  6.856518
  7435.496  7435.490  0.500  1.425124  146.927850  35.332998  6.874013
  7438.223  7438.210  0.500  1.422975  146.866278  35.394198  6.893524
  7440.962  7440.950  0.500  1.420444  146.781059  35.463290  6.915630
  7443.707  7443.700  0.500  1.418072  146.634145  35.511915  6.932105
  7446.488  7446.480  0.500  1.415773  144.129317  34.985631  6.839673
  7449.282  7449.270  0.500  1.413140  146.688265  35.700680  6.991442
  7452.091  7452.090  0.500  1.410540  146.439902  35.733017  7.013812
  7454.923  7454.920  0.500  1.407844  146.670736  35.885970  7.063700
  7457.783  7457.770  0.500  1.405944  146.432220  35.895725  7.083241
  7460.663  7460.650  0.500  1.404364  146.525661  35.975439  7.116932
  7463.549  7463.540  0.500  1.403309  146.496862  36.006345  7.140052
  7466.459  7466.450  0.500  1.402357  146.170164  35.960254  7.144404
  7469.381  7469.370  0.500  1.401217  146.508966  36.084732  7.181580
  7472.333  7472.320  0.500  1.399866  146.387322  36.103521  7.195412
  7475.296  7475.290  0.500  1.398761  146.331258  36.129593  7.209649
  7478.277  7478.270  0.500  1.397571  146.269521  36.157330  7.224172
  7481.287  7481.280  0.500  1.395906  146.205909  36.201850  7.240281
  7484.309  7484.300  0.500  1.394153  146.132805  36.247233  7.257686
  7487.357  7487.350  0.500  1.391792  146.071253  36.317609  7.280109
  7490.420  7490.410  0.500  1.388897  145.987240  36.401930  7.306586
  7493.508  7493.490  0.500  1.386087  145.938262  36.492143  7.333290
  7496.595  7496.590  0.500  1.382859  145.892661  36.598678  7.363708
  7499.718  7499.710  0.500  1.379766  145.830407  36.696378  7.397752
  7502.864  7502.850  0.500  1.377209  145.759352  36.772410  7.427266
  7506.014  7506.000  0.500  1.374690  145.687303  36.846939  7.457133
  7509.187  7509.180  0.500  1.372584  145.619762  36.907507  7.484129
  7512.384  7512.370  0.500  1.370405  145.552337  36.970899  7.512855
  7515.605  7515.590  0.500  1.368474  145.503512  37.029912  7.544022
  7518.829  7518.820  0.500  1.366666  145.440040  37.080755  7.571399
  7522.085  7522.070  0.500  1.364809  145.361661  37.129636  7.599955
  7525.368  7525.350  0.500  1.363170  145.283519  37.170580  7.625911
  7528.652  7528.640  0.500  1.361278  145.220185  37.224733  7.653884
  7531.960  7531.950  0.500  1.359320  145.145252  37.278449  7.679092
  7535.288  7535.270  0.500  1.357045  145.062816  37.342113  7.705283
  7538.642  7538.620  0.500  1.354520  144.998800  37.419989  7.735766
  7542.010  7541.990  0.500  1.351639  144.947318  37.514631  7.765536
  7545.386  7545.370  0.500  1.348332  144.857138  37.615493  7.797667
  7548.795  7548.780  0.500  1.345200  144.770590  37.710928  7.830870
  7552.216  7552.200  0.500  1.342237  144.698103  37.803922  7.864080
  7555.667  7555.650  0.500  1.339448  144.619138  37.888792  7.898585
  7559.127  7559.110  0.500  1.336608  144.541163  37.976084  7.935476
  7562.609  7562.590  0.500  1.334295  144.470277  38.045357  7.969016
  7566.110  7566.090  0.500  1.331693  144.372691  38.118717  8.003061
  7569.630  7569.610  0.500  1.329381  144.293065  38.185882  8.034382
  7573.169  7573.150  0.500  1.327402  144.214670  38.240731  8.063349
  7576.733  7576.700  0.500  1.325731  144.122791  38.280266  8.087039
  7580.313  7580.280  0.500  1.323809  144.022551  38.327231  8.112166
  7583.897  7583.880  0.500  1.322258  143.913513  38.357670  8.133421
  7587.506  7587.490  0.500  1.320325  143.799151  38.401364  8.159757
  7591.141  7591.120  0.500  1.318400  143.683912  38.444493  8.185555
  7594.791  7594.780  0.500  1.316218  143.522275  38.485149  8.211176
  7598.470  7598.450  0.500  1.313820  143.367948  38.536051  8.238173
  7602.163  7602.140  0.500  1.311229  141.709475  38.189111  8.179632
  7605.869  7605.850  0.500  1.308255  142.739075  38.581119  8.278976
  7609.591  7609.580  0.500  1.305289  142.497142  38.630154  8.303441
  7613.336  7613.320  0.500  1.302358  142.446335  38.729734  8.341105
  7617.106  7617.090  0.500  1.299252  142.423474  38.843956  8.381785
  7620.896  7620.880  0.500  1.296295  142.585958  39.003438  8.432973
  7624.693  7624.680  0.500  1.293134  142.656962  39.146397  8.480678
  7628.523  7628.510  0.500  1.290299  142.632961  39.250938  8.523193
  7632.368  7632.350  0.500  1.287484  142.574742  39.345526  8.562734
  7636.229  7636.210  0.500  1.284844  142.476389  39.422309  8.599402
  7640.108  7640.090  0.500  1.282196  142.374082  39.498457  8.636711
  7644.012  7643.990  0.500  1.279893  142.283238  39.564273  8.671328
  7647.943  7647.910  0.500  1.277535  142.187550  39.631017  8.706080
  7651.882  7651.850  0.500  1.275317  142.096940  39.693703  8.739581
  7655.831  7655.810  0.500  1.272969  141.979169  39.754049  8.771773
  7659.809  7659.780  0.500  1.270522  141.872747  39.821565  8.809333
  7663.804  7663.780  0.500  1.268118  141.760245  39.885762  8.844406
