# XDI/1.0 BlueSky/1.10.0 BMM/2023-1.0-py310-tiled
# Beamline.name: BMM (06BM) -- Beamline for Materials Measurement (NIST)
# Beamline.xray_source: NSLS-II three-pole wiggler
# Beamline.collimation: paraboloid mirror, 5 nm Rh on 30 nm Pt
# Beamline.focusing: not in use
# Beamline.harmonic_rejection: flat mirror, Pt stripe, pitch = 7.0 mrad relative to beam
# Beamline.software: Bluesky 1.10.0, Ophyd 1.7.0, DataBroker 2.0.0b13, Python 3.10.8, 2023-1.0-py310-tiled
# Detector.I0: 10 cm N2
# Detector.I1: 25 cm N2
# Detector.I2: 25 cm N2
# Element.symbol: Er
# Element.edge: L3
# Element.reference: Er
# Element.reference_material: Er2O3
# Facility.name: NSLS-II
# Facility.energy: 3.0
# Facility.current: 399.7
# Facility.mode: top-off
# Facility.GUP: 301027
# Facility.SAF: 310583
# Facility.cycle: 2023-2
# Mono.name: Si(111)
# Mono.d_spacing: 3.1351860
# Mono.encoder_resolution: 0.0000050 deg/ct
# Mono.angle_offset: 16.0754326 deg
# Mono.scan_mode: pseudo channel cut
# Mono.scan_type: step
# Mono.direction: forward in energy
# Sample.name: Er2O3
# Sample.prep: PEG pellet
# Sample.x: 109.138 mm
# Sample.y: 153.150 mm
# Sample.SDD_position: 205.000 mm
# Scan.experimenters: Bruce Ravel
# Scan.edge_energy: 8357.9
# Scan.start_time: 2023-05-28T15:06:19
# Scan.end_time: 2023-05-28T15:14:14
# Scan.transient_id: 78784
# Scan.uid: 55ed502f-0ccd-4cb3-8f53-ce5b6a5c8679
# Scan.plot_hint: ln(It/Ir)  --  ln($6/$7)
# Column.1: energy eV
# Column.2: requested_energy eV
# Column.3: measurement_time seconds
# Column.4: xmu 
# Column.5: I0 nA
# Column.6: It nA
# Column.7: Ir nA
# ///////////
# sample courtesy Martin Stennett, University of Sheffield
# -----------
# energy  requested_energy  measurement_time  xmu  I0  It  Ir
  8157.914  8157.900  0.500  1.121404  134.736197  167.766250  54.661956
  8167.912  8167.900  0.500  1.117481  134.616747  167.920651  54.927309
  8177.961  8177.900  0.500  1.113461  134.464669  168.001198  55.174999
  8187.923  8187.900  0.500  1.109507  134.296036  168.090546  55.423086
  8197.933  8197.900  0.500  1.105517  134.177972  168.189350  55.677342
  8207.955  8207.900  0.500  1.101651  134.035188  168.304501  55.931309
  8217.940  8217.900  0.500  1.097682  133.890305  168.372514  56.176388
  8227.937  8227.900  0.500  1.093889  133.787326  168.504105  56.433936
  8237.932  8237.900  0.500  1.090087  133.629949  168.582440  56.675293
  8247.920  8247.900  0.500  1.086233  133.509643  168.677197  56.926115
  8257.913  8257.900  0.500  1.082410  133.341670  168.724556  57.160200
  8267.916  8267.900  0.500  1.078727  133.187423  168.816092  57.402230
  8277.915  8277.900  0.500  1.074952  132.889927  168.695354  57.578120
  8287.918  8287.900  0.500  1.071501  132.877663  168.952352  57.865190
  8297.919  8297.900  0.500  1.068005  132.751544  169.051745  58.101996
  8307.913  8307.900  0.500  1.064974  132.612999  169.162267  58.316452
  8317.914  8317.900  0.500  1.062298  132.444420  169.189828  58.482256
  8327.904  8327.900  0.500  1.060723  132.296200  169.268100  58.601524
  8329.896  8329.900  0.500  1.060649  132.270266  169.281777  58.610579
  8331.884  8331.900  0.500  1.060838  132.220045  169.316080  58.611410
  8333.885  8333.900  0.500  1.061153  132.091465  169.175513  58.544324
  8335.886  8335.900  0.500  1.061617  131.990415  169.109249  58.494205
  8337.886  8337.900  0.500  1.062449  131.959995  169.116900  58.448192
  8339.889  8339.900  0.500  1.063795  131.895561  169.062924  58.350974
  8341.885  8341.900  0.500  1.065553  131.820873  169.052072  58.244763
  8343.887  8343.900  0.500  1.068458  131.765477  169.013616  58.062582
  8345.891  8345.900  0.500  1.072617  131.693157  168.967634  57.805841
  8347.889  8347.900  0.500  1.079426  131.637976  168.953969  57.408969
  8348.176  8348.200  0.500  1.080716  131.607067  168.940321  57.330330
  8348.472  8348.500  0.500  1.082138  131.591491  168.865599  57.223509
  8348.774  8348.800  0.500  1.083679  131.551254  168.832677  57.124260
  8349.073  8349.100  0.500  1.085383  131.673371  169.012460  57.087715
  8349.372  8349.400  0.500  1.087264  131.907554  169.301117  57.077783
  8349.683  8349.700  0.500  1.089489  131.886961  169.291031  56.947543
  8349.979  8350.000  0.500  1.091731  131.872092  169.292113  56.820387
  8350.284  8350.300  0.500  1.094326  131.863780  169.308950  56.678717
  8350.577  8350.600  0.500  1.097247  131.843832  169.287617  56.506302
  8350.885  8350.900  0.500  1.100401  131.793911  169.230755  56.309417
  8351.187  8351.200  0.500  1.103959  131.783581  169.235517  56.111012
  8351.483  8351.500  0.500  1.107416  131.760599  169.187069  55.901359
  8351.791  8351.800  0.500  1.111346  131.739783  169.165991  55.675161
  8352.081  8352.100  0.500  1.115009  131.700405  169.140413  55.463204
  8352.386  8352.400  0.500  1.118984  131.693346  169.144060  55.244381
  8352.682  8352.700  0.500  1.122628  131.670677  169.131769  55.039450
  8352.984  8353.000  0.500  1.126290  131.650098  169.089079  54.824399
  8353.283  8353.300  0.500  1.129902  131.627716  169.074278  54.621975
  8353.577  8353.600  0.500  1.133667  131.612845  169.068673  54.414923
  8353.882  8353.900  0.500  1.137695  131.594431  169.062371  54.194148
  8354.178  8354.200  0.500  1.141995  131.601688  169.060982  53.961180
  8354.486  8354.500  0.500  1.147168  131.596845  169.082330  53.689539
  8354.780  8354.800  0.500  1.152789  131.568860  169.054294  53.379699
  8355.082  8355.100  0.500  1.159504  131.573801  169.059145  53.024003
  8355.387  8355.400  0.500  1.167439  131.577995  169.063524  52.606298
  8355.693  8355.700  0.500  1.176532  131.602745  169.116638  52.146470
  8355.998  8356.000  0.500  1.187332  131.600410  169.125247  51.588962
  8356.298  8356.300  0.500  1.199688  131.591389  169.130546  50.957056
  8356.588  8356.600  0.500  1.213647  131.562577  169.099296  50.241389
  8356.902  8356.900  0.500  1.230991  131.563479  169.104668  49.379068
  8357.193  8357.200  0.500  1.249386  131.563170  169.105008  48.479136
  8357.489  8357.500  0.500  1.270331  131.547537  169.095888  47.471763
  8357.801  8357.800  0.500  1.294755  131.545468  169.072343  46.319911
  8358.092  8358.100  0.500  1.320445  131.540434  169.088900  45.149521
  8358.382  8358.400  0.500  1.349441  131.536284  169.085383  43.858245
  8358.691  8358.700  0.500  1.383140  131.535264  169.067260  42.400370
  8358.984  8359.000  0.500  1.418249  131.536126  169.106256  40.947003
  8359.290  8359.300  0.500  1.456851  131.524199  169.097856  39.394523
  8359.590  8359.600  0.500  1.495002  131.522742  169.071068  37.913875
  8359.895  8359.900  0.500  1.532781  131.512164  169.060931  36.506051
  8360.195  8360.200  0.500  1.568192  131.522413  169.135434  35.251477
  8360.501  8360.500  0.500  1.600060  131.520468  169.118646  34.142403
  8360.803  8360.800  0.500  1.626870  131.537125  169.118704  33.239241
  8361.103  8361.100  0.500  1.648782  131.503060  169.094169  32.514114
  8361.394  8361.400  0.500  1.666517  131.506397  169.104360  31.944457
  8361.703  8361.700  0.500  1.681281  131.484019  169.072309  31.470347
  8361.991  8362.000  0.500  1.692849  131.481476  169.110901  31.115502
  8362.296  8362.300  0.500  1.702649  131.481244  169.133981  30.816238
  8362.590  8362.600  0.500  1.710640  131.514843  169.177819  30.578918
  8362.899  8362.900  0.500  1.716965  131.479966  169.141818  30.379641
  8363.190  8363.200  0.500  1.720911  131.489195  169.161689  30.263563
  8363.496  8363.500  0.500  1.722263  131.499183  169.174158  30.224877
  8363.793  8363.800  0.500  1.720337  131.474015  169.163958  30.281344
  8364.102  8364.100  0.500  1.714723  131.466662  169.160541  30.451198
  8364.405  8364.400  0.500  1.705255  131.471918  169.179202  30.744265
  8364.702  8364.700  0.500  1.691801  131.463359  169.131456  31.151905
  8365.008  8365.000  0.500  1.674187  131.444253  169.145004  31.708017
  8365.299  8365.300  0.500  1.653955  131.435871  169.143519  32.355790
  8365.602  8365.600  0.500  1.631164  131.443020  169.152088  33.103343
  8365.894  8365.900  0.500  1.607413  131.445411  169.160084  33.900608
  8366.188  8366.200  0.500  1.582580  131.446412  169.144080  34.749689
  8366.497  8366.500  0.500  1.556952  131.425313  169.129607  35.648706
  8366.791  8366.800  0.500  1.533240  131.403954  169.116211  36.501234
  8367.103  8367.100  0.500  1.509613  131.425109  169.142720  37.379792
  8367.400  8367.400  0.500  1.488114  131.417649  169.176642  38.199783
  8367.704  8367.700  0.500  1.467683  131.405301  169.142307  38.980323
  8368.001  8368.000  0.500  1.449126  131.417476  169.191669  39.722023
  8368.301  8368.300  0.500  1.432570  131.417017  169.172217  40.380512
  8368.596  8368.600  0.500  1.417737  131.409761  169.159942  40.980957
  8368.899  8368.900  0.500  1.404381  131.388375  169.155654  41.530919
  8369.208  8369.200  0.500  1.392957  131.397384  169.173420  42.012501
  8369.506  8369.500  0.500  1.383123  131.361600  169.129638  42.416710
  8369.797  8369.800  0.500  1.374534  131.367668  169.134644  42.783866
  8370.098  8370.100  0.500  1.367160  131.367421  169.154563  43.105608
  8370.395  8370.400  0.500  1.360295  131.366261  169.190449  43.411755
  8370.692  8370.700  0.500  1.354067  131.374000  169.199600  43.685331
  8370.993  8371.000  0.500  1.348209  131.359263  169.162395  43.932326
  8371.306  8371.300  0.500  1.342812  131.358782  169.162118  44.169990
  8371.609  8371.600  0.500  1.338005  131.330723  169.174113  44.385985
  8371.910  8371.900  0.500  1.333581  131.309427  169.164654  44.580272
  8372.204  8372.200  0.500  1.329669  131.332860  169.152030  44.751675
  8372.505  8372.500  0.500  1.326098  131.316672  169.152982  44.912001
  8372.805  8372.800  0.500  1.322900  131.333362  169.190799  45.065949
  8373.103  8373.100  0.500  1.319986  131.310663  169.170820  45.192149
  8373.404  8373.400  0.500  1.317369  131.282397  169.125316  45.298381
  8373.702  8373.700  0.500  1.315094  131.281244  169.147376  45.407479
  8373.999  8374.000  0.500  1.312934  131.272848  169.163181  45.509892
  8374.297  8374.300  0.500  1.311233  131.281461  169.197186  45.596553
  8374.592  8374.600  0.500  1.309662  131.275984  169.165836  45.659771
  8374.899  8374.900  0.500  1.308318  131.276270  169.188690  45.727348
  8375.193  8375.200  0.500  1.307227  131.248386  169.151543  45.767227
  8375.506  8375.500  0.500  1.306459  131.268489  169.196764  45.814620
  8375.804  8375.800  0.500  1.305877  131.257331  169.189608  45.839373
  8376.111  8376.100  0.500  1.305665  131.249536  169.193293  45.850072
  8376.406  8376.400  0.500  1.305679  131.242790  169.194203  45.849657
  8376.698  8376.700  0.500  1.305917  131.232859  169.192238  45.838224
  8377.002  8377.000  0.500  1.306398  131.228794  169.179828  45.812851
  8377.300  8377.300  0.500  1.307104  131.222569  169.172026  45.778408
  8377.604  8377.600  0.500  1.307908  131.215922  169.163311  45.739257
  8377.902  8377.900  0.500  1.308778  131.205424  169.182932  45.704774
  8378.197  8378.200  0.500  1.309679  131.211697  169.151977  45.655243
  8378.495  8378.500  0.500  1.310741  131.219114  169.205656  45.621275
  8378.793  8378.800  0.500  1.311588  131.201574  169.201134  45.581441
  8379.100  8379.100  0.500  1.312398  131.204154  169.218827  45.549269
  8379.404  8379.400  0.500  1.313077  131.187011  169.163883  45.503556
  8379.702  8379.700  0.500  1.313654  131.179720  169.172867  45.479752
  8380.003  8380.000  0.500  1.313973  131.172752  169.187305  45.469129
  8380.292  8380.300  0.500  1.314066  131.165794  169.196352  45.467338
  8380.597  8380.600  0.500  1.314084  131.171860  169.212067  45.470710
  8380.904  8380.900  0.500  1.313862  131.155995  169.189817  45.474840
  8381.205  8381.200  0.500  1.313520  131.135640  169.176860  45.486907
  8381.491  8381.500  0.500  1.312976  131.140975  169.199434  45.517738
  8381.790  8381.800  0.500  1.312347  131.133261  169.188455  45.543412
  8382.097  8382.100  0.500  1.311496  131.138571  169.186349  45.581609
  8382.392  8382.400  0.500  1.310587  131.128056  169.160782  45.616197
  8382.691  8382.700  0.500  1.309589  131.112048  169.175522  45.665722
  8382.890  8382.900  0.500  1.308794  131.110652  169.179446  45.703093
  8383.878  8383.890  0.500  1.304877  131.073254  169.167729  45.879303
  8385.048  8384.890  0.500  1.301211  131.046916  169.152099  46.043534
  8385.986  8385.910  0.500  1.299591  131.026663  169.150868  46.117854
  8386.954  8386.960  0.500  1.300103  130.951740  169.083571  46.075894
  8388.029  8388.020  0.500  1.303222  130.970581  169.125190  45.943699
  8389.109  8389.100  0.500  1.308262  130.916126  169.102090  45.706501
  8390.208  8390.200  0.500  1.314499  130.871193  169.054270  45.409498
  8391.331  8391.320  0.500  1.321103  130.856378  169.071262  45.115098
  8392.470  8392.460  0.500  1.328243  130.824791  169.065587  44.792630
  8393.621  8393.610  0.500  1.336129  130.812411  169.066938  44.441154
  8394.806  8394.790  0.500  1.344893  130.806499  169.097438  44.061324
  8395.991  8395.980  0.500  1.354163  130.753288  169.049617  43.642408
  8397.207  8397.200  0.500  1.362387  130.735789  169.045760  43.283971
  8398.435  8398.430  0.500  1.368286  130.708678  169.058085  43.032537
  8399.682  8399.680  0.500  1.370712  130.703341  169.074387  42.932395
  8400.959  8400.950  0.500  1.369457  130.655796  169.042131  42.978111
  8402.249  8402.240  0.500  1.365109  130.619999  169.056752  43.169113
  8403.551  8403.550  0.500  1.358907  130.620392  169.069611  43.441013
  8404.887  8404.880  0.500  1.351682  130.610200  169.077217  43.757957
  8406.239  8406.230  0.500  1.344614  130.564714  169.052724  44.061968
  8407.609  8407.600  0.500  1.338066  130.551333  169.057529  44.352657
  8408.986  8408.980  0.500  1.332735  130.528821  169.111605  44.604013
  8410.385  8410.390  0.500  1.328579  130.519512  169.099701  44.786622
  8411.820  8411.810  0.500  1.324919  130.507891  169.128962  44.958616
  8413.268  8413.250  0.500  1.321386  130.460657  169.101078  45.110310
  8414.714  8414.710  0.500  1.317957  130.442377  169.132883  45.273764
  8416.187  8416.190  0.500  1.314826  130.415163  169.130034  45.414983
  8417.704  8417.690  0.500  1.312107  130.390085  169.130007  45.538638
  8419.227  8419.210  0.500  1.309955  130.344734  169.111527  45.631731
  8420.757  8420.750  0.500  1.308063  130.333197  169.141029  45.726133
  8422.306  8422.310  0.500  1.306333  130.284184  169.115554  45.798409
  8423.894  8423.880  0.500  1.304806  130.281956  169.156886  45.879602
  8425.490  8425.480  0.500  1.303612  130.242178  169.139880  45.929786
  8427.095  8427.090  0.500  1.302824  130.237061  169.166665  45.973305
  8428.732  8428.730  0.500  1.302425  130.223119  169.188148  45.997465
  8430.393  8430.380  0.500  1.302736  130.146007  169.121125  45.964930
  8432.058  8432.050  0.500  1.303538  130.122479  169.119340  45.927597
  8433.746  8433.740  0.500  1.305113  130.099356  169.132500  45.858887
  8435.458  8435.450  0.500  1.307078  130.059346  169.120928  45.765733
  8437.192  8437.180  0.500  1.309430  130.038481  169.142957  45.664206
  8438.937  8438.930  0.500  1.311827  130.410799  169.696449  45.703924
  8440.697  8440.690  0.500  1.314042  130.413364  169.751212  45.617532
  8442.486  8442.480  0.500  1.315900  130.398121  169.765604  45.536697
  8444.290  8444.280  0.500  1.317221  130.393374  169.816778  45.490284
  8446.108  8446.110  0.500  1.318049  130.342278  169.749669  45.434669
  8447.948  8447.950  0.500  1.318138  130.302496  169.709132  45.419806
  8449.811  8449.810  0.500  1.317880  130.279115  169.745169  45.441181
  8451.704  8451.690  0.500  1.317038  130.221853  169.743388  45.478968
  8453.593  8453.590  0.500  1.316160  130.189566  169.745987  45.519585
  8455.522  8455.510  0.500  1.315334  130.175731  169.760814  45.561185
  8457.455  8457.450  0.500  1.314682  130.152147  169.793603  45.599707
  8459.408  8459.410  0.500  1.314146  130.090602  169.772800  45.618567
  8461.392  8461.380  0.500  1.313534  130.068858  169.775577  45.647266
  8463.399  8463.380  0.500  1.312547  130.039963  169.769243  45.690646
  8465.400  8465.390  0.500  1.311549  129.980393  169.730968  45.725923
  8467.434  8467.420  0.500  1.310351  129.948768  169.743444  45.784093
  8469.480  8469.480  0.500  1.309450  129.915860  169.762793  45.830615
  8471.559  8471.550  0.500  1.308605  129.867536  169.767444  45.870594
  8473.654  8473.640  0.500  1.307957  129.822926  169.782221  45.904323
  8475.759  8475.750  0.500  1.307273  129.778679  169.732024  45.922172
  8477.896  8477.880  0.500  1.306205  129.765859  169.745405  45.974864
  8480.028  8480.020  0.500  1.304747  129.730189  169.781423  46.051714
  8482.210  8482.190  0.500  1.302359  129.704733  169.827790  46.174424
  8484.388  8484.380  0.500  1.299489  129.665741  169.813147  46.303145
  8486.597  8486.580  0.500  1.296326  129.598258  169.787921  46.442936
  8488.814  8488.800  0.500  1.293065  129.546020  169.777223  46.591672
  8491.057  8491.050  0.500  1.289758  129.500593  169.777674  46.746152
  8493.320  8493.310  0.500  1.287051  129.458664  169.780344  46.873582
  8495.603  8495.590  0.500  1.285135  129.417142  169.781739  46.963871
  8497.911  8497.890  0.500  1.284603  129.377393  169.763376  46.983767
  8500.212  8500.210  0.500  1.285194  129.333096  169.773479  46.958810
  8502.560  8502.550  0.500  1.286066  129.290456  169.763475  46.915119
  8504.910  8504.900  0.500  1.286846  129.250135  169.760439  46.877702
  8507.301  8507.280  0.500  1.287346  129.193993  169.761309  46.854530
  8509.682  8509.670  0.500  1.287584  129.144562  169.740477  46.837611
  8512.104  8512.090  0.500  1.287883  129.108336  169.735085  46.822109
  8514.537  8514.520  0.500  1.288325  129.070859  169.752288  46.806184
  8516.974  8516.970  0.500  1.289245  129.014113  169.740341  46.759828
  8519.460  8519.450  0.500  1.290652  128.954581  169.732789  46.692018
  8521.950  8521.940  0.500  1.291886  128.906944  169.734717  46.634980
  8524.467  8524.450  0.500  1.292688  128.809087  169.662338  46.577710
  8526.989  8526.970  0.500  1.292516  128.595108  169.442600  46.525395
  8529.537  8529.520  0.500  1.291253  127.004204  167.355410  46.010367
  8532.108  8532.090  0.500  1.288845  117.185457  154.480198  42.573017
  8534.681  8534.670  0.500  1.285691  128.011583  168.822554  46.672618
  8537.293  8537.280  0.500  1.282494  128.412879  169.412353  46.985629
  8539.913  8539.900  0.500  1.279700  128.436238  169.508923  47.143922
  8542.569  8542.550  0.500  1.277632  128.449110  169.604110  47.268067
  8545.221  8545.210  0.500  1.276132  128.391021  169.579249  47.332068
  8547.909  8547.890  0.500  1.275022  128.338789  169.568454  47.381621
  8550.604  8550.590  0.500  1.274510  128.317029  169.622780  47.421085
  8553.333  8553.310  0.500  1.274219  128.264499  169.621540  47.434566
  8556.064  8556.050  0.500  1.273985  128.202150  169.592024  47.437406
  8558.828  8558.800  0.500  1.273653  128.152230  169.610676  47.458382
  8561.591  8561.580  0.500  1.273362  128.114535  169.612791  47.472760
  8564.393  8564.370  0.500  1.272952  128.032649  169.566049  47.479163
  8567.213  8567.190  0.500  1.272555  127.978968  169.543367  47.491649
  8570.041  8570.020  0.500  1.271936  127.927770  169.554291  47.524117
  8572.887  8572.870  0.500  1.270956  127.875495  169.567008  47.574267
  8575.763  8575.750  0.500  1.269308  127.765411  169.492759  47.631893
  8578.660  8578.640  0.500  1.267118  127.684375  169.443740  47.722493
  8581.553  8581.550  0.500  1.264863  127.578712  169.340127  47.800970
  8584.493  8584.470  0.500  1.262744  127.445030  169.230756  47.871461
  8587.431  8587.420  0.500  1.260909  127.240925  169.052361  47.908797
  8590.396  8590.390  0.500  1.259434  126.547819  168.210266  47.740540
