# XDI/1.0 BlueSky/1.10.0 BMM/2023-1.0-py310-tiled
# Beamline.name: BMM (06BM) -- Beamline for Materials Measurement (NIST)
# Beamline.xray_source: NSLS-II three-pole wiggler
# Beamline.collimation: paraboloid mirror, 5 nm Rh on 30 nm Pt
# Beamline.focusing: not in use
# Beamline.harmonic_rejection: flat mirror, Pt stripe, pitch = 7.0 mrad relative to beam
# Beamline.software: Bluesky 1.10.0, Ophyd 1.7.0, DataBroker 2.0.0b13, Python 3.10.8, 2023-1.0-py310-tiled
# Detector.I0: 10 cm N2
# Detector.I1: 25 cm N2
# Detector.I2: 25 cm N2
# Element.symbol: W
# Element.edge: L1
# Element.reference: W
# Element.reference_material: WO3
# Facility.name: NSLS-II
# Facility.energy: 3.0
# Facility.current: 400.0
# Facility.mode: top-off
# Facility.GUP: 301027
# Facility.SAF: 310583
# Facility.cycle: 2023-2
# Mono.name: Si(111)
# Mono.d_spacing: 3.1351860
# Mono.encoder_resolution: 0.0000050 deg/ct
# Mono.angle_offset: 16.0754326 deg
# Mono.scan_mode: pseudo channel cut
# Mono.scan_type: step
# Mono.direction: forward in energy
# Sample.name: WO3
# Sample.prep: PEG pellet
# Sample.x: 109.138 mm
# Sample.y: 153.150 mm
# Sample.SDD_position: 205.000 mm
# Scan.experimenters: Bruce Ravel
# Scan.edge_energy: 12099.8
# Scan.start_time: 2023-05-28T19:41:00
# Scan.end_time: 2023-05-28T19:49:14
# Scan.transient_id: 78959
# Scan.uid: 97b25d8f-3407-4821-80cd-958244b8479e
# Scan.plot_hint: ln(It/Ir)  --  ln($6/$7)
# Column.1: energy eV
# Column.2: requested_energy eV
# Column.3: measurement_time seconds
# Column.4: xmu 
# Column.5: I0 nA
# Column.6: It nA
# Column.7: Ir nA
# ///////////
# sample courtesy Martin Stennett, University of Sheffield
# -----------
# energy  requested_energy  measurement_time  xmu  I0  It  Ir
  11899.772  11899.800  0.500  1.342525  60.957311  103.135050  26.937372
  11909.838  11909.800  0.500  1.340442  60.940945  103.140243  26.994882
  11919.878  11919.800  0.500  1.338865  60.819692  102.972913  26.993645
  11929.855  11929.800  0.500  1.337057  60.705889  102.823494  27.003250
  11939.867  11939.800  0.500  1.335403  60.544674  102.580215  26.983935
  11949.810  11949.800  0.500  1.333641  60.407865  102.380877  26.979000
  11959.812  11959.800  0.500  1.331968  60.289946  102.215964  26.980643
  11969.820  11969.800  0.500  1.330074  60.150505  102.018445  26.979557
  11979.825  11979.800  0.500  1.328465  60.026674  101.839293  26.975562
  11989.823  11989.800  0.500  1.326899  59.909163  101.678652  26.975205
  11999.812  11999.800  0.500  1.325134  59.784719  101.503776  26.976379
  12009.825  12009.800  0.500  1.323378  59.644409  101.304056  26.970618
  12019.835  12019.800  0.500  1.321643  59.531054  101.146026  26.975307
  12029.825  12029.800  0.500  1.319705  59.407393  100.968277  26.980143
  12039.826  12039.800  0.500  1.317996  59.261375  100.756917  26.969723
  12049.830  12049.800  0.500  1.316403  58.845814  100.078485  26.830825
  12059.814  12059.800  0.500  1.314874  58.998968  100.376839  26.951992
  12069.820  12069.800  0.500  1.313520  58.899822  100.252090  26.954970
  12071.768  12071.800  0.500  1.313219  58.861298  100.195071  26.947759
  12073.767  12073.800  0.500  1.312814  58.828836  100.131968  26.941688
  12075.773  12075.800  0.500  1.312568  58.817762  100.117095  26.944318
  12077.760  12077.800  0.500  1.312410  58.773314  100.050351  26.930621
  12079.761  12079.800  0.500  1.312196  58.744090  100.013709  26.926518
  12081.750  12081.800  0.500  1.311836  58.715319  99.966778  26.923575
  12083.771  12083.800  0.500  1.311915  58.708104  99.957865  26.919050
  12085.787  12085.800  0.500  1.311743  58.660480  99.888842  26.905074
  12087.784  12087.800  0.500  1.311610  58.648062  99.867119  26.902804
  12089.782  12089.800  0.500  1.311636  58.619012  99.825920  26.891015
  12090.049  12090.100  0.500  1.311606  58.587753  99.767324  26.876034
  12090.336  12090.400  0.500  1.311668  58.580392  99.756051  26.871329
  12090.648  12090.700  0.500  1.311674  58.559827  99.724399  26.862648
  12090.953  12091.000  0.500  1.311657  58.497626  99.624704  26.836229
  12091.246  12091.300  0.500  1.311744  58.440602  99.534481  26.809603
  12091.552  12091.600  0.500  1.311732  58.396134  99.459848  26.789821
  12091.863  12091.900  0.500  1.311804  58.362037  99.405125  26.773161
  12092.156  12092.200  0.500  1.311817  58.375102  99.422758  26.777544
  12092.449  12092.500  0.500  1.311921  58.402933  99.478413  26.789748
  12092.755  12092.800  0.500  1.311951  58.431162  99.523381  26.801071
  12093.073  12093.100  0.500  1.311914  58.486306  99.615066  26.826744
  12093.366  12093.400  0.500  1.311979  58.520299  99.671310  26.840144
  12093.665  12093.700  0.500  1.312067  58.538244  99.699910  26.845487
  12093.977  12094.000  0.500  1.312162  58.540168  99.709281  26.845464
  12094.277  12094.300  0.500  1.312211  58.545853  99.716452  26.846085
  12094.563  12094.600  0.500  1.312133  58.543903  99.711743  26.846913
  12094.875  12094.900  0.500  1.312222  58.545026  99.719188  26.846530
  12095.187  12095.200  0.500  1.312482  58.541885  99.717785  26.839148
  12095.480  12095.500  0.500  1.312437  58.527686  99.693075  26.833711
  12095.780  12095.800  0.500  1.312591  58.525240  99.684167  26.827200
  12096.098  12096.100  0.500  1.312723  58.514353  99.670465  26.819970
  12096.391  12096.400  0.500  1.312855  58.512616  99.673693  26.817289
  12096.678  12096.700  0.500  1.312980  58.505173  99.654548  26.808774
  12096.997  12097.000  0.500  1.313146  58.486038  99.622742  26.795773
  12097.290  12097.300  0.500  1.313242  58.513367  99.663486  26.804174
  12097.583  12097.600  0.500  1.313500  58.495071  99.633832  26.789268
  12097.895  12097.900  0.500  1.313769  58.488072  99.631385  26.781425
  12098.207  12098.200  0.500  1.314037  58.498466  99.653723  26.780243
  12098.488  12098.500  0.500  1.314232  58.470606  99.608984  26.762990
  12098.794  12098.800  0.500  1.314756  58.470862  99.610965  26.749514
  12099.093  12099.100  0.500  1.315036  58.462241  99.604393  26.740252
  12099.387  12099.400  0.500  1.315175  58.466570  99.613095  26.738877
  12099.705  12099.700  0.500  1.315728  58.452200  99.581920  26.715723
  12099.999  12100.000  0.500  1.316178  58.442685  99.565603  26.699342
  12100.273  12100.300  0.500  1.316706  58.521312  99.699876  26.721226
  12100.579  12100.600  0.500  1.317275  58.627279  99.868777  26.751278
  12100.878  12100.900  0.500  1.317883  58.611801  99.845368  26.728735
  12101.178  12101.200  0.500  1.318500  58.610982  99.850048  26.713514
  12101.497  12101.500  0.500  1.319328  58.611623  99.855458  26.692855
  12101.784  12101.800  0.500  1.319956  58.626011  99.875619  26.681487
  12102.077  12102.100  0.500  1.320806  58.609367  99.857230  26.653905
  12102.377  12102.400  0.500  1.321714  58.605831  99.854034  26.628844
  12102.683  12102.700  0.500  1.322514  58.591889  99.823378  26.599385
  12102.995  12103.000  0.500  1.323493  58.613783  99.867104  26.584995
  12103.289  12103.300  0.500  1.324298  58.574645  99.804805  26.547038
  12103.595  12103.600  0.500  1.325129  58.586292  99.819124  26.528783
  12103.895  12103.900  0.500  1.325974  58.579936  99.811189  26.504274
  12104.207  12104.200  0.500  1.326972  58.597199  99.842808  26.486242
  12104.501  12104.500  0.500  1.327762  58.580048  99.807979  26.456089
  12104.801  12104.800  0.500  1.328569  58.553383  99.772873  26.425436
  12105.094  12105.100  0.500  1.329414  58.554615  99.777715  26.404397
  12105.407  12105.400  0.500  1.330272  58.549401  99.758639  26.376723
  12105.707  12105.700  0.500  1.331019  58.532513  99.725028  26.348142
  12106.000  12106.000  0.500  1.331714  58.533011  99.738976  26.333528
  12106.300  12106.300  0.500  1.332350  58.550645  99.761294  26.322654
  12106.594  12106.600  0.500  1.333003  58.537508  99.740625  26.300026
  12106.906  12106.900  0.500  1.333430  58.524895  99.721639  26.283798
  12107.200  12107.200  0.500  1.333842  58.533348  99.743628  26.278760
  12107.506  12107.500  0.500  1.334024  58.525942  99.726473  26.269464
  12107.787  12107.800  0.500  1.334196  58.510672  99.709768  26.260558
  12108.100  12108.100  0.500  1.334165  58.536793  99.744436  26.270481
  12108.387  12108.400  0.500  1.334243  58.508249  99.700445  26.256848
  12108.687  12108.700  0.500  1.334199  58.498688  99.685280  26.254008
  12108.981  12109.000  0.500  1.334247  58.511639  99.707044  26.258487
  12109.300  12109.300  0.500  1.334193  58.496007  99.680211  26.252834
  12109.581  12109.600  0.500  1.334331  58.476993  99.653812  26.242272
  12109.888  12109.900  0.500  1.334427  58.476541  99.655045  26.240082
  12110.181  12110.200  0.500  1.334461  58.482686  99.663079  26.241301
  12110.494  12110.500  0.500  1.334572  58.487205  99.665127  26.238921
  12110.794  12110.800  0.500  1.334819  58.475571  99.647672  26.227847
  12111.101  12111.100  0.500  1.335055  58.462753  99.625096  26.215719
  12111.414  12111.400  0.500  1.335350  58.468301  99.632951  26.210043
  12111.708  12111.700  0.500  1.335585  58.459033  99.628526  26.202738
  12112.002  12112.000  0.500  1.336088  58.431186  99.588416  26.179004
  12112.302  12112.300  0.500  1.336659  58.427313  99.582909  26.162623
  12112.608  12112.600  0.500  1.337290  58.455023  99.633187  26.159306
  12112.890  12112.900  0.500  1.337886  58.432887  99.594499  26.133586
  12113.222  12113.200  0.500  1.338770  58.420964  99.569917  26.104027
  12113.503  12113.500  0.500  1.339651  58.426852  99.584968  26.084999
  12113.803  12113.800  0.500  1.340625  58.418298  99.569063  26.055447
  12114.097  12114.100  0.500  1.341718  58.423262  99.566327  26.026264
  12114.410  12114.400  0.500  1.342956  58.406832  99.539105  25.986957
  12114.711  12114.700  0.500  1.344172  58.403128  99.545107  25.956947
  12114.992  12115.000  0.500  1.345535  58.409060  99.556387  25.924517
  12115.299  12115.300  0.500  1.347000  58.386103  99.519949  25.877101
  12115.580  12115.600  0.500  1.348567  58.389462  99.526016  25.838139
  12115.899  12115.900  0.500  1.350124  58.383216  99.514585  25.794984
  12116.181  12116.200  0.500  1.351673  58.380713  99.508610  25.753520
  12116.481  12116.500  0.500  1.353395  58.379387  99.512465  25.710194
  12116.788  12116.800  0.500  1.355085  58.365260  99.493185  25.661829
  12117.101  12117.100  0.500  1.356864  58.360797  99.487637  25.614786
  12117.382  12117.400  0.500  1.358491  58.372879  99.505262  25.577653
  12117.702  12117.700  0.500  1.360220  58.352129  99.473035  25.525204
  12117.990  12118.000  0.500  1.361700  58.353724  99.470334  25.486766
  12118.322  12118.300  0.500  1.363285  58.353371  99.474891  25.447572
  12118.597  12118.600  0.500  1.364669  58.332913  99.448584  25.405653
  12118.904  12118.900  0.500  1.366029  58.323651  99.434278  25.367473
  12119.192  12119.200  0.500  1.367137  58.337678  99.458862  25.345642
  12119.512  12119.500  0.500  1.368098  58.317796  99.416916  25.310624
  12119.800  12119.800  0.500  1.369025  58.307638  99.399134  25.282662
  12120.113  12120.100  0.500  1.369771  58.305735  99.394358  25.262577
  12120.407  12120.400  0.500  1.370310  58.309341  99.411636  25.253370
  12120.702  12120.700  0.500  1.370665  58.289448  99.371317  25.234153
  12121.015  12121.000  0.500  1.370994  58.290263  99.367860  25.224982
  12121.303  12121.300  0.500  1.371131  58.287752  99.369531  25.221944
  12121.597  12121.600  0.500  1.371220  58.293847  99.375062  25.221115
  12121.885  12121.900  0.500  1.371296  58.269772  99.344150  25.211345
  12122.205  12122.200  0.500  1.371180  58.274036  99.352141  25.216298
  12122.487  12122.500  0.500  1.371105  58.267483  99.348821  25.217343
  12122.800  12122.800  0.500  1.371014  58.269055  99.338851  25.217121
  12123.082  12123.100  0.500  1.370902  58.255946  99.321567  25.215546
  12123.402  12123.400  0.500  1.370684  58.272760  99.354567  25.229415
  12123.677  12123.700  0.500  1.370752  58.242927  99.309699  25.216308
  12123.997  12124.000  0.500  1.370556  58.261474  99.321011  25.224138
  12124.291  12124.300  0.500  1.370411  58.221523  99.260541  25.212419
  12124.599  12124.600  0.500  1.370400  58.223140  99.274015  25.216134
  12124.797  12124.800  0.500  1.370539  58.240246  99.304235  25.220296
  12125.802  12125.790  0.500  1.370304  58.201810  99.239808  25.209865
  12126.801  12126.790  0.500  1.370405  58.187263  99.220445  25.202385
  12127.794  12127.810  0.500  1.370882  58.116052  99.108042  25.161830
  12128.838  12128.860  0.500  1.371235  57.940111  98.812089  25.077838
  12129.895  12129.920  0.500  1.371536  58.052376  98.992794  25.116144
  12130.984  12131.000  0.500  1.371951  58.154831  99.180728  25.153389
  12132.118  12132.100  0.500  1.372329  58.152778  99.177923  25.143175
  12133.445  12133.220  0.500  1.372708  58.112975  99.109345  25.116277
  12134.298  12134.360  0.500  1.373360  58.100752  99.091560  25.095381
  12135.503  12135.510  0.500  1.373776  58.074068  99.049080  25.074204
  12136.645  12136.690  0.500  1.374283  58.036770  98.998169  25.048603
  12137.876  12137.880  0.500  1.374378  58.017646  98.965620  25.037985
  12139.089  12139.100  0.500  1.374049  57.996420  98.933307  25.038062
  12140.347  12140.330  0.500  1.373327  57.988687  98.926855  25.054517
  12141.579  12141.580  0.500  1.372146  57.976115  98.909007  25.079598
  12142.850  12142.850  0.500  1.370476  57.962740  98.890666  25.116836
  12144.128  12144.140  0.500  1.368737  57.957626  98.887055  25.159657
  12145.438  12145.450  0.500  1.366991  57.923778  98.830944  25.189309
  12146.768  12146.780  0.500  1.365215  57.901954  98.797096  25.225441
  12148.130  12148.130  0.500  1.363584  57.884560  98.767769  25.259113
  12149.512  12149.500  0.500  1.362512  57.863030  98.747658  25.281075
  12150.894  12150.880  0.500  1.361333  57.840373  98.706761  25.300411
  12152.290  12152.290  0.500  1.360646  57.821531  98.680345  25.311030
  12153.711  12153.710  0.500  1.360077  57.801507  98.646773  25.316807
  12155.158  12155.150  0.500  1.359685  57.792784  98.638613  25.324639
  12156.600  12156.610  0.500  1.359184  57.752760  98.579904  25.322240
  12158.080  12158.090  0.500  1.358991  57.736900  98.558460  25.321621
  12159.606  12159.590  0.500  1.358710  57.715381  98.524646  25.320051
  12161.119  12161.110  0.500  1.358162  57.637369  98.393398  25.300181
  12162.646  12162.650  0.500  1.357639  57.470094  98.110801  25.240721
  12164.224  12164.210  0.500  1.356898  57.654548  98.436822  25.343372
  12165.784  12165.780  0.500  1.356215  57.656106  98.437014  25.360741
  12167.370  12167.380  0.500  1.355363  57.630670  98.393342  25.371088
  12168.969  12168.990  0.500  1.354848  57.608898  98.363947  25.376559
  12170.620  12170.630  0.500  1.354224  57.578042  98.318917  25.380799
  12172.297  12172.280  0.500  1.353518  57.552833  98.276324  25.387720
  12173.943  12173.950  0.500  1.353247  57.530167  98.249819  25.387746
  12175.653  12175.640  0.500  1.352933  57.518195  98.234693  25.391799
  12177.358  12177.350  0.500  1.352777  57.486188  98.190273  25.384286
  12179.095  12179.080  0.500  1.352496  57.468720  98.165117  25.384900
  12180.820  12180.830  0.500  1.352267  57.438524  98.121521  25.379442
  12182.578  12182.590  0.500  1.352200  57.414202  98.084295  25.371511
  12184.388  12184.380  0.500  1.352122  57.392530  98.048064  25.364118
  12186.179  12186.180  0.500  1.352015  57.387237  98.033517  25.363065
  12188.022  12188.010  0.500  1.352004  57.359787  98.003006  25.355465
  12189.853  12189.850  0.500  1.352078  57.317946  97.934567  25.335873
  12191.705  12191.710  0.500  1.352063  57.292807  97.901126  25.327618
  12193.582  12193.590  0.500  1.352035  57.267896  97.872154  25.320815
  12195.492  12195.490  0.500  1.352031  57.249995  97.844317  25.313725
  12197.423  12197.410  0.500  1.351993  57.223801  97.796616  25.302341
  12199.367  12199.350  0.500  1.352001  57.143863  97.661749  25.267238
  12201.318  12201.310  0.500  1.352103  56.997850  97.419584  25.202014
  12203.270  12203.280  0.500  1.351978  57.164477  97.713963  25.281325
  12205.281  12205.280  0.500  1.351795  57.152359  97.698627  25.281992
  12207.293  12207.290  0.500  1.351675  57.118744  97.658934  25.274755
  12209.324  12209.320  0.500  1.351320  57.181608  97.776167  25.314084
  12211.389  12211.380  0.500  1.350955  57.161138  97.740033  25.313956
  12213.455  12213.450  0.500  1.350556  57.131016  97.691831  25.311578
  12215.547  12215.540  0.500  1.350116  57.137429  97.717581  25.329401
  12217.666  12217.650  0.500  1.349537  57.086872  97.634620  25.322549
  12219.786  12219.780  0.500  1.349040  57.079224  97.623982  25.332386
  12221.932  12221.920  0.500  1.348737  57.031942  97.552906  25.321610
  12224.099  12224.090  0.500  1.348310  57.008521  97.519880  25.323853
  12226.286  12226.280  0.500  1.347989  56.982893  97.480467  25.321727
  12228.461  12228.480  0.500  1.347746  56.954448  97.439163  25.317165
  12230.702  12230.700  0.500  1.347574  56.923457  97.405738  25.312831
  12232.969  12232.950  0.500  1.347322  56.821887  97.232530  25.274175
  12235.225  12235.210  0.500  1.347020  55.430448  94.863499  24.665822
  12237.488  12237.490  0.500  1.346910  56.550256  96.777918  25.166382
  12239.784  12239.790  0.500  1.346434  56.720065  97.080424  25.257064
  12242.134  12242.110  0.500  1.345967  56.726800  97.090726  25.271537
  12244.471  12244.450  0.500  1.345463  56.713652  97.077100  25.280740
  12246.803  12246.800  0.500  1.344986  56.682929  97.035321  25.281918
  12249.174  12249.180  0.500  1.344532  56.658489  96.995262  25.282949
  12251.586  12251.570  0.500  1.343906  56.626146  96.948384  25.286553
  12254.006  12253.990  0.500  1.343251  56.584821  96.893026  25.288661
  12256.433  12256.420  0.500  1.342757  56.404784  96.580807  25.219648
  12258.880  12258.870  0.500  1.342094  56.520503  96.789977  25.291033
  12261.362  12261.350  0.500  1.341464  56.423739  96.632442  25.265773
  12263.850  12263.840  0.500  1.340745  55.183542  94.528179  24.733366
  12266.360  12266.350  0.500  1.340195  56.212077  96.288705  25.207869
  12268.864  12268.870  0.500  1.339428  56.392173  96.607501  25.310733
  12271.422  12271.420  0.500  1.338791  56.287832  96.429194  25.280107
  12274.013  12273.990  0.500  1.338291  56.358569  96.559398  25.326916
  12276.573  12276.570  0.500  1.337872  56.321729  96.506828  25.323716
  12279.180  12279.180  0.500  1.337436  56.280520  96.444547  25.318427
  12281.807  12281.800  0.500  1.337024  56.222760  96.343746  25.302369
  12284.469  12284.450  0.500  1.336690  56.089759  96.130252  25.254753
  12287.118  12287.110  0.500  1.336312  56.119772  96.189721  25.279913
  12289.782  12289.790  0.500  1.335742  55.128244  94.495140  24.848732
  12292.507  12292.490  0.500  1.335433  55.747918  95.570288  25.139209
  12295.219  12295.210  0.500  1.334890  56.041578  96.078000  25.286492
  12297.939  12297.950  0.500  1.334360  55.958989  95.945076  25.264895
  12300.700  12300.700  0.500  1.333957  55.975144  95.992603  25.287594
  12303.496  12303.480  0.500  1.333365  55.946926  95.940415  25.288810
  12306.292  12306.270  0.500  1.332882  55.908633  95.878758  25.284785
  12309.097  12309.090  0.500  1.332340  55.891474  95.865597  25.295013
  12311.948  12311.920  0.500  1.331917  55.846259  95.792944  25.286540
  12314.802  12314.770  0.500  1.331397  55.807888  95.748561  25.287959
  12317.656  12317.650  0.500  1.330810  55.751367  95.650607  25.276923
  12320.545  12320.540  0.500  1.330305  54.358765  93.265129  24.658974
  12323.475  12323.450  0.500  1.329862  55.509331  95.243302  25.193160
  12326.380  12326.370  0.500  1.329346  55.596356  95.409500  25.250140
  12329.313  12329.320  0.500  1.328998  55.584087  95.397769  25.255823
  12332.300  12332.290  0.500  1.328412  55.567080  95.374054  25.264352
