# XDI/1.0 BlueSky/1.5.3
# Beamline.name: 6BM
# Beamline.xray_source: NSLS-II three-pole wiggler
# Beamline.collimation: paraboloid mirror, 5 nm Rh on 30 nm Pt
# Beamline.focusing: not in use
# Beamline.harmonic_rejection: flat mirror, Si stripe, pitch = 7.0 mrad relative to beam
# Detector.i0: 10 cm N2
# Detector.i1: 25 cm N2
# Detector.i2: 25 cm N2
# Element.symbol: Cr
# Element.edge: K
# Facility.name: NSLS-II
# Facility.energy: 3.0
# Facility.current: 400.1
# Facility.mode: top-off
# Facility.gup: 305882
# Facility.saf: 305422
# Facility.cycle: 2020-1
# Mono.name: Si(111)
# Mono.d_spacing: 3.1353241
# Mono.encoder_resolution: 0.0000050 deg/ct
# Mono.angle_offset: 16.0581090 deg
# Mono.scan_mode: fixed exit
# Mono.scan_type: step
# Mono.direction: forward in energy
# Sample.name: Cr2Na2O7.2H2O
# Sample.prep: powder on tape 2x
# Sample.x_position: -74.438 mm
# Sample.y_position: 112.405 mm
# Scan.experimenters: Sarah Nicholas, Bruce Ravel
# Scan.edge_energy: 5989.0
# Scan.start_time: 2020-01-29T14:14:53
# Scan.end_time: 2020-01-29T19:26:07
# Scan.transient_id: 20480
# Scan.uid: e9af1afd-96c9-4ade-8cc2-cc3330142606
# Scan.plot_hint: ln(I0/It)  --  ln($5/$6)
# Scan.sequence: merge of 12 scans
# Column.1: energy eV
# Column.2: requested_energy eV
# Column.3: measurement_time seconds
# Column.4: mutrans
# Column.5: i0
# Column.6: itrans
# Column.7: irefer
# /////
#  Alpha Aesar, ground in AW M&P
# -----
# energy   requested_energy   measurement_time   mutrans   i0   itrans   irefer
5789.012000 5789.000000 0.500000 2.971815 47.741872 2.445095 0.504428
5799.017000 5799.000000 0.500000 2.954758 47.777281 2.488973 0.517460
5809.012000 5809.000000 0.500000 2.936526 47.771588 2.534420 0.531079
5819.012000 5819.000000 0.500000 2.918367 47.732965 2.578780 0.544651
5829.009000 5829.000000 0.500000 2.900883 47.675420 2.621097 0.558172
5839.010000 5839.000000 0.500000 2.882853 47.600605 2.664591 0.571654
5849.009000 5849.000000 0.500000 2.865154 47.472676 2.704893 0.584952
5859.007000 5859.000000 0.500000 2.847549 47.292699 2.742505 0.597285
5869.008000 5869.000000 0.500000 2.829967 46.142363 2.723268 0.597738
5879.004000 5879.000000 0.500000 2.812906 47.650605 2.860674 0.633274
5889.005000 5889.000000 0.500000 2.795409 47.379322 2.894470 0.645398
5899.010000 5899.000000 0.500000 2.778674 47.182083 2.931250 0.658716
5909.016000 5909.000000 0.500000 2.761166 46.914557 2.966117 0.671217
5919.008000 5919.000000 0.500000 2.743441 35.656858 2.294507 0.522331
5929.006000 5929.000000 0.500000 2.726922 45.382446 2.969147 0.682218
5939.007000 5939.000000 0.500000 2.710614 46.438314 3.088097 0.714605
5949.009000 5949.000000 0.500000 2.694037 46.997071 3.177673 0.740544
5959.004000 5959.000000 0.500000 2.677426 46.665114 3.208030 0.752990
5960.998000 5961.000000 0.500000 2.674199 46.612243 3.214754 0.755620
5963.001000 5963.000000 0.500000 2.671083 46.560304 3.221225 0.758451
5965.012000 5965.000000 0.500000 2.667872 46.497692 3.227289 0.760965
5967.007000 5967.000000 0.500000 2.664521 46.439217 3.234030 0.763415
5969.008000 5969.000000 0.500000 2.661266 46.389197 3.241089 0.766222
5971.007000 5971.000000 0.500000 2.658024 46.331048 3.247543 0.768859
5973.006000 5973.000000 0.500000 2.654870 46.265004 3.253131 0.771374
5975.004000 5975.000000 0.500000 2.651785 46.197325 3.258391 0.773186
5977.009000 5977.000000 0.500000 2.648649 46.125702 3.263583 0.775452
5979.002000 5979.000000 0.500000 2.645504 46.052114 3.268622 0.777544
5979.243000 5979.250000 0.500000 2.645119 46.041103 3.269086 0.777686
5979.492000 5979.500000 0.500000 2.644754 46.018759 3.268692 0.778080
5979.741000 5979.750000 0.500000 2.644374 46.005440 3.268993 0.777871
5979.991000 5980.000000 0.500000 2.644119 45.999825 3.269448 0.778078
5980.241000 5980.250000 0.500000 2.643601 45.987200 3.270239 0.778614
5980.492000 5980.500000 0.500000 2.643218 45.963882 3.269828 0.778523
5980.740000 5980.750000 0.500000 2.642876 45.946030 3.269674 0.778675
5980.989000 5981.000000 0.500000 2.642450 45.929262 3.269863 0.778711
5981.240000 5981.250000 0.500000 2.642317 45.918892 3.269564 0.779058
5981.490000 5981.500000 0.500000 2.641931 45.894666 3.269097 0.778912
5981.742000 5981.750000 0.500000 2.641527 45.885051 3.269754 0.779233
5981.992000 5982.000000 0.500000 2.641109 45.887921 3.271326 0.779465
5982.241000 5982.250000 0.500000 2.640675 45.883579 3.272447 0.779926
5982.493000 5982.500000 0.500000 2.640311 45.863923 3.272238 0.779664
5982.744000 5982.750000 0.500000 2.640016 45.834566 3.271106 0.779678
5982.996000 5983.000000 0.500000 2.639618 45.822300 3.271539 0.779953
5983.245000 5983.250000 0.500000 2.639283 45.803827 3.271298 0.779679
5983.495000 5983.500000 0.500000 2.639052 45.785511 3.270765 0.779761
5983.743000 5983.750000 0.500000 2.638619 45.765921 3.270774 0.779568
5983.993000 5984.000000 0.500000 2.638323 45.740920 3.269953 0.779464
5984.241000 5984.250000 0.500000 2.637823 45.717584 3.269906 0.779303
5984.490000 5984.500000 0.500000 2.637646 45.709740 3.269925 0.779840
5984.742000 5984.750000 0.500000 2.637191 45.681996 3.269414 0.779390
5984.992000 5985.000000 0.500000 2.636879 45.659204 3.268805 0.779278
5985.244000 5985.250000 0.500000 2.636670 45.624793 3.267032 0.779232
5985.494000 5985.500000 0.500000 2.636309 45.595760 3.266144 0.779127
5985.745000 5985.750000 0.500000 2.636147 45.553994 3.263675 0.778060
5985.997000 5986.000000 0.500000 2.635847 45.514775 3.261860 0.777506
5986.248000 5986.250000 0.500000 2.635375 45.469290 3.260111 0.777047
5986.498000 5986.500000 0.500000 2.635184 45.423420 3.257434 0.776326
5986.748000 5986.750000 0.500000 2.635015 45.382784 3.255084 0.775664
5986.996000 5987.000000 0.500000 2.634759 45.323717 3.251665 0.774267
5987.247000 5987.250000 0.500000 2.634533 45.256576 3.247579 0.773131
5987.495000 5987.500000 0.500000 2.634388 45.178667 3.242454 0.771288
5987.744000 5987.750000 0.500000 2.634275 45.093423 3.236700 0.769218
5987.995000 5988.000000 0.500000 2.634223 44.997562 3.229983 0.766501
5988.246000 5988.250000 0.500000 2.634288 44.883193 3.221552 0.762959
5988.497000 5988.500000 0.500000 2.634160 44.733289 3.211192 0.757675
5988.748000 5988.750000 0.500000 2.634224 44.564439 3.198864 0.751564
5988.999000 5989.000000 0.500000 2.634565 44.359496 3.183068 0.742979
5989.250000 5989.250000 0.500000 2.634774 44.096370 3.163519 0.732481
5989.500000 5989.500000 0.500000 2.635254 43.744640 3.136781 0.720552
5989.748000 5989.750000 0.500000 2.635820 43.273274 3.101227 0.707687
5989.998000 5990.000000 0.500000 2.636847 42.593706 3.049358 0.692653
5990.246000 5990.250000 0.500000 2.638220 41.604443 2.974472 0.672512
5990.497000 5990.500000 0.500000 2.640329 40.149740 2.864414 0.645090
5990.748000 5990.750000 0.500000 2.643228 38.092114 2.709694 0.607452
5991.000000 5991.000000 0.500000 2.647631 35.756070 2.532267 0.565942
5991.251000 5991.250000 0.500000 2.653831 33.942412 2.388890 0.531701
5991.502000 5991.500000 0.500000 2.662340 33.456890 2.334706 0.517978
5991.753000 5991.750000 0.500000 2.672161 34.737140 2.400135 0.530982
5992.003000 5992.000000 0.500000 2.683170 37.742397 2.579141 0.568986
5992.251000 5992.250000 0.500000 2.697836 41.479484 2.793380 0.614622
5992.503000 5992.500000 0.500000 2.718921 44.301772 2.920264 0.640539
5992.748000 5992.750000 0.500000 2.746704 45.701639 2.931588 0.641254
5992.995000 5993.000000 0.500000 2.778324 46.270696 2.876917 0.627721
5993.248000 5993.250000 0.500000 2.804207 46.493185 2.816167 0.613004
5993.498000 5993.500000 0.500000 2.813214 46.575391 2.795425 0.607702
5993.749000 5993.750000 0.500000 2.798843 46.595493 2.836705 0.616104
5993.999000 5994.000000 0.500000 2.766818 46.589679 2.928501 0.635519
5994.249000 5994.250000 0.500000 2.731023 46.567310 3.033815 0.658312
5994.501000 5994.500000 0.500000 2.702009 46.541636 3.122006 0.677228
5994.751000 5994.750000 0.500000 2.682317 46.517029 3.182228 0.690579
5994.999000 5995.000000 0.500000 2.669592 46.489548 3.221025 0.699117
5995.251000 5995.250000 0.500000 2.660998 46.462247 3.246931 0.704982
5995.498000 5995.500000 0.500000 2.655022 46.428511 3.263883 0.708909
5995.747000 5995.750000 0.500000 2.650539 46.397184 3.276310 0.712059
5995.999000 5996.000000 0.500000 2.646951 46.377318 3.286766 0.714435
5996.250000 5996.250000 0.500000 2.644288 46.354218 3.293922 0.716156
5996.502000 5996.500000 0.500000 2.642196 46.325968 3.298861 0.716004
5996.754000 5996.750000 0.500000 2.640646 46.293082 3.301657 0.715737
5997.005000 5997.000000 0.500000 2.639726 46.276410 3.303532 0.714534
5997.256000 5997.250000 0.500000 2.638852 46.255627 3.304898 0.712434
5997.503000 5997.500000 0.500000 2.638395 46.237476 3.305078 0.709621
5997.755000 5997.750000 0.500000 2.638676 46.213055 3.302400 0.705985
5998.002000 5998.000000 0.500000 2.638968 46.189805 3.299781 0.702326
5998.249000 5998.250000 0.500000 2.639642 46.166183 3.295882 0.697800
5998.500000 5998.500000 0.500000 2.640559 46.146283 3.291437 0.693928
5998.750000 5998.750000 0.500000 2.641666 46.139485 3.287316 0.689666
5999.002000 5999.000000 0.500000 2.642870 46.129682 3.282645 0.685419
5999.254000 5999.250000 0.500000 2.644295 46.110622 3.276577 0.680661
5999.503000 5999.500000 0.500000 2.645778 46.090171 3.270281 0.676881
5999.755000 5999.750000 0.500000 2.647320 46.088137 3.265025 0.672388
6000.000000 6000.000000 0.500000 2.649080 46.081615 3.258927 0.668643
6000.252000 6000.250000 0.500000 2.650801 46.069237 3.252434 0.665049
6000.501000 6000.500000 0.500000 2.652460 46.057579 3.246223 0.661169
6000.750000 6000.750000 0.500000 2.653849 46.035438 3.240176 0.658332
6000.997000 6001.000000 0.500000 2.655532 46.041834 3.235220 0.655402
6001.248000 6001.250000 0.500000 2.656726 46.023458 3.230052 0.653065
6001.497000 6001.500000 0.500000 2.657720 46.017453 3.226403 0.650268
6001.751000 6001.750000 0.500000 2.658711 46.017345 3.223153 0.647972
6002.000000 6002.000000 0.500000 2.659650 46.015925 3.220034 0.645827
6002.254000 6002.250000 0.500000 2.660296 46.004800 3.217151 0.643594
6002.503000 6002.500000 0.500000 2.660818 45.992951 3.214634 0.641548
6002.752000 6002.750000 0.500000 2.661572 45.985460 3.211697 0.639738
6003.003000 6003.000000 0.500000 2.662418 45.977106 3.208369 0.637836
6003.251000 6003.250000 0.500000 2.663644 45.967524 3.203813 0.636159
6003.500000 6003.500000 0.500000 2.664787 45.958255 3.199517 0.633893
6003.751000 6003.750000 0.500000 2.666488 45.961830 3.194307 0.631564
6003.999000 6004.000000 0.500000 2.667892 45.949636 3.189013 0.629771
6004.250000 6004.250000 0.500000 2.670070 45.940558 3.181435 0.627171
6004.499000 6004.500000 0.500000 2.672129 45.934284 3.174464 0.624689
6004.752000 6004.750000 0.500000 2.674636 45.920782 3.165500 0.621578
6005.004000 6005.000000 0.500000 2.677933 45.911870 3.154353 0.618551
6005.253000 6005.250000 0.500000 2.681231 45.898631 3.143108 0.615147
6005.504000 6005.500000 0.500000 2.684909 45.889777 3.130933 0.611733
6005.752000 6005.750000 0.500000 2.688853 45.877986 3.117893 0.607867
6006.001000 6006.000000 0.500000 2.692897 45.874356 3.105110 0.604260
6006.252000 6006.250000 0.500000 2.697293 45.860844 3.090476 0.600350
6006.500000 6006.500000 0.500000 2.701803 45.851476 3.076085 0.596189
6006.749000 6006.750000 0.500000 2.706171 45.839762 3.061956 0.592498
6006.999000 6007.000000 0.500000 2.710309 45.836174 3.049000 0.589045
6007.253000 6007.250000 0.500000 2.714624 45.823892 3.034891 0.585186
6007.503000 6007.500000 0.500000 2.718636 45.823391 3.022693 0.582194
6007.754000 6007.750000 0.500000 2.722568 45.816673 3.010336 0.577953
6008.005000 6008.000000 0.500000 2.726650 45.805557 2.997336 0.574657
6008.256000 6008.250000 0.500000 2.730367 45.796410 2.985615 0.571035
6008.502000 6008.500000 0.500000 2.734136 45.786565 2.973855 0.567791
6008.751000 6008.750000 0.500000 2.738119 45.777296 2.961501 0.564224
6009.000000 6009.000000 0.500000 2.741977 45.774658 2.949969 0.561561
6009.248000 6009.250000 0.500000 2.746220 45.768559 2.937173 0.558470
6009.501000 6009.500000 0.500000 2.750218 45.755154 2.924400 0.555825
6009.751000 6009.750000 0.500000 2.754050 45.750193 2.912927 0.554013
6010.001000 6010.000000 0.500000 2.757609 45.735710 2.901668 0.553024
6010.252000 6010.250000 0.500000 2.760885 45.727289 2.891619 0.551651
6010.502000 6010.500000 0.500000 2.764111 45.723658 2.882049 0.551325
6010.755000 6010.750000 0.500000 2.766979 45.711018 2.872966 0.550891
6011.005000 6011.000000 0.500000 2.769780 45.703861 2.864486 0.551218
6011.254000 6011.250000 0.500000 2.771998 45.696134 2.857689 0.551622
6011.502000 6011.500000 0.500000 2.774129 45.692390 2.851427 0.552000
6011.751000 6011.750000 0.500000 2.776224 45.682719 2.844875 0.552529
6011.999000 6012.000000 0.500000 2.777845 45.675583 2.839824 0.553084
6012.248000 6012.250000 0.500000 2.779317 45.660825 2.834746 0.553722
6012.504000 6012.500000 0.500000 2.780491 45.648547 2.830581 0.554536
6012.751000 6012.750000 0.500000 2.781605 45.640517 2.826967 0.554991
6013.001000 6013.000000 0.500000 2.782642 45.629777 2.823383 0.555245
6013.254000 6013.250000 0.500000 2.783033 45.632907 2.822460 0.556385
6013.505000 6013.500000 0.500000 2.783402 45.615677 2.820347 0.556581
6013.753000 6013.750000 0.500000 2.783541 45.600569 2.819039 0.557161
6014.002000 6014.000000 0.500000 2.783244 45.592709 2.819384 0.557548
6015.003000 6014.990000 0.500000 2.781009 45.570800 2.824337 0.559091
6016.012000 6015.990000 0.500000 2.777681 45.553544 2.832689 0.559069
6017.005000 6017.010000 0.500000 2.774868 45.544320 2.840068 0.558068
6018.059000 6018.060000 0.500000 2.771682 45.524010 2.847871 0.556954
6019.123000 6019.120000 0.500000 2.769672 45.496697 2.851897 0.556167
6020.202000 6020.200000 0.500000 2.769646 45.492037 2.851682 0.556726
6021.307000 6021.300000 0.500000 2.771387 45.458673 2.844646 0.557219
6022.421000 6022.420000 0.500000 2.773854 45.429308 2.835826 0.557402
6023.566000 6023.560000 0.500000 2.776860 45.389243 2.824795 0.556313
6024.712000 6024.710000 0.500000 2.779778 45.359770 2.814758 0.554366
6025.896000 6025.890000 0.500000 2.782836 45.332648 2.804460 0.549715
6027.083000 6027.080000 0.500000 2.785286 45.296641 2.795391 0.546253
6028.300000 6028.300000 0.500000 2.787296 45.271537 2.788234 0.543472
6029.535000 6029.530000 0.500000 2.787796 45.228825 2.784185 0.541913
6030.781000 6030.780000 0.500000 2.787371 45.209821 2.784184 0.541427
6032.057000 6032.050000 0.500000 2.785461 45.173881 2.787296 0.541775
6033.344000 6033.340000 0.500000 2.783341 45.137229 2.790933 0.542958
6034.657000 6034.650000 0.500000 2.780589 45.093127 2.795900 0.543701
6035.983000 6035.980000 0.500000 2.777353 45.057528 2.802725 0.545137
6037.337000 6037.330000 0.500000 2.774184 45.015311 2.809005 0.545455
6038.704000 6038.700000 0.500000 2.770464 44.970921 2.816672 0.546795
6040.088000 6040.080000 0.500000 2.766122 44.940744 2.827055 0.548656
6041.494000 6041.490000 0.500000 2.761294 44.899982 2.838140 0.551751
6042.918000 6042.910000 0.500000 2.756624 44.863864 2.849168 0.555562
6044.354000 6044.350000 0.500000 2.751146 44.815407 2.861697 0.559494
6045.816000 6045.810000 0.500000 2.745115 44.771127 2.876164 0.563471
6047.292000 6047.290000 0.500000 2.740188 44.714105 2.886666 0.567293
6048.795000 6048.790000 0.500000 2.735944 44.664879 2.895787 0.571684
6050.316000 6050.310000 0.500000 2.730122 44.623541 2.909998 0.577650
6051.854000 6051.850000 0.500000 2.723927 44.570342 2.924581 0.584014
6053.415000 6053.410000 0.500000 2.718211 44.505996 2.937112 0.589693
6054.986000 6054.980000 0.500000 2.713058 44.424350 2.946893 0.594616
6056.589000 6056.580000 0.500000 2.708664 44.336445 2.954039 0.598615
6058.195000 6058.190000 0.500000 2.704461 44.285459 2.963042 0.602400
6059.837000 6059.830000 0.500000 2.700333 44.210032 2.970257 0.605628
6061.486000 6061.480000 0.500000 2.695844 44.125635 2.977911 0.607283
6063.159000 6063.150000 0.500000 2.691658 44.056447 2.985734 0.608506
6064.848000 6064.840000 0.500000 2.687854 43.993790 2.992850 0.608162
6066.555000 6066.550000 0.500000 2.684055 43.944315 3.000840 0.607096
6068.291000 6068.280000 0.500000 2.680670 43.881604 3.006751 0.605671
6070.037000 6070.030000 0.500000 2.677835 43.822717 3.011235 0.603428
6071.796000 6071.790000 0.500000 2.674940 43.762096 3.015771 0.603747
6073.589000 6073.580000 0.500000 2.672239 43.699786 3.019633 0.606791
6075.386000 6075.380000 0.500000 2.669576 43.641695 3.023659 0.611078
6077.218000 6077.210000 0.500000 2.667240 43.581166 3.026525 0.615486
6079.061000 6079.050000 0.500000 2.664878 43.506818 3.028520 0.620830
6080.914000 6080.910000 0.500000 2.662790 43.445795 3.030578 0.625327
6082.802000 6082.790000 0.500000 2.660757 43.364344 3.031074 0.629852
6084.702000 6084.690000 0.500000 2.658989 43.293219 3.031448 0.632135
6086.616000 6086.610000 0.500000 2.657081 43.221377 3.032184 0.631983
6088.557000 6088.550000 0.500000 2.655077 43.147936 3.033107 0.629051
6090.519000 6090.510000 0.500000 2.653173 43.072539 3.033577 0.624066
6092.492000 6092.480000 0.500000 2.651044 42.992441 3.034403 0.618604
6094.483000 6094.480000 0.500000 2.648697 42.909920 3.035673 0.613496
6096.496000 6096.490000 0.500000 2.646138 42.828293 3.037664 0.609838
6098.525000 6098.520000 0.500000 2.643523 42.744426 3.039648 0.607512
6100.586000 6100.580000 0.500000 2.640844 42.668795 3.042417 0.608280
6102.655000 6102.650000 0.500000 2.638015 42.583233 3.044919 0.612355
6104.748000 6104.740000 0.500000 2.635358 42.491463 3.046450 0.618573
6106.856000 6106.850000 0.500000 2.632495 42.396407 3.048345 0.625405
6108.987000 6108.980000 0.500000 2.629606 42.303532 3.050469 0.632754
6111.126000 6111.120000 0.500000 2.626909 42.207053 3.051726 0.639189
6113.296000 6113.290000 0.500000 2.624091 42.105599 3.052989 0.643768
6115.488000 6115.480000 0.500000 2.621432 42.013111 3.054400 0.645987
6117.688000 6117.680000 0.500000 2.618629 41.913844 3.055735 0.646829
6119.907000 6119.900000 0.500000 2.615797 41.813520 3.057066 0.647061
6122.161000 6122.150000 0.500000 2.612828 41.710273 3.058590 0.647224
6124.421000 6124.410000 0.500000 2.609855 41.608346 3.060215 0.648225
6126.699000 6126.690000 0.500000 2.606547 41.499341 3.062290 0.650638
6128.997000 6128.990000 0.500000 2.603251 41.372315 3.062991 0.653141
6131.317000 6131.310000 0.500000 2.599731 41.243447 3.064216 0.655878
6133.660000 6133.650000 0.500000 2.595947 41.123459 3.066897 0.658837
6136.009000 6136.000000 0.500000 2.592151 41.000491 3.069354 0.659870
6138.390000 6138.380000 0.500000 2.588036 40.883307 3.073210 0.661123
6140.783000 6140.770000 0.500000 2.583727 40.738919 3.075592 0.662142
6143.201000 6143.190000 0.500000 2.579478 40.594365 3.077716 0.662762
6145.629000 6145.620000 0.500000 2.574705 40.438947 3.080562 0.663022
6148.097000 6148.070000 0.500000 2.570237 40.284003 3.082631 0.662478
6150.559000 6150.550000 0.500000 2.565518 40.111331 3.083839 0.661697
6153.044000 6153.040000 0.500000 2.560950 39.903935 3.081911 0.661497
6155.558000 6155.550000 0.500000 2.556167 39.665150 3.078179 0.661215
6158.099000 6158.070000 0.500000 2.551780 39.269054 3.060925 0.656920
6160.627000 6160.620000 0.500000 2.547213 38.519914 3.016172 0.644974
6163.222000 6163.190000 0.500000 2.542854 36.942584 2.905388 0.618733
6165.780000 6165.770000 0.500000 2.538529 36.503885 2.883248 0.613270
6168.405000 6168.380000 0.500000 2.533810 39.419543 3.128344 0.667579
6171.010000 6171.000000 0.500000 2.529558 39.266148 3.129362 0.671802
6173.680000 6173.650000 0.500000 2.525223 39.036908 3.124718 0.675615
6176.315000 6176.310000 0.500000 2.521070 38.818401 3.120041 0.679400
6179.021000 6178.990000 0.500000 2.516725 38.594755 3.115676 0.682310
6181.722000 6181.690000 0.500000 2.512566 38.372061 3.110607 0.685160
6184.440000 6184.410000 0.500000 2.508521 38.156819 3.105692 0.686707
6187.161000 6187.150000 0.500000 2.504322 37.943917 3.101277 0.687538
6189.911000 6189.900000 0.500000 2.500277 37.725833 3.095959 0.687935
6192.708000 6192.680000 0.500000 2.496228 37.512535 3.091042 0.688543
6195.480000 6195.470000 0.500000 2.492003 37.286300 3.085308 0.688795
