# XDI/1.0 BlueSky/1.10.0 BMM/2023-1.0-py310-tiled
# Beamline.name: BMM (06BM) -- Beamline for Materials Measurement (NIST)
# Beamline.xray_source: NSLS-II three-pole wiggler
# Beamline.collimation: paraboloid mirror, 5 nm Rh on 30 nm Pt
# Beamline.focusing: not in use
# Beamline.harmonic_rejection: flat mirror, Si stripe, pitch = 7.0 mrad relative to beam
# Beamline.software: Bluesky 1.10.0, Ophyd 1.7.0, DataBroker 2.0.0b13, Python 3.10.8, 2023-1.0-py310-tiled
# Detector.I0: 10 cm N2
# Detector.I1: 25 cm N2
# Detector.I2: 25 cm N2
# Element.symbol: Cr
# Element.edge: K
# Element.reference: Cr
# Element.reference_material: Cr foil
# Facility.name: NSLS-II
# Facility.energy: 3.0
# Facility.current: 400.5
# Facility.mode: top-off
# Facility.GUP: 301027
# Facility.SAF: 310583
# Facility.cycle: 2023-2
# Mono.name: Si(111)
# Mono.d_spacing: 3.1351860
# Mono.encoder_resolution: 0.0000050 deg/ct
# Mono.angle_offset: 16.0754326 deg
# Mono.scan_mode: pseudo channel cut
# Mono.scan_type: step
# Mono.direction: forward in energy
# Sample.name: Cr foil
# Sample.prep: reference foil
# Sample.x: 109.138 mm
# Sample.y: 153.150 mm
# Sample.SDD_position: 205.000 mm
# Scan.experimenters: Bruce Ravel
# Scan.edge_energy: 5989.2
# Scan.start_time: 2023-05-28T11:54:06
# Scan.end_time: 2023-05-28T12:02:14
# Scan.transient_id: 78658
# Scan.uid: c9882daa-5210-4e33-a77c-930512531ec7
# Scan.plot_hint: ln(It/Ir)  --  ln($6/$7)
# Column.1: energy eV
# Column.2: requested_energy eV
# Column.3: measurement_time seconds
# Column.4: xmu 
# Column.5: I0 nA
# Column.6: It nA
# Column.7: Ir nA
# ///////////
# standard reference foil
# -----------
# energy  requested_energy  measurement_time  xmu  I0  It  Ir
  5789.197  5789.200  0.500  3.008692  113.453641  61.944384  3.057338
  5799.210  5799.200  0.500  2.993373  113.646381  62.469802  3.130868
  5809.220  5809.200  0.500  2.978157  113.801135  62.964171  3.204029
  5819.230  5819.200  0.500  2.962833  113.942597  63.440874  3.278136
  5829.221  5829.200  0.500  2.947890  114.056385  63.893330  3.351221
  5839.209  5839.200  0.500  2.932855  114.099964  64.347868  3.426191
  5849.208  5849.200  0.500  2.918085  114.131600  64.781934  3.500627
  5859.204  5859.200  0.500  2.903438  114.044978  65.164607  3.573260
  5869.211  5869.200  0.500  2.888887  113.060697  65.011489  3.617116
  5879.207  5879.200  0.500  2.874372  114.998636  66.526872  3.755546
  5889.211  5889.200  0.500  2.859991  114.580190  66.707814  3.820309
  5900.811  5899.200  0.500  2.844226  114.040840  66.877690  3.890896
  5909.188  5909.200  0.500  2.831631  113.342347  66.788962  3.934985
  5919.187  5919.200  0.500  2.817641  113.839553  67.482684  4.031870
  5929.193  5929.200  0.500  2.803674  112.337554  67.002362  4.059474
  5939.193  5939.200  0.500  2.789664  113.577762  68.170876  4.188545
  5949.190  5949.200  0.500  2.775730  115.216989  69.548209  4.333132
  5959.190  5959.200  0.500  2.762472  114.281039  69.397573  4.381452
  5961.195  5961.200  0.500  2.759551  114.148262  69.418892  4.395618
  5963.194  5963.200  0.500  2.757003  114.038870  69.406156  4.406023
  5965.192  5965.200  0.500  2.754383  113.942958  69.445373  4.420077
  5967.198  5967.200  0.500  2.751834  113.850773  69.445295  4.431357
  5969.194  5969.200  0.500  2.749124  113.761925  69.497342  4.446710
  5971.193  5971.200  0.500  2.746709  113.659846  69.541362  4.460286
  5973.194  5973.200  0.500  2.744018  113.510250  69.512756  4.470465
  5975.195  5975.200  0.500  2.741519  113.428544  69.519168  4.482064
  5977.193  5977.200  0.500  2.739186  113.291522  69.538007  4.493752
  5979.192  5979.200  0.500  2.736905  113.124277  69.495022  4.501229
  5979.488  5979.500  0.500  2.736532  113.127421  69.497060  4.503037
  5979.787  5979.800  0.500  2.736255  113.060864  69.468502  4.502434
  5980.087  5980.100  0.500  2.735935  113.030891  69.472924  4.504165
  5980.386  5980.400  0.500  2.735485  113.000170  69.496803  4.507741
  5980.688  5980.700  0.500  2.735068  112.965085  69.494933  4.509499
  5980.988  5981.000  0.500  2.734765  112.935382  69.482979  4.510088
  5981.289  5981.300  0.500  2.734483  112.905814  69.474776  4.510826
  5981.590  5981.600  0.500  2.734225  112.855872  69.458688  4.510946
  5981.885  5981.900  0.500  2.734080  112.831405  69.455498  4.511394
  5982.189  5982.200  0.500  2.733785  112.756636  69.422026  4.510552
  5982.487  5982.500  0.500  2.733443  112.737521  69.429731  4.512594
  5982.788  5982.800  0.500  2.733242  112.701278  69.422910  4.513056
  5983.091  5983.100  0.500  2.732894  112.640870  69.396933  4.512937
  5983.392  5983.400  0.500  2.732781  112.597312  69.383943  4.512604
  5983.695  5983.700  0.500  2.732690  112.545239  69.362027  4.511591
  5983.996  5984.000  0.500  2.732379  112.460214  69.314157  4.509880
  5984.295  5984.300  0.500  2.732108  112.397176  69.291708  4.509642
  5984.592  5984.600  0.500  2.732089  112.327740  69.260128  4.507671
  5984.891  5984.900  0.500  2.732040  112.258790  69.223814  4.505526
  5985.191  5985.200  0.500  2.731842  112.162953  69.190097  4.504226
  5985.494  5985.500  0.500  2.731854  112.059282  69.136134  4.500656
  5985.793  5985.800  0.500  2.731932  111.938027  69.054496  4.494992
  5986.096  5986.100  0.500  2.731884  111.831417  69.010522  4.492346
  5986.396  5986.400  0.500  2.732075  111.687703  68.951865  4.487668
  5986.694  5986.700  0.500  2.732365  111.499899  68.825347  4.478137
  5986.996  5987.000  0.500  2.732556  111.321840  68.735812  4.471459
  5987.296  5987.300  0.500  2.732919  111.081221  68.590105  4.460361
  5987.595  5987.600  0.500  2.733782  110.798001  68.429937  4.446106
  5987.894  5987.900  0.500  2.734885  110.421380  68.189345  4.425587
  5988.192  5988.200  0.500  2.736429  109.939024  67.895555  4.399723
  5988.497  5988.500  0.500  2.738979  109.291114  67.517986  4.364114
  5988.797  5988.800  0.500  2.742948  108.400738  66.977827  4.312052
  5989.096  5989.100  0.500  2.749786  107.053861  66.183102  4.231848
  5989.398  5989.400  0.500  2.760578  104.833783  64.863185  4.102935
  5989.697  5989.700  0.500  2.774773  101.044511  62.473415  3.896067
  5989.996  5990.000  0.500  2.788408  95.117675  58.826626  3.618959
  5990.296  5990.300  0.500  2.799742  88.252510  54.599058  3.321030
  5990.592  5990.600  0.500  2.808842  84.038485  51.999844  3.134277
  5990.896  5990.900  0.500  2.818083  85.363626  52.828119  3.154912
  5991.197  5991.200  0.500  2.826400  93.100598  57.620125  3.412591
  5991.497  5991.500  0.500  2.833049  103.861766  64.269766  3.781196
  5991.804  5991.800  0.500  2.838887  110.457178  68.380897  3.999649
  5992.098  5992.100  0.500  2.844431  112.877510  69.909310  4.066441
  5992.398  5992.400  0.500  2.850007  113.651953  70.399886  4.072207
  5992.695  5992.700  0.500  2.855512  113.917945  70.574779  4.059909
  5992.996  5993.000  0.500  2.860394  113.989861  70.611871  4.042262
  5993.298  5993.300  0.500  2.864952  114.002709  70.634962  4.025195
  5993.601  5993.600  0.500  2.868785  113.970123  70.641338  4.010159
  5993.902  5993.900  0.500  2.871968  113.946011  70.612438  3.995776
  5994.201  5994.200  0.500  2.874494  113.888237  70.607159  3.985401
  5994.500  5994.500  0.500  2.876129  113.854498  70.598145  3.978382
  5994.797  5994.800  0.500  2.877035  113.813603  70.598547  3.974802
  5995.099  5995.100  0.500  2.877315  113.751120  70.567007  3.971914
  5995.397  5995.400  0.500  2.877214  113.707790  70.540567  3.970826
  5995.703  5995.700  0.500  2.876424  113.642707  70.485795  3.970877
  5995.999  5996.000  0.500  2.875456  113.617469  70.484366  3.974642
  5996.305  5996.300  0.500  2.874585  113.571550  70.494397  3.978673
  5996.602  5996.600  0.500  2.874577  113.539744  70.495094  3.978745
  5996.898  5996.900  0.500  2.875857  113.489294  70.476942  3.972633
  5997.197  5997.200  0.500  2.878656  113.452457  70.466335  3.960932
  5997.499  5997.500  0.500  2.883151  113.414163  70.435449  3.941439
  5997.797  5997.800  0.500  2.889794  113.395296  70.408763  3.913860
  5998.102  5998.100  0.500  2.897842  113.337943  70.406773  3.882375
  5998.402  5998.400  0.500  2.907033  113.301681  70.381834  3.845494
  5998.698  5998.700  0.500  2.916582  113.278791  70.376640  3.808669
  5999.001  5999.000  0.500  2.925510  113.234192  70.390915  3.775579
  5999.300  5999.300  0.500  2.934425  113.201450  70.386927  3.741858
  5999.601  5999.600  0.500  2.943499  113.172775  70.381270  3.707761
  5999.898  5999.900  0.500  2.952491  113.141702  70.376207  3.674307
  6000.204  6000.200  0.500  2.961111  113.103979  70.375849  3.642750
  6000.498  6000.500  0.500  2.968769  113.070314  70.342192  3.613234
  6000.803  6000.800  0.500  2.975810  113.048709  70.362418  3.588913
  6001.103  6001.100  0.500  2.982030  113.008240  70.359517  3.566513
  6001.400  6001.400  0.500  2.988085  112.980016  70.338254  3.543910
  6001.699  6001.700  0.500  2.993493  112.969181  70.293393  3.522550
  6002.002  6002.000  0.500  2.998202  112.940905  70.281746  3.505420
  6002.301  6002.300  0.500  3.002958  112.912293  70.279740  3.488687
  6002.601  6002.600  0.500  3.007454  112.895038  70.332315  3.475636
  6002.901  6002.900  0.500  3.011877  112.854171  70.315899  3.459488
  6003.205  6003.200  0.500  3.015899  112.834085  70.290300  3.444349
  6003.499  6003.500  0.500  3.019798  112.811269  70.315413  3.432171
  6003.799  6003.800  0.500  3.023257  112.803889  70.315533  3.420327
  6004.098  6004.100  0.500  3.026994  112.769246  70.302365  3.406930
  6004.403  6004.400  0.500  3.030541  112.751388  70.298900  3.394699
  6004.701  6004.700  0.500  3.033898  112.697750  70.276389  3.382240
  6005.004  6005.000  0.500  3.037204  112.694146  70.270596  3.370797
  6005.299  6005.300  0.500  3.040698  112.666770  70.270365  3.359029
  6005.603  6005.600  0.500  3.044389  112.664841  70.279012  3.347066
  6005.899  6005.900  0.500  3.048078  112.640578  70.265645  3.334107
  6006.199  6006.200  0.500  3.052112  112.612683  70.283765  3.321541
  6006.500  6006.500  0.500  3.055857  112.937562  70.502402  3.319419
  6006.801  6006.800  0.500  3.059295  112.950144  70.522415  3.308964
  6007.103  6007.100  0.500  3.062958  112.961451  70.542557  3.297809
  6007.402  6007.400  0.500  3.066631  112.932315  70.547081  3.285928
  6007.703  6007.700  0.500  3.070206  112.933973  70.590236  3.276205
  6008.001  6008.000  0.500  3.073984  112.910402  70.552665  3.262115
  6008.305  6008.300  0.500  3.077941  112.893689  70.570204  3.250040
  6008.600  6008.600  0.500  3.082488  112.882944  70.580685  3.235775
  6008.902  6008.900  0.500  3.086836  112.869197  70.556190  3.220617
  6009.205  6009.200  0.500  3.090351  112.860377  70.542988  3.208718
  6009.504  6009.500  0.500  3.092966  112.818604  70.550473  3.200676
  6009.804  6009.800  0.500  3.093844  112.808674  70.554745  3.198063
  6010.108  6010.100  0.500  3.093170  112.795074  70.540415  3.199570
  6010.404  6010.400  0.500  3.090845  112.768623  70.529309  3.206511
  6010.701  6010.700  0.500  3.086956  112.763284  70.565950  3.220677
  6011.004  6011.000  0.500  3.082026  112.745446  70.586607  3.237542
  6011.305  6011.300  0.500  3.076251  112.729008  70.589858  3.256444
  6011.605  6011.600  0.500  3.069819  112.688002  70.579831  3.276991
  6011.906  6011.900  0.500  3.062749  112.693419  70.587055  3.300578
  6012.207  6012.200  0.500  3.056266  112.662893  70.584016  3.321902
  6012.507  6012.500  0.500  3.049941  112.646580  70.584494  3.343003
  6012.805  6012.800  0.500  3.044318  112.620048  70.582473  3.361757
  6013.108  6013.100  0.500  3.038815  112.622820  70.592032  3.380766
  6013.401  6013.400  0.500  3.034245  112.589169  70.589702  3.396138
  6013.704  6013.700  0.500  3.030301  112.561940  70.583632  3.409267
  6014.000  6014.000  0.500  3.027273  112.548791  70.576854  3.419277
  6014.199  6014.200  0.500  3.025411  112.543219  70.591729  3.426371
  6015.211  6015.190  0.500  3.022232  112.477861  70.594500  3.437416
  6016.186  6016.190  0.500  3.025348  112.405196  70.575208  3.425785
  6017.204  6017.210  0.500  3.032699  112.347590  70.585888  3.401210
  6018.256  6018.260  0.500  3.041409  112.279508  70.590647  3.371941
  6019.319  6019.320  0.500  3.047021  112.245738  70.597712  3.353407
  6020.400  6020.400  0.500  3.047129  112.146837  70.590860  3.352718
  6021.500  6021.500  0.500  3.042522  112.113216  70.612522  3.369234
  6022.624  6022.620  0.500  3.035562  112.052811  70.606380  3.392472
  6023.765  6023.760  0.500  3.030800  111.973244  70.594859  3.408108
  6024.916  6024.910  0.500  3.031059  111.910964  70.627607  3.408805
  6026.092  6026.090  0.500  3.036152  111.837243  70.584693  3.389430
  6027.281  6027.280  0.500  3.042473  111.784824  70.608940  3.369229
  6028.504  6028.500  0.500  3.046742  111.706045  70.632511  3.355995
  6029.731  6029.730  0.500  3.049396  111.624456  70.633369  3.347143
  6030.982  6030.980  0.500  3.051224  111.554313  70.633346  3.341026
  6032.253  6032.250  0.500  3.051423  111.449962  70.618103  3.339640
  6033.543  6033.540  0.500  3.050246  111.383360  70.642950  3.344752
  6034.855  6034.850  0.500  3.049135  111.286928  70.622018  3.347476
  6036.182  6036.180  0.500  3.049937  111.211540  70.606709  3.344068
  6037.530  6037.530  0.500  3.051830  111.126039  70.617552  3.338255
  6038.903  6038.900  0.500  3.053999  111.030816  70.626687  3.331453
  6040.280  6040.280  0.500  3.053135  110.950587  70.630439  3.334511
  6041.695  6041.690  0.500  3.049434  110.837581  70.613255  3.346061
  6043.110  6043.110  0.500  3.044604  110.752384  70.632907  3.363199
  6044.556  6044.550  0.500  3.039916  110.652948  70.581086  3.376523
  6046.014  6046.010  0.500  3.035863  110.566825  70.605562  3.391409
  6047.495  6047.490  0.500  3.030569  110.471392  70.607748  3.409519
  6048.998  6048.990  0.500  3.023776  110.349326  70.589133  3.431852
  6050.515  6050.510  0.500  3.014419  110.254640  70.588391  3.464080
  6052.059  6052.050  0.500  3.003997  110.140551  70.597668  3.500829
  6053.620  6053.610  0.500  2.994117  110.013025  70.566171  3.534012
  6055.184  6055.180  0.500  2.985159  109.817096  70.507605  3.562855
  6056.789  6056.780  0.500  2.977933  109.634373  70.445285  3.585519
  6058.396  6058.390  0.500  2.971845  109.447270  70.408771  3.605544
  6060.037  6060.030  0.500  2.967020  109.255085  70.325489  3.618697
  6061.687  6061.680  0.500  2.964672  109.077030  70.233354  3.622451
  6063.359  6063.350  0.500  2.966024  108.915989  70.193376  3.615500
  6065.052  6065.040  0.500  2.970425  108.771132  70.182228  3.599051
  6066.760  6066.750  0.500  2.976641  108.632898  70.128304  3.573999
  6068.488  6068.480  0.500  2.984794  108.499769  70.106825  3.543895
  6070.235  6070.230  0.500  2.993033  108.339505  70.079588  3.513449
  6071.996  6071.990  0.500  2.996239  108.214538  70.091001  3.502773
  6073.783  6073.780  0.500  2.991132  108.066647  70.047094  3.518504
  6075.590  6075.580  0.500  2.980852  107.907949  70.003725  3.552660
  6077.412  6077.410  0.500  2.968580  107.746649  69.968274  3.594704
  6079.257  6079.250  0.500  2.955928  107.578540  69.946932  3.639364
  6081.119  6081.110  0.500  2.943229  107.423631  69.917778  3.684339
  6083.001  6082.990  0.500  2.931800  107.234386  69.872844  3.724293
  6084.898  6084.890  0.500  2.924097  107.021074  69.806262  3.749516
  6086.820  6086.810  0.500  2.923373  106.841495  69.759491  3.749719
  6088.761  6088.750  0.500  2.930762  106.643527  69.718530  3.719927
  6090.722  6090.710  0.500  2.944022  106.458735  69.677908  3.668787
  6092.688  6092.680  0.500  2.959112  106.259838  69.633495  3.611537
  6094.694  6094.680  0.500  2.973698  106.041013  69.534071  3.554160
  6096.701  6096.690  0.500  2.986259  105.833971  69.490861  3.507615
  6098.729  6098.720  0.500  2.994153  105.623286  69.438797  3.477428
  6100.785  6100.780  0.500  2.994137  105.401568  69.381303  3.474602
  6102.873  6102.850  0.500  2.984761  105.176621  69.288123  3.502623
  6104.953  6104.940  0.500  2.968925  104.929018  69.187030  3.553343
  6107.056  6107.050  0.500  2.949974  104.663399  69.068250  3.615106
  6109.194  6109.180  0.500  2.930858  104.407461  69.008082  3.681668
  6111.331  6111.320  0.500  2.913725  104.129353  68.909506  3.739937
  6113.503  6113.490  0.500  2.901800  103.883916  68.832809  3.780590
  6115.692  6115.680  0.500  2.895064  103.599046  68.721464  3.799988
  6117.891  6117.880  0.500  2.892250  103.307631  68.584004  3.803071
  6120.109  6120.100  0.500  2.892086  103.013440  68.463877  3.797034
  6122.362  6122.350  0.500  2.892333  102.716858  68.348923  3.789722
  6124.624  6124.610  0.500  2.890855  102.408134  68.229291  3.788686
  6126.905  6126.890  0.500  2.886088  102.098528  68.138612  3.801729
  6129.203  6129.190  0.500  2.879212  101.773230  68.000613  3.820207
  6131.523  6131.510  0.500  2.872184  101.433190  67.848079  3.838522
  6133.864  6133.850  0.500  2.866285  101.095770  67.701060  3.852865
  6136.214  6136.200  0.500  2.862838  100.748871  67.557998  3.857998
  6138.593  6138.580  0.500  2.861602  100.374249  67.390817  3.853209
  6140.981  6140.970  0.500  2.860519  99.980472  67.232835  3.848344
  6143.412  6143.390  0.500  2.859423  99.557200  67.030604  3.840974
  6145.834  6145.820  0.500  2.859759  99.128779  66.815297  3.827351
  6148.295  6148.270  0.500  2.862156  98.700670  66.595006  3.805600
  6150.773  6150.750  0.500  2.864073  98.225431  66.336685  3.783577
  6153.263  6153.240  0.500  2.863500  97.654920  66.031658  3.768340
  6155.775  6155.750  0.500  2.862337  96.943030  65.643156  3.750528
  6158.292  6158.270  0.500  2.863618  95.802070  64.982416  3.708022
  6160.843  6160.820  0.500  2.868712  89.269720  60.637097  3.442488
  6163.414  6163.390  0.500  2.874787  96.204270  65.426687  3.691906
  6165.982  6165.970  0.500  2.876883  94.471905  64.295635  3.620487
  6168.593  6168.580  0.500  2.871922  93.637223  63.845293  3.613009
  6171.228  6171.200  0.500  2.861525  96.540881  65.934023  3.770206
  6173.845  6173.850  0.500  2.848770  95.580403  65.360571  3.785391
  6176.505  6176.510  0.500  2.836238  94.905229  64.989368  3.811360
  6179.182  6179.190  0.500  2.825498  94.317108  64.683095  3.834358
  6181.904  6181.890  0.500  2.816256  93.755843  64.376649  3.851623
  6184.601  6184.610  0.500  2.808977  93.177181  64.049253  3.860031
  6187.341  6187.350  0.500  2.804040  92.600735  63.760109  3.861622
  6190.097  6190.100  0.500  2.799897  92.047343  63.476973  3.860435
  6192.876  6192.880  0.500  2.795331  91.468214  63.162485  3.858890
  6195.692  6195.670  0.500  2.790521  90.886896  62.861692  3.859031
  6198.481  6198.490  0.500  2.785539  90.312705  62.551446  3.859162
  6201.309  6201.320  0.500  2.780940  89.733690  62.220577  3.856443
  6204.174  6204.170  0.500  2.776420  89.147063  61.885946  3.853080
  6207.041  6207.050  0.500  2.770880  88.549666  61.575723  3.855063
  6209.970  6209.940  0.500  2.763832  87.936561  61.255429  3.862137
  6212.854  6212.850  0.500  2.756742  87.338549  60.904661  3.867343
  6215.758  6215.770  0.500  2.751297  86.713756  60.548491  3.865718
  6218.724  6218.720  0.500  2.748734  86.095361  60.187013  3.852503
  6221.684  6221.690  0.500  2.748374  85.461679  59.853736  3.832548
  6224.663  6224.670  0.500  2.749343  84.839037  59.530612  3.808165
  6227.672  6227.680  0.500  2.751050  84.214722  59.186398  3.779688
  6230.684  6230.700  0.500  2.753355  83.573734  58.823307  3.747852
  6233.736  6233.750  0.500  2.755916  82.933324  58.434884  3.713582
  6236.798  6236.810  0.500  2.757956  82.283616  58.059892  3.682232
  6239.903  6239.890  0.500  2.759431  81.651977  57.691917  3.653500
  6243.003  6242.990  0.500  2.758962  80.991057  57.325598  3.632005
  6246.119  6246.110  0.500  2.755558  80.323329  56.943206  3.620081
