# XDI/1.0 BlueSky/1.5.3
# Beamline.name: 6BM
# Beamline.xray_source: NSLS-II three-pole wiggler
# Beamline.collimation: paraboloid mirror, 5 nm Rh on 30 nm Pt
# Beamline.focusing: not in use
# Beamline.harmonic_rejection: flat mirror, Si stripe, pitch = 7.0 mrad relative to beam
# Detector.i0: 10 cm N2
# Detector.i1: 25 cm N2
# Detector.i2: 25 cm N2
# Element.symbol: Cr
# Element.edge: K
# Facility.name: NSLS-II
# Facility.energy: 3.0
# Facility.current: 400.8
# Facility.mode: top-off
# Facility.gup: 305882
# Facility.saf: 305422
# Facility.cycle: 2020-1
# Mono.name: Si(111)
# Mono.d_spacing: 3.1353241
# Mono.encoder_resolution: 0.0000050 deg/ct
# Mono.angle_offset: 16.0581090 deg
# Mono.scan_mode: fixed exit
# Mono.scan_type: step
# Mono.direction: forward in energy
# Sample.name: FeCrO4
# Sample.prep: powder on tape 2x
# Sample.x_position: -74.438 mm
# Sample.y_position: 112.405 mm
# Scan.experimenters: Sarah Nicholas, Bruce Ravel
# Scan.edge_energy: 5989.0
# Scan.start_time: 2020-01-29T16:34:15
# Scan.end_time: 2020-01-30T00:23:43
# Scan.transient_id: 20496
# Scan.uid: c57f7b22-7156-491c-b46a-93e3ae364d4c
# Scan.plot_hint: ln(I0/It)  --  ln($5/$6)
# Scan.sequence: merge of 16 scans
# Column.1: energy eV
# Column.2: requested_energy eV
# Column.3: measurement_time seconds
# Column.4: mutrans
# Column.5: i0
# Column.6: itrans
# Column.7: irefer
# /////
#  Ryan Tappero, ground in AW M&P
# -----
# energy   requested_energy   measurement_time   mutrans   i0   itrans   irefer
5788.998000 5789.000000 0.500000 4.985929 47.675132 0.325838 0.057144
5799.010000 5799.000000 0.500000 4.959080 47.683599 0.334750 0.059183
5809.010000 5809.000000 0.500000 4.931476 47.647258 0.343857 0.061390
5819.021000 5819.000000 0.500000 4.903826 47.584049 0.353035 0.063778
5829.016000 5829.000000 0.500000 4.875885 47.511629 0.362482 0.066041
5839.012000 5839.000000 0.500000 4.849801 47.421142 0.371346 0.068236
5849.011000 5849.000000 0.500000 4.821684 47.290082 0.380882 0.070737
5859.007000 5859.000000 0.500000 4.794795 47.114287 0.389808 0.072930
5869.008000 5869.000000 0.500000 4.768180 45.957451 0.390494 0.073587
5879.010000 5879.000000 0.500000 4.740727 47.472673 0.414590 0.079231
5889.008000 5889.000000 0.500000 4.714640 47.225231 0.423334 0.081189
5899.003000 5899.000000 0.500000 4.689009 47.057395 0.432776 0.083915
5909.008000 5909.000000 0.500000 4.662784 46.803080 0.441873 0.086336
5919.002000 5919.000000 0.500000 4.635623 34.892128 0.338491 0.066490
5929.002000 5929.000000 0.500000 4.609651 45.193461 0.449955 0.089661
5939.785000 5939.000000 0.500000 4.582980 46.353803 0.474842 0.095389
5948.991000 5949.000000 0.500000 4.557933 46.851243 0.491213 0.099499
5958.993000 5959.000000 0.500000 4.532289 46.501128 0.500201 0.101957
5960.991000 5961.000000 0.500000 4.528220 46.457465 0.501774 0.102669
5962.989000 5963.000000 0.500000 4.523017 46.406594 0.503840 0.103145
5964.994000 5965.000000 0.500000 4.517941 46.345312 0.505740 0.103666
5966.991000 5967.000000 0.500000 4.513090 46.282944 0.507512 0.104172
5968.991000 5969.000000 0.500000 4.507149 46.235352 0.510007 0.104891
5970.991000 5971.000000 0.500000 4.502446 46.181370 0.511813 0.105176
5972.996000 5973.000000 0.500000 4.498500 46.130126 0.513277 0.105633
5974.994000 5975.000000 0.500000 4.492500 46.059746 0.515568 0.106317
5976.994000 5977.000000 0.500000 4.488266 45.985060 0.516926 0.106691
5978.996000 5979.000000 0.500000 4.482268 45.908226 0.519157 0.107274
5979.241000 5979.250000 0.500000 4.483174 45.889741 0.518495 0.107199
5979.486000 5979.500000 0.500000 4.482583 45.884768 0.518739 0.107327
5979.738000 5979.750000 0.500000 4.481451 45.859324 0.519040 0.107699
5979.988000 5980.000000 0.500000 4.479974 45.850281 0.519695 0.107301
5980.235000 5980.250000 0.500000 4.480655 45.836559 0.519201 0.107581
5980.489000 5980.500000 0.500000 4.479757 45.820933 0.519485 0.107489
5980.736000 5980.750000 0.500000 4.479526 45.802136 0.519392 0.107516
5980.989000 5981.000000 0.500000 4.477903 45.785349 0.520045 0.107595
5981.240000 5981.250000 0.500000 4.477751 45.768862 0.519943 0.107827
5981.492000 5981.500000 0.500000 4.477134 45.753533 0.520086 0.107590
5981.742000 5981.750000 0.500000 4.476564 45.733092 0.520154 0.107836
5981.992000 5982.000000 0.500000 4.475230 45.720518 0.520698 0.107897
5982.241000 5982.250000 0.500000 4.475067 45.694852 0.520488 0.107659
5982.492000 5982.500000 0.500000 4.474745 45.682461 0.520516 0.108049
5982.739000 5982.750000 0.500000 4.474589 45.658955 0.520330 0.107846
5982.990000 5983.000000 0.500000 4.473375 45.647030 0.520823 0.107686
5983.239000 5983.250000 0.500000 4.472408 45.622409 0.521047 0.107850
5983.489000 5983.500000 0.500000 4.472999 45.598089 0.520469 0.108057
5983.738000 5983.750000 0.500000 4.472064 45.581874 0.520761 0.108370
5983.992000 5984.000000 0.500000 4.471913 45.553611 0.520531 0.107830
5984.244000 5984.250000 0.500000 4.470034 45.522397 0.521140 0.108157
5984.496000 5984.500000 0.500000 4.469910 45.491967 0.520869 0.107968
5984.745000 5984.750000 0.500000 4.469335 45.456019 0.520749 0.108111
5984.998000 5985.000000 0.500000 4.468713 45.439330 0.520886 0.107936
5985.248000 5985.250000 0.500000 4.467823 45.404229 0.520948 0.108237
5985.496000 5985.500000 0.500000 4.467341 45.362783 0.520720 0.107894
5985.744000 5985.750000 0.500000 4.466953 45.319046 0.520417 0.107982
5985.996000 5986.000000 0.500000 4.466593 45.289223 0.520266 0.107715
5986.244000 5986.250000 0.500000 4.465915 45.247876 0.520138 0.107567
5986.495000 5986.500000 0.500000 4.465876 45.200228 0.519611 0.107480
5986.744000 5986.750000 0.500000 4.465370 45.147936 0.519272 0.107528
5986.996000 5987.000000 0.500000 4.464586 45.091513 0.519029 0.107391
5987.246000 5987.250000 0.500000 4.463680 45.023850 0.518722 0.107129
5987.500000 5987.500000 0.500000 4.462805 44.946431 0.518284 0.106682
5987.747000 5987.750000 0.500000 4.462661 44.887669 0.517674 0.106431
5987.998000 5988.000000 0.500000 4.463059 44.787596 0.516323 0.106212
5988.248000 5988.250000 0.500000 4.461989 44.662937 0.515433 0.105485
5988.499000 5988.500000 0.500000 4.461556 44.527568 0.514094 0.104998
5988.745000 5988.750000 0.500000 4.460493 44.360638 0.512703 0.103675
5988.996000 5989.000000 0.500000 4.460609 44.184247 0.510611 0.102679
5989.245000 5989.250000 0.500000 4.460032 43.943669 0.508122 0.100681
5989.497000 5989.500000 0.500000 4.460747 43.608870 0.503890 0.098539
5989.748000 5989.750000 0.500000 4.460638 43.143632 0.498575 0.096591
5989.999000 5990.000000 0.500000 4.460276 42.496434 0.491261 0.094170
5990.250000 5990.250000 0.500000 4.461705 41.546282 0.479595 0.091209
5990.500000 5990.500000 0.500000 4.461466 40.162347 0.463732 0.087747
5990.753000 5990.750000 0.500000 4.461666 38.157856 0.440496 0.082667
5991.001000 5991.000000 0.500000 4.460894 35.867406 0.414372 0.077289
5991.248000 5991.250000 0.500000 4.459558 33.975574 0.393044 0.072734
5991.498000 5991.500000 0.500000 4.457157 33.273882 0.385859 0.070871
5991.744000 5991.750000 0.500000 4.456104 34.265301 0.397774 0.072727
5991.994000 5992.000000 0.500000 4.455747 37.022948 0.429953 0.078494
5992.248000 5992.250000 0.500000 4.454513 40.851846 0.475003 0.086509
5992.500000 5992.500000 0.500000 4.455042 43.874061 0.509869 0.092504
5992.751000 5992.750000 0.500000 4.456094 45.466536 0.527820 0.095403
5993.001000 5993.000000 0.500000 4.455472 46.114757 0.535667 0.096588
5993.249000 5993.250000 0.500000 4.455502 46.360393 0.538509 0.096544
5993.498000 5993.500000 0.500000 4.455405 46.448268 0.539578 0.096498
5993.748000 5993.750000 0.500000 4.454601 46.473684 0.540306 0.096523
5993.996000 5994.000000 0.500000 4.455687 46.463617 0.539614 0.096204
5994.246000 5994.250000 0.500000 4.455882 46.455757 0.539407 0.095881
5994.501000 5994.500000 0.500000 4.454919 46.433640 0.539669 0.096279
5994.752000 5994.750000 0.500000 4.455518 46.402029 0.538983 0.095925
5995.005000 5995.000000 0.500000 4.455390 46.373509 0.538725 0.095801
5995.253000 5995.250000 0.500000 4.455073 46.342736 0.538526 0.095768
5995.503000 5995.500000 0.500000 4.456166 46.314231 0.537614 0.095707
5995.750000 5995.750000 0.500000 4.456080 46.284315 0.537314 0.095783
5995.999000 5996.000000 0.500000 4.457002 46.255680 0.536487 0.095797
5996.247000 5996.250000 0.500000 4.458277 46.233421 0.535552 0.095420
5996.497000 5996.500000 0.500000 4.459010 46.206959 0.534855 0.095049
5996.746000 5996.750000 0.500000 4.460254 46.183607 0.533914 0.094770
5996.999000 5997.000000 0.500000 4.461691 46.161164 0.532882 0.094662
5997.250000 5997.250000 0.500000 4.463205 46.127221 0.531683 0.093544
5997.503000 5997.500000 0.500000 4.465461 46.102274 0.530192 0.092800
5997.753000 5997.750000 0.500000 4.468526 46.079364 0.528297 0.091721
5998.004000 5998.000000 0.500000 4.471808 46.056987 0.526318 0.090799
5998.252000 5998.250000 0.500000 4.474118 46.036005 0.524869 0.089629
5998.498000 5998.500000 0.500000 4.477900 46.010895 0.522625 0.088465
5998.749000 5998.750000 0.500000 4.480355 45.998568 0.521195 0.087484
5998.996000 5999.000000 0.500000 4.484123 45.975502 0.519000 0.086358
5999.248000 5999.250000 0.500000 4.486285 45.956142 0.517639 0.085380
5999.499000 5999.500000 0.500000 4.489835 45.936561 0.515585 0.084315
5999.749000 5999.750000 0.500000 4.492336 45.928762 0.514208 0.083884
6000.001000 6000.000000 0.500000 4.494690 45.912566 0.512812 0.082935
6000.253000 6000.250000 0.500000 4.497987 45.900061 0.510967 0.082035
6000.504000 6000.500000 0.500000 4.501887 45.887781 0.508835 0.081374
6000.754000 6000.750000 0.500000 4.505575 45.876216 0.506825 0.080980
6001.000000 6001.000000 0.500000 4.510346 45.862144 0.504304 0.080011
6001.249000 6001.250000 0.500000 4.514512 45.847861 0.502051 0.079103
6001.497000 6001.500000 0.500000 4.519952 45.834139 0.499201 0.078339
6001.748000 6001.750000 0.500000 4.525259 45.824870 0.496439 0.077521
6002.001000 6002.000000 0.500000 4.530602 45.806619 0.493574 0.076971
6002.249000 6002.250000 0.500000 4.535421 45.795171 0.491106 0.076262
6002.501000 6002.500000 0.500000 4.539529 45.792731 0.489039 0.075789
6002.752000 6002.750000 0.500000 4.543930 45.787863 0.486838 0.075022
6003.004000 6003.000000 0.500000 4.547370 45.773828 0.485011 0.074420
6003.251000 6003.250000 0.500000 4.549127 45.758680 0.484008 0.073947
6003.502000 6003.500000 0.500000 4.551598 45.741203 0.482625 0.073518
6003.751000 6003.750000 0.500000 4.553885 45.726311 0.481376 0.072967
6004.000000 6004.000000 0.500000 4.554722 45.729361 0.480999 0.072816
6004.250000 6004.250000 0.500000 4.557375 45.726426 0.479690 0.072519
6004.502000 6004.500000 0.500000 4.559574 45.719994 0.478574 0.072279
6004.753000 6004.750000 0.500000 4.561082 45.703672 0.477675 0.071723
6005.002000 6005.000000 0.500000 4.563230 45.700695 0.476623 0.071570
6005.253000 6005.250000 0.500000 4.565038 45.708877 0.475842 0.070890
6005.503000 6005.500000 0.500000 4.567590 45.705172 0.474589 0.070339
6005.751000 6005.750000 0.500000 4.571839 45.696126 0.472498 0.070161
6005.999000 6006.000000 0.500000 4.575319 45.704934 0.470948 0.069389
6006.249000 6006.250000 0.500000 4.582530 45.685619 0.467384 0.069013
6006.498000 6006.500000 0.500000 4.590301 45.681038 0.463732 0.067791
6006.748000 6006.750000 0.500000 4.600547 45.661606 0.458819 0.067059
6006.999000 6007.000000 0.500000 4.610740 45.665590 0.454181 0.066090
6007.250000 6007.250000 0.500000 4.623646 45.657682 0.448276 0.064786
6007.500000 6007.500000 0.500000 4.637543 45.653217 0.442047 0.064308
6007.752000 6007.750000 0.500000 4.651211 45.643828 0.435928 0.062993
6008.002000 6008.000000 0.500000 4.665225 45.637988 0.429823 0.061689
6008.252000 6008.250000 0.500000 4.677034 45.630300 0.424700 0.060821
6008.503000 6008.500000 0.500000 4.687001 45.618359 0.420366 0.059758
6008.751000 6008.750000 0.500000 4.693582 45.606985 0.417515 0.059172
6009.001000 6009.000000 0.500000 4.696614 45.612193 0.416301 0.058982
6009.250000 6009.250000 0.500000 4.698088 45.605200 0.415630 0.058460
6009.499000 6009.500000 0.500000 4.696579 45.593502 0.416151 0.058728
6009.749000 6009.750000 0.500000 4.690782 45.581337 0.418442 0.058907
6010.002000 6010.000000 0.500000 4.684507 45.575953 0.421062 0.059356
6010.251000 6010.250000 0.500000 4.676273 45.570969 0.424466 0.060303
6010.502000 6010.500000 0.500000 4.666403 45.566285 0.428645 0.061014
6010.751000 6010.750000 0.500000 4.656187 45.548593 0.432865 0.061874
6011.002000 6011.000000 0.500000 4.644642 45.539438 0.437823 0.063059
6011.250000 6011.250000 0.500000 4.634486 45.535403 0.442219 0.064088
6011.501000 6011.500000 0.500000 4.625525 45.533105 0.446194 0.064835
6011.751000 6011.750000 0.500000 4.615555 45.520164 0.450565 0.066057
6011.999000 6012.000000 0.500000 4.607195 45.512152 0.454222 0.066703
6012.252000 6012.250000 0.500000 4.599377 45.497993 0.457696 0.067921
6012.502000 6012.500000 0.500000 4.592106 45.482933 0.460861 0.068656
6012.757000 6012.750000 0.500000 4.586286 45.475362 0.463501 0.069266
6013.004000 6013.000000 0.500000 4.582071 45.468594 0.465373 0.069865
6013.254000 6013.250000 0.500000 4.576573 45.463500 0.467869 0.070582
6013.502000 6013.500000 0.500000 4.572938 45.458296 0.469514 0.070794
6013.750000 6013.750000 0.500000 4.569641 45.443276 0.470904 0.071193
6013.997000 6014.000000 0.500000 4.565873 45.438672 0.472614 0.071501
6015.006000 6014.990000 0.500000 4.556889 45.412188 0.476632 0.072216
6015.990000 6015.990000 0.500000 4.553032 45.356036 0.477849 0.072072
6017.008000 6017.010000 0.500000 4.554996 45.333518 0.476698 0.071401
6018.063000 6018.060000 0.500000 4.559495 45.303644 0.474237 0.070478
6019.128000 6019.120000 0.500000 4.566463 45.274854 0.470643 0.069455
6020.211000 6020.200000 0.500000 4.570932 45.242620 0.468220 0.068968
6021.307000 6021.300000 0.500000 4.573316 45.211258 0.466784 0.069235
6022.425000 6022.420000 0.500000 4.572475 45.177484 0.466829 0.069422
6023.570000 6023.560000 0.500000 4.566481 45.154377 0.469410 0.070199
6024.714000 6024.710000 0.500000 4.554778 45.126955 0.474622 0.071050
6025.898000 6025.890000 0.500000 4.543564 45.093169 0.479640 0.071194
6027.083000 6027.080000 0.500000 4.530212 45.061207 0.485720 0.071471
6028.309000 6028.300000 0.500000 4.517345 45.029943 0.491686 0.072233
6029.536000 6029.530000 0.500000 4.506648 44.995525 0.496582 0.072731
6030.789000 6030.780000 0.500000 4.497418 44.952937 0.500718 0.073193
6032.055000 6032.050000 0.500000 4.490135 44.927369 0.504086 0.073805
6033.348000 6033.340000 0.500000 4.483267 44.893379 0.507173 0.074122
6034.654000 6034.650000 0.500000 4.478545 44.857671 0.509168 0.074366
6035.988000 6035.980000 0.500000 4.472552 44.833821 0.511957 0.074708
6037.340000 6037.330000 0.500000 4.467637 44.796843 0.514058 0.074762
6038.708000 6038.700000 0.500000 4.464355 44.747210 0.515172 0.074675
6040.091000 6040.080000 0.500000 4.463031 44.708651 0.515415 0.074859
6041.497000 6041.490000 0.500000 4.460937 44.671949 0.516069 0.075321
6042.919000 6042.910000 0.500000 4.460031 44.660891 0.516408 0.075555
6044.356000 6044.350000 0.500000 4.459468 44.616829 0.516188 0.075915
6045.819000 6045.810000 0.500000 4.458582 44.565897 0.516053 0.075921
6047.297000 6047.290000 0.500000 4.458882 44.532663 0.515513 0.076532
6048.800000 6048.790000 0.500000 4.459407 44.494797 0.514807 0.076916
6050.319000 6050.310000 0.500000 4.459565 44.449723 0.514207 0.077194
6051.857000 6051.850000 0.500000 4.457126 44.401734 0.514902 0.078298
6053.423000 6053.410000 0.500000 4.454776 44.335708 0.515354 0.079001
6054.986000 6054.980000 0.500000 4.451233 44.266308 0.516361 0.079944
6056.587000 6056.580000 0.500000 4.449865 44.196061 0.516252 0.080319
6058.201000 6058.190000 0.500000 4.450300 44.129399 0.515250 0.080408
6059.837000 6059.830000 0.500000 4.450932 44.038154 0.513860 0.080361
6061.487000 6061.480000 0.500000 4.450235 43.970250 0.513424 0.080198
6063.160000 6063.150000 0.500000 4.447437 43.904687 0.514096 0.080279
6064.846000 6064.840000 0.500000 4.443556 43.851410 0.515467 0.080180
6066.556000 6066.550000 0.500000 4.438549 43.810070 0.517570 0.079745
6068.288000 6068.280000 0.500000 4.433825 43.756565 0.519385 0.079248
6070.035000 6070.030000 0.500000 4.429838 43.696726 0.520749 0.079096
6071.798000 6071.790000 0.500000 4.423414 43.633499 0.523352 0.079292
6073.589000 6073.580000 0.500000 4.417375 43.579833 0.525870 0.080022
6075.385000 6075.380000 0.500000 4.412709 43.521121 0.527610 0.080731
6077.214000 6077.210000 0.500000 4.407487 43.467584 0.529721 0.082099
6079.059000 6079.050000 0.500000 4.403416 43.400950 0.531075 0.083274
6080.918000 6080.910000 0.500000 4.397334 43.332433 0.533465 0.084774
6082.794000 6082.790000 0.500000 4.391732 43.261884 0.535584 0.085966
6084.701000 6084.690000 0.500000 4.385129 43.183295 0.538167 0.087222
6086.618000 6086.610000 0.500000 4.379569 43.120334 0.540371 0.087323
6088.557000 6088.550000 0.500000 4.374141 43.044187 0.542353 0.086933
6090.516000 6090.510000 0.500000 4.369161 42.971852 0.544142 0.085664
6092.489000 6092.480000 0.500000 4.364365 42.896132 0.545798 0.084630
6094.489000 6094.480000 0.500000 4.359042 42.825850 0.547813 0.083578
6096.498000 6096.490000 0.500000 4.352619 42.735336 0.550174 0.082833
6098.525000 6098.520000 0.500000 4.346617 42.655386 0.552448 0.082604
6100.589000 6100.580000 0.500000 4.340972 42.567603 0.554433 0.082949
6102.660000 6102.650000 0.500000 4.336546 42.483288 0.555793 0.083995
6104.748000 6104.740000 0.500000 4.331849 42.390245 0.557187 0.085384
6106.854000 6106.850000 0.500000 4.327145 42.302397 0.558649 0.087188
6108.987000 6108.980000 0.500000 4.321849 42.221466 0.560542 0.089198
6111.130000 6111.120000 0.500000 4.316379 42.121687 0.562290 0.090735
6113.299000 6113.290000 0.500000 4.310984 42.024406 0.564026 0.092107
6115.488000 6115.480000 0.500000 4.305268 41.918972 0.565835 0.092623
6117.685000 6117.680000 0.500000 4.299491 41.812711 0.567669 0.093274
6119.906000 6119.900000 0.500000 4.293084 41.718079 0.570023 0.093169
6122.159000 6122.150000 0.500000 4.286337 41.607386 0.572363 0.093674
6124.418000 6124.410000 0.500000 4.279409 41.495035 0.574786 0.094111
6126.699000 6126.690000 0.500000 4.273419 41.382921 0.576676 0.094887
6128.997000 6128.990000 0.500000 4.268349 41.259745 0.577882 0.095598
6131.314000 6131.310000 0.500000 4.264442 41.144794 0.578524 0.096223
6133.657000 6133.650000 0.500000 4.261411 41.017420 0.578490 0.096463
6136.007000 6136.000000 0.500000 4.256856 40.889567 0.579313 0.096978
6138.387000 6138.380000 0.500000 4.253475 40.753607 0.579350 0.096973
6140.776000 6140.770000 0.500000 4.248530 40.618210 0.580283 0.096840
6143.198000 6143.190000 0.500000 4.244218 40.476845 0.580767 0.097083
6145.626000 6145.620000 0.500000 4.239347 40.316801 0.581290 0.097082
6148.078000 6148.070000 0.500000 4.235001 40.160060 0.581554 0.096659
6150.557000 6150.550000 0.500000 4.230458 39.980801 0.581596 0.096401
6153.050000 6153.040000 0.500000 4.224489 39.774363 0.582056 0.096623
6155.558000 6155.550000 0.500000 4.219091 39.527250 0.581572 0.096192
6158.080000 6158.070000 0.500000 4.213803 39.146121 0.579023 0.095663
6160.625000 6160.620000 0.500000 4.208256 38.392303 0.571023 0.093681
6163.198000 6163.190000 0.500000 4.202240 36.939637 0.552730 0.089900
6165.775000 6165.770000 0.500000 4.197106 36.433085 0.547959 0.088985
6168.389000 6168.380000 0.500000 4.190179 39.275708 0.594826 0.097012
6171.010000 6171.000000 0.500000 4.182165 39.147070 0.597641 0.098550
6173.662000 6173.650000 0.500000 4.175027 38.924515 0.598506 0.099973
6176.320000 6176.310000 0.500000 4.167691 38.696388 0.599380 0.100908
6179.002000 6178.990000 0.500000 4.159771 38.479020 0.600754 0.102370
6181.702000 6181.690000 0.500000 4.152471 38.250097 0.601558 0.103333
6184.423000 6184.410000 0.500000 4.145166 38.035240 0.602568 0.103888
6187.159000 6187.150000 0.500000 4.137104 37.812552 0.603880 0.104667
6189.908000 6189.900000 0.500000 4.129614 37.593923 0.604902 0.104919
6192.688000 6192.680000 0.500000 4.122649 37.373268 0.605552 0.105602
6195.477000 6195.470000 0.500000 4.116990 37.139316 0.605179 0.105780
