# XDI/1.0 BlueSky/1.5.3
# Beamline.name: 6BM
# Beamline.xray_source: NSLS-II three-pole wiggler
# Beamline.collimation: paraboloid mirror, 5 nm Rh on 30 nm Pt
# Beamline.focusing: not in use
# Beamline.harmonic_rejection: flat mirror, Si stripe, pitch = 7.0 mrad relative to beam
# Detector.i0: 10 cm N2
# Detector.I1: 25 cm N2
# Detector.I2: 25 cm N2
# Element.symbol: Cr
# Element.edge: K
# Facility.name: NSLS-II
# Facility.energy: 3.0
# Facility.current: 400.0
# Facility.mode: top-off
# Facility.GUP: 305832
# Facility.SAF: 305669
# Facility.cycle: 2020-1
# Mono.name: Si(111)
# Mono.d_spacing: 3.1353241
# Mono.encoder_resolution: 0.0000050 deg/ct
# Mono.angle_offset: 16.0581090 deg
# Mono.scan_mode: fixed exit
# Mono.scan_type: step
# Mono.direction: forward in energy
# Sample.name: YCrO3
# Sample.prep: Powder in polyethylene glycol pellet
# Sample.x_position: -2.590 mm
# Sample.y_position: 103.444 mm
# Scan.experimenters: Neil Hyatt, Martin Stennett, Dan Austin, Seb Lawson
# Scan.edge_energy: 5989.200000000001
# Scan.start_time: 2020-03-04T02:31:25
# Scan.end_time: 2020-03-04T02:42:58
# Scan.transient_id: 22728
# Scan.uid: 666a0165-5bbd-4a16-b1b7-2e28700b09cd
# Scan.plot_hint: ln(i0/itrans)  --  ln($5/$6)
# Column.1: energy eV
# Column.2: requested_energy eV
# Column.3: measurement_time seconds
# Column.4: mutrans 
# Column.5: i0
# Column.6: itrans
# Column.7: irefer
# ///////////
# 
# -----------
#  energy  requested_energy  measurement_time  mutrans  i0  itrans  irefer
5789.220  5789.200  1.000  2.449319  82.261207  7.103448  1.027889
5799.205  5799.200  1.000  2.434737  82.403970  7.220299  1.052541
5809.209  5809.200  1.000  2.420445  82.565770  7.338613  1.081538
5819.212  5819.200  1.000  2.406372  82.650163  7.450231  1.107219
5829.210  5829.200  1.000  2.392017  82.737526  7.565938  1.136282
5839.212  5839.200  1.000  2.377943  82.828629  7.681621  1.165686
5849.210  5849.200  1.000  2.363709  82.847750  7.793542  1.194021
5859.208  5859.200  1.000  2.349766  82.777377  7.896255  1.220452
5869.205  5869.200  1.000  2.335807  81.555668  7.889073  1.231648
5879.204  5879.200  1.000  2.322153  83.263018  8.164960  1.281411
5889.207  5889.200  1.000  2.308267  83.024468  8.255404  1.308727
5899.204  5899.200  1.000  2.295019  82.777984  8.340663  1.336453
5909.197  5909.200  1.000  2.281451  82.278336  8.403574  1.359275
5919.196  5919.200  1.000  2.270239  62.739304  6.480183  1.056188
5929.195  5929.200  1.000  2.255662  79.818474  8.365307  1.376640
5939.194  5939.200  1.000  2.241868  80.868093  8.593028  1.429983
5949.199  5949.200  1.000  2.228842  82.748145  8.908084  1.494390
5959.203  5959.200  1.000  2.216053  82.054447  8.947101  1.512238
5961.193  5961.200  1.000  2.213559  81.964513  8.959613  1.517261
5963.193  5963.200  1.000  2.211092  81.855462  8.969797  1.517905
5965.193  5965.200  1.000  2.208720  81.775233  8.982287  1.527016
5967.200  5967.200  1.000  2.206137  81.676570  8.994654  1.532285
5969.204  5969.200  1.000  2.203583  81.598485  9.009030  1.533459
5971.202  5971.200  1.000  2.201113  81.513004  9.021851  1.538292
5973.201  5973.200  1.000  2.198734  81.724491  9.066800  1.546882
5975.200  5975.200  1.000  2.196474  81.612003  9.074806  1.555317
5977.204  5977.200  1.000  2.194237  81.539824  9.087087  1.557390
5979.205  5979.200  1.000  2.191966  81.423818  9.094787  1.561805
5979.443  5979.450  1.000  2.191755  81.417222  9.095977  1.561192
5979.690  5979.700  1.000  2.191495  81.424397  9.099136  1.558041
5979.939  5979.950  1.000  2.191078  81.391562  9.099266  1.561420
5980.191  5980.200  1.000  2.191029  81.364905  9.096730  1.563820
5980.438  5980.450  1.000  2.190602  81.345744  9.098471  1.560055
5980.690  5980.700  1.000  2.190153  81.330226  9.100822  1.560382
5980.942  5980.950  1.000  2.190048  81.304066  9.098850  1.563887
5981.190  5981.200  1.000  2.189710  81.290469  9.100403  1.563729
5981.441  5981.450  1.000  2.189570  81.251063  9.097268  1.561904
5981.691  5981.700  1.000  2.189111  81.244496  9.100706  1.565065
5981.945  5981.950  1.000  2.188975  81.218960  9.099085  1.564966
5982.195  5982.200  1.000  2.188609  81.176080  9.097609  1.564298
5982.446  5982.450  1.000  2.188384  81.155896  9.097396  1.564252
5982.696  5982.700  1.000  2.188251  81.097111  9.092010  1.561731
5982.946  5982.950  1.000  2.187798  81.104806  9.097000  1.562058
5983.194  5983.200  1.000  2.187748  81.068654  9.093396  1.561876
5983.446  5983.450  1.000  2.187330  81.024818  9.092282  1.561142
5983.694  5983.700  1.000  2.187137  81.008819  9.092234  1.562125
5983.947  5983.950  1.000  2.186872  80.926462  9.085405  1.562676
5984.199  5984.200  1.000  2.186649  80.902545  9.084739  1.561269
5984.450  5984.450  1.000  2.186583  80.905270  9.085652  1.561499
5984.701  5984.700  1.000  2.186362  80.859654  9.082532  1.561679
5984.950  5984.950  1.000  2.186035  80.812870  9.080248  1.558171
5985.200  5985.200  1.000  2.185877  80.770375  9.076906  1.559814
5985.451  5985.450  1.000  2.185754  80.736208  9.074177  1.559576
5985.699  5985.700  1.000  2.185533  80.687096  9.070668  1.557160
5985.947  5985.950  1.000  2.185501  80.649724  9.066755  1.555082
5986.196  5986.200  1.000  2.185286  80.599596  9.063065  1.557179
5986.445  5986.450  1.000  2.185133  80.540044  9.057760  1.555960
5986.698  5986.700  1.000  2.184996  80.447194  9.048556  1.549647
5986.945  5986.950  1.000  2.184812  80.397270  9.044601  1.548450
5987.199  5987.200  1.000  2.184816  80.334255  9.037479  1.549705
5987.450  5987.450  1.000  2.184785  80.217128  9.024582  1.544166
5987.703  5987.700  1.000  2.184720  80.124411  9.014740  1.538589
5987.951  5987.950  1.000  2.184637  80.045506  9.006607  1.531769
5988.202  5988.200  1.000  2.184753  79.893898  8.988509  1.531516
5988.450  5988.450  1.000  2.184995  79.702960  8.964852  1.520911
5988.702  5988.700  1.000  2.185355  79.522729  8.941362  1.506461
5988.947  5988.950  1.000  2.185831  79.320693  8.914400  1.491114
5989.200  5989.200  1.000  2.186682  79.020797  8.873141  1.471108
5989.445  5989.450  1.000  2.187779  78.648617  8.821668  1.443813
5989.699  5989.700  1.000  2.189553  78.105945  8.745275  1.414345
5989.951  5989.950  1.000  2.192398  77.348806  8.635891  1.384028
5990.204  5990.200  1.000  2.195959  76.198007  8.477169  1.351258
5990.454  5990.450  1.000  2.198756  74.428716  8.257206  1.304994
5990.705  5990.700  1.000  2.199867  71.494830  7.922904  1.248550
5990.953  5990.950  1.000  2.199607  67.169991  7.445576  1.168316
5991.203  5991.200  1.000  2.197911  62.579335  6.948485  1.080375
5991.450  5991.450  1.000  2.196398  59.816280  6.651747  1.028622
5991.699  5991.700  1.000  2.196122  60.082616  6.683213  1.025085
5991.949  5991.950  1.000  2.197525  63.571280  7.061353  1.074599
5992.198  5992.200  1.000  2.199369  69.838050  7.743160  1.170912
5992.450  5992.450  1.000  2.200655  75.991598  8.414597  1.270100
5992.700  5992.700  1.000  2.202630  79.325983  8.766484  1.318072
5992.953  5992.950  1.000  2.205620  80.590946  8.879684  1.334535
5993.205  5993.200  1.000  2.209479  81.009640  8.891437  1.330844
5993.452  5993.450  1.000  2.214442  81.139581  8.861613  1.321246
5993.701  5993.700  1.000  2.219670  81.253496  8.827783  1.313454
5993.950  5993.950  1.000  2.224819  81.255605  8.782674  1.303820
5994.201  5994.200  1.000  2.228563  81.258155  8.750128  1.297921
5994.447  5994.450  1.000  2.230706  81.229945  8.728368  1.292296
5994.702  5994.700  1.000  2.231182  81.228294  8.724029  1.295112
5994.952  5994.950  1.000  2.231237  81.188329  8.719260  1.291779
5995.202  5995.200  1.000  2.231734  81.151268  8.710951  1.289915
5995.452  5995.450  1.000  2.233683  81.104372  8.688966  1.293028
5995.706  5995.700  1.000  2.237574  81.080102  8.652629  1.287176
5995.955  5995.950  1.000  2.242962  80.995853  8.597195  1.276703
5996.204  5996.200  1.000  2.248685  80.951518  8.543451  1.269227
5996.449  5996.450  1.000  2.253644  80.933985  8.499353  1.262581
5996.700  5996.700  1.000  2.257099  80.891222  8.465558  1.256046
5996.950  5996.950  1.000  2.259058  80.860539  8.445787  1.247440
5997.199  5997.200  1.000  2.260594  80.820877  8.428692  1.239707
5997.450  5997.450  1.000  2.261552  80.783699  8.416747  1.231846
5997.702  5997.700  1.000  2.263041  80.764035  8.402177  1.221263
5997.953  5997.950  1.000  2.265316  80.745057  8.381110  1.207862
5998.204  5998.200  1.000  2.268306  80.672738  8.348608  1.196103
5998.452  5998.450  1.000  2.271929  80.687840  8.319969  1.183546
5998.702  5998.700  1.000  2.276006  80.636574  8.280856  1.167298
5998.951  5998.950  1.000  2.279984  80.612955  8.245565  1.152066
5999.200  5999.200  1.000  2.284134  80.596142  8.209705  1.138638
5999.445  5999.450  1.000  2.288446  80.559059  8.170617  1.125964
5999.700  5999.700  1.000  2.293941  80.512658  8.121165  1.114317
5999.950  5999.950  1.000  2.300794  80.801217  8.094605  1.101011
6000.204  6000.200  1.000  2.310067  80.787123  8.018495  1.085939
6000.453  6000.450  1.000  2.321406  80.770610  7.926464  1.063001
6000.705  6000.700  1.000  2.334840  80.713962  7.815205  1.046541
6000.955  6000.950  1.000  2.349174  80.715998  7.704176  1.024109
6001.203  6001.200  1.000  2.364936  80.701264  7.582309  1.005202
6001.452  6001.450  1.000  2.381080  80.678768  7.458805  0.984102
6001.698  6001.700  1.000  2.397630  80.664419  7.335075  0.963317
6001.947  6001.950  1.000  2.414609  80.665545  7.211688  0.945277
6002.200  6002.200  1.000  2.432554  80.619565  7.079386  0.924282
6002.452  6002.450  1.000  2.452494  80.618067  6.939497  0.901655
6002.701  6002.700  1.000  2.473028  80.607036  6.797521  0.883566
6002.953  6002.950  1.000  2.494474  80.604680  6.653096  0.860319
6003.206  6003.200  1.000  2.516609  80.591321  6.506372  0.841683
6003.452  6003.450  1.000  2.538548  80.616268  6.367154  0.819666
6003.704  6003.700  1.000  2.561060  80.553398  6.220565  0.800432
6003.951  6003.950  1.000  2.583036  80.534953  6.083959  0.779543
6004.200  6004.200  1.000  2.605953  80.519486  5.944975  0.757274
6004.445  6004.450  1.000  2.628958  80.530226  5.810548  0.739309
6004.700  6004.700  1.000  2.653244  80.502585  5.669186  0.716451
6004.951  6004.950  1.000  2.676825  80.473462  5.535062  0.702260
6005.204  6005.200  1.000  2.699266  80.496577  5.413787  0.683678
6005.453  6005.450  1.000  2.721405  80.462261  5.292990  0.666765
6005.704  6005.700  1.000  2.742779  80.446882  5.180070  0.651046
6005.954  6005.950  1.000  2.762532  80.429454  5.077652  0.637053
6006.205  6006.200  1.000  2.779188  80.448706  4.994970  0.621397
6006.450  6006.450  1.000  2.792862  80.416904  4.925186  0.614598
6006.698  6006.700  1.000  2.801776  80.377759  4.879105  0.607227
6006.948  6006.950  1.000  2.806594  80.369087  4.855127  0.599207
6007.197  6007.200  1.000  2.807537  80.365460  4.850333  0.599077
6007.450  6007.450  1.000  2.805457  80.345926  4.859253  0.598020
6007.701  6007.700  1.000  2.801131  80.358568  4.881085  0.596695
6007.954  6007.950  1.000  2.795614  80.309882  4.905114  0.598916
6008.205  6008.200  1.000  2.789966  80.323392  4.933728  0.600510
6008.455  6008.450  1.000  2.783563  80.319290  4.965165  0.602820
6008.703  6008.700  1.000  2.776379  80.246887  4.996457  0.604028
6008.947  6008.950  1.000  2.768811  80.254184  5.034871  0.607520
6009.198  6009.200  1.000  2.760351  80.246581  5.077166  0.609324
6009.445  6009.450  1.000  2.751716  80.190921  5.117643  0.611073
6009.701  6009.700  1.000  2.743248  80.202649  5.161920  0.620618
6009.953  6009.950  1.000  2.735116  80.189960  5.203245  0.624389
6010.204  6010.200  1.000  2.727474  80.182353  5.242664  0.633424
6010.455  6010.450  1.000  2.719431  80.167364  5.284009  0.638487
6010.707  6010.700  1.000  2.711241  80.181828  5.328424  0.646660
6010.954  6010.950  1.000  2.702940  80.166300  5.371803  0.656465
6011.204  6011.200  1.000  2.695099  80.154935  5.413321  0.665490
6011.452  6011.450  1.000  2.687767  80.168910  5.454107  0.670338
6011.699  6011.700  1.000  2.681035  80.087287  5.485355  0.678580
6011.948  6011.950  1.000  2.674695  80.067391  5.518875  0.686271
6012.200  6012.200  1.000  2.669078  80.051785  5.548879  0.698281
6012.453  6012.450  1.000  2.664783  80.073721  5.574286  0.700629
6012.704  6012.700  1.000  2.661678  80.073539  5.591612  0.707315
6012.956  6012.950  1.000  2.660219  80.053822  5.598396  0.708365
6013.205  6013.200  1.000  2.660658  79.994131  5.591764  0.713735
6013.453  6013.450  1.000  2.662358  80.026450  5.584526  0.711171
6013.704  6013.700  1.000  2.664992  80.005931  5.568407  0.709045
6013.951  6013.950  1.000  2.668631  79.977626  5.546216  0.711112
6014.201  6014.200  1.000  2.672130  79.978548  5.526908  0.707790
6014.445  6014.450  1.000  2.675801  79.962724  5.505567  0.707042
6014.700  6014.700  1.000  2.678910  79.954399  5.487907  0.703791
6014.950  6014.950  1.000  2.681844  79.959283  5.472163  0.700318
6015.202  6015.200  1.000  2.684861  79.946713  5.454819  0.699977
6015.454  6015.450  1.000  2.686778  79.896668  5.440964  0.697474
6015.708  6015.700  1.000  2.688562  79.919513  5.432821  0.695422
6015.955  6015.950  1.000  2.689072  79.903263  5.428947  0.690881
6016.204  6016.200  1.000  2.688936  79.871294  5.427509  0.691961
6016.451  6016.450  1.000  2.688344  79.844050  5.428870  0.691609
6016.697  6016.700  1.000  2.686987  79.827631  5.435128  0.692640
6016.949  6016.950  1.000  2.685576  79.796426  5.440673  0.690708
6017.198  6017.200  1.000  2.683828  79.819151  5.451743  0.692065
6017.452  6017.450  1.000  2.682595  79.812309  5.458003  0.688742
6017.704  6017.700  1.000  2.681674  79.804086  5.462466  0.689040
6017.955  6017.950  1.000  2.681110  79.780731  5.463950  0.684086
6018.205  6018.200  1.000  2.680847  79.755521  5.463660  0.684962
6018.457  6018.450  1.000  2.681328  79.773733  5.462279  0.683508
6018.705  6018.700  1.000  2.682011  79.750532  5.456964  0.681550
6018.953  6018.950  1.000  2.683383  79.732454  5.448244  0.682103
6019.205  6019.200  1.000  2.684256  79.751690  5.444804  0.682569
6020.300  6020.280  1.000  2.687077  79.678672  5.424498  0.678058
6021.385  6021.380  1.000  2.684863  79.664728  5.435567  0.683550
6022.499  6022.490  1.000  2.682165  79.593090  5.445351  0.688228
6023.643  6023.630  1.000  2.678254  79.551675  5.463847  0.692572
6024.790  6024.780  1.000  2.666296  79.524499  5.527687  0.699250
6025.972  6025.960  1.000  2.641195  79.468902  5.664230  0.712568
6027.157  6027.150  1.000  2.608815  79.392528  5.845016  0.728907
6028.371  6028.360  1.000  2.577282  79.335935  6.027962  0.747507
6029.595  6029.590  1.000  2.551795  79.285502  6.179643  0.764136
6030.849  6030.840  1.000  2.534053  79.371945  6.297117  0.776934
6032.119  6032.110  1.000  2.522146  79.463311  6.379882  0.787202
6033.410  6033.400  1.000  2.513683  79.402647  6.429188  0.794745
6034.721  6034.710  1.000  2.508131  79.332847  6.459301  0.797538
6036.036  6036.030  1.000  2.504892  79.225373  6.471477  0.797867
6037.390  6037.380  1.000  2.502639  79.176073  6.482042  0.796717
6038.745  6038.740  1.000  2.499954  79.137879  6.496334  0.793061
6040.140  6040.130  1.000  2.496816  79.089434  6.512759  0.798517
6041.537  6041.530  1.000  2.496767  78.982451  6.504266  0.801716
6042.956  6042.950  1.000  2.500063  78.903865  6.476413  0.801771
6044.399  6044.390  1.000  2.506798  78.824394  6.426468  0.798219
6045.851  6045.850  1.000  2.517123  78.745969  6.354123  0.790017
6047.340  6047.330  1.000  2.530030  78.671130  6.266675  0.783564
6048.835  6048.830  1.000  2.542603  78.610758  6.183629  0.779546
6050.346  6050.340  1.000  2.551186  78.522690  6.123915  0.781218
6051.884  6051.880  1.000  2.555683  78.420868  6.088533  0.780944
6053.444  6053.440  1.000  2.555962  78.308655  6.078123  0.789135
6055.018  6055.010  1.000  2.553356  78.177062  6.083746  0.795629
6056.607  6056.600  1.000  2.548414  78.043837  6.103465  0.805630
6058.218  6058.210  1.000  2.543506  77.935520  6.124984  0.804215
6059.858  6059.850  1.000  2.540877  77.794593  6.129999  0.814318
6061.506  6061.500  1.000  2.540882  77.622104  6.116377  0.813622
6063.177  6063.170  1.000  2.542714  77.499915  6.095574  0.807622
6064.857  6064.850  1.000  2.545943  77.428235  6.070304  0.811567
6066.564  6066.560  1.000  2.549378  77.350790  6.043435  0.785088
6068.297  6068.290  1.000  2.552583  77.231812  6.014831  0.777396
6070.038  6070.030  1.000  2.555315  77.116490  5.989464  0.770918
6071.801  6071.800  1.000  2.557205  76.996900  5.968887  0.764191
6073.586  6073.580  1.000  2.558138  76.921935  5.957514  0.765829
6075.386  6075.380  1.000  2.557402  76.806220  5.952931  0.774643
6077.211  6077.200  1.000  2.555196  76.678082  5.956124  0.784600
6079.044  6079.040  1.000  2.551706  76.558436  5.967623  0.795825
6080.908  6080.900  1.000  2.547391  76.424821  5.982965  0.807392
6082.787  6082.780  1.000  2.542136  76.302156  6.004836  0.811095
6084.687  6084.680  1.000  2.535926  76.196935  6.033910  0.825704
6086.608  6086.600  1.000  2.528923  76.026550  6.062730  0.828472
6088.537  6088.530  1.000  2.520460  75.894465  6.103631  0.827403
6090.496  6090.490  1.000  2.510838  75.800618  6.155022  0.821447
6092.466  6092.460  1.000  2.500415  75.636122  6.206015  0.811438
6094.470  6094.460  1.000  2.490718  75.471649  6.252861  0.808842
6096.473  6096.470  1.000  2.483099  75.315665  6.287659  0.807989
6098.511  6098.500  1.000  2.477296  75.181676  6.313006  0.797992
6100.557  6100.550  1.000  2.472167  74.989304  6.329229  0.801737
6102.627  6102.620  1.000  2.468511  74.806862  6.336958  0.808305
6104.703  6104.710  1.000  2.466104  74.650004  6.338909  0.818616
6106.817  6106.810  1.000  2.463709  74.479294  6.339576  0.837100
6108.951  6108.940  1.000  2.461533  74.330240  6.340670  0.852327
6111.098  6111.090  1.000  2.458837  74.115166  6.339397  0.865571
6113.263  6113.250  1.000  2.455751  73.987195  6.348009  0.874336
6115.443  6115.430  1.000  2.454032  73.795240  6.342430  0.877324
6117.648  6117.640  1.000  2.453767  73.559855  6.323878  0.879711
6119.865  6119.860  1.000  2.453724  73.386531  6.309245  0.873595
6122.091  6122.100  1.000  2.453273  73.181268  6.294440  0.871777
6124.355  6124.360  1.000  2.452173  72.991311  6.285011  0.872798
6126.655  6126.640  1.000  2.450739  72.776803  6.275533  0.873897
6128.953  6128.940  1.000  2.449020  72.529553  6.264969  0.881468
6131.264  6131.250  1.000  2.445427  72.304064  6.267977  0.882481
6133.609  6133.590  1.000  2.439873  72.083216  6.283634  0.890414
6135.952  6135.940  1.000  2.433125  71.868566  6.307341  0.894259
6138.311  6138.320  1.000  2.428037  71.594482  6.315335  0.896756
6140.698  6140.710  1.000  2.425336  71.314068  6.307614  0.897915
6143.136  6143.120  1.000  2.424906  71.074298  6.289113  0.893856
6145.540  6145.550  1.000  2.425548  70.771960  6.258340  0.887554
6147.999  6148.000  1.000  2.425795  70.444847  6.227876  0.878393
6150.467  6150.470  1.000  2.425879  70.130255  6.199542  0.872222
6152.947  6152.960  1.000  2.425237  69.741074  6.169096  0.867734
6155.455  6155.470  1.000  2.424092  69.278119  6.135164  0.866526
6157.979  6157.990  1.000  2.423097  68.554197  6.077101  0.853259
6160.533  6160.540  1.000  2.421411  67.103746  5.958563  0.831663
6163.093  6163.100  1.000  2.418824  65.517170  5.832749  0.810595
6165.684  6165.690  1.000  2.415338  64.589723  5.770258  0.799458
6168.277  6168.290  1.000  2.412064  69.102657  6.193678  0.858830
6170.894  6170.910  1.000  2.406788  68.703030  6.190437  0.869455
6173.536  6173.550  1.000  2.401020  68.269493  6.186955  0.876465
6176.194  6176.210  1.000  2.394298  67.815744  6.187283  0.885554
6178.875  6178.890  1.000  2.387890  67.374879  6.186581  0.895195
6181.579  6181.590  1.000  2.381163  66.984083  6.192208  0.903356
6184.301  6184.310  1.000  2.375080  66.573613  6.191815  0.910296
6187.029  6187.040  1.000  2.369406  66.158199  6.188192  0.909286
