# XDI/1.0 BlueSky/1.5.3
# Beamline.name: 6BM
# Beamline.xray_source: NSLS-II three-pole wiggler
# Beamline.collimation: paraboloid mirror, 5 nm Rh on 30 nm Pt
# Beamline.focusing: not in use
# Beamline.harmonic_rejection: flat mirror, Si stripe, pitch = 7.0 mrad relative to beam
# Detector.i0: 10 cm N2
# Detector.i1: 25 cm N2
# Detector.i2: 25 cm N2
# Element.symbol: Cr
# Element.edge: K
# Facility.name: NSLS-II
# Facility.energy: 3.0
# Facility.current: 400.5
# Facility.mode: top-off
# Facility.gup: 305882
# Facility.saf: 305422
# Facility.cycle: 2020-1
# Mono.name: Si(111)
# Mono.d_spacing: 3.1353241
# Mono.encoder_resolution: 0.0000050 deg/ct
# Mono.angle_offset: 16.0581090 deg
# Mono.scan_mode: fixed exit
# Mono.scan_type: step
# Mono.direction: forward in energy
# Sample.name: Cr2O3
# Sample.prep: powder on tape
# Sample.x_position: -74.438 mm
# Sample.y_position: 112.405 mm
# Scan.experimenters: Sarah Nicholas, Bruce Ravel
# Scan.edge_energy: 5989.0
# Scan.start_time: 2020-01-29T15:17:01
# Scan.end_time: 2020-01-29T20:16:54
# Scan.transient_id: 20487
# Scan.uid: d72a1d38-86fd-4137-9b32-218181245c06
# Scan.plot_hint: ln(I0/It)  --  ln($5/$6)
# Scan.sequence: merge of 9 scans
# Column.1: energy eV
# Column.2: requested_energy eV
# Column.3: measurement_time seconds
# Column.4: mutrans
# Column.5: i0
# Column.6: itrans
# Column.7: irefer
# /////
#  Fisher, ground in AW M&P
# -----
# energy   requested_energy   measurement_time   mutrans   i0   itrans   irefer
5789.003000 5789.000000 0.500000 1.816430 47.730783 7.761394 1.394561
5799.009000 5799.000000 0.500000 1.804119 47.684372 7.849818 1.422561
5809.012000 5809.000000 0.500000 1.791811 47.666166 7.943957 1.452589
5819.015000 5819.000000 0.500000 1.779475 47.599864 8.031374 1.481308
5829.013000 5829.000000 0.500000 1.767444 47.525705 8.115904 1.510032
5839.012000 5839.000000 0.500000 1.755370 47.442849 8.200159 1.538879
5849.011000 5849.000000 0.500000 1.743224 47.317279 8.278399 1.567310
5859.010000 5859.000000 0.500000 1.731187 47.121051 8.343907 1.592691
5869.006000 5869.000000 0.500000 1.719240 45.970163 8.237918 1.586378
5879.010000 5879.000000 0.500000 1.707368 47.463130 8.607084 1.671401
5889.009000 5889.000000 0.500000 1.695634 47.169783 8.654860 1.694696
5899.006000 5899.000000 0.500000 1.684139 46.997705 8.722957 1.722238
5909.008000 5909.000000 0.500000 1.672235 46.748981 8.780720 1.747646
5919.000000 5919.000000 0.500000 1.661043 34.935387 6.635587 1.331305
5928.999000 5929.000000 0.500000 1.649110 45.185159 8.684742 1.757148
5938.997000 5939.000000 0.500000 1.637600 46.276114 8.998246 1.834467
5948.995000 5949.000000 0.500000 1.626334 46.844678 9.211952 1.893202
5959.012000 5959.000000 0.500000 1.615101 46.497679 9.247118 1.915346
5961.003000 5961.000000 0.500000 1.612896 46.427659 9.253515 1.919183
5963.001000 5963.000000 0.500000 1.610629 46.376235 9.264265 1.924599
5964.994000 5965.000000 0.500000 1.608392 46.348465 9.279370 1.930289
5966.992000 5967.000000 0.500000 1.606285 46.292118 9.287610 1.935513
5968.997000 5969.000000 0.500000 1.604087 46.246087 9.298855 1.940174
5970.998000 5971.000000 0.500000 1.602009 46.178017 9.304464 1.944417
5972.999000 5973.000000 0.500000 1.599781 46.119676 9.313446 1.948672
5974.995000 5975.000000 0.500000 1.597678 46.052708 9.319459 1.952736
5977.003000 5977.000000 0.500000 1.595504 46.002764 9.329689 1.957058
5979.002000 5979.000000 0.500000 1.593411 45.927090 9.333834 1.960004
5979.241000 5979.250000 0.500000 1.593232 45.936332 9.337368 1.961079
5979.489000 5979.500000 0.500000 1.592924 45.911946 9.335280 1.961030
5979.736000 5979.750000 0.500000 1.592668 45.908417 9.336939 1.961922
5979.990000 5980.000000 0.500000 1.592408 45.908383 9.339387 1.962205
5980.238000 5980.250000 0.500000 1.592168 45.894718 9.338833 1.962597
5980.489000 5980.500000 0.500000 1.591873 45.886884 9.340004 1.963126
5980.738000 5980.750000 0.500000 1.591633 45.882868 9.341426 1.963406
5980.988000 5981.000000 0.500000 1.591440 45.865978 9.339791 1.963468
5981.240000 5981.250000 0.500000 1.591164 45.852253 9.339572 1.963771
5981.490000 5981.500000 0.500000 1.590906 45.839836 9.339452 1.963392
5981.740000 5981.750000 0.500000 1.590623 45.824469 9.338963 1.963713
5981.992000 5982.000000 0.500000 1.590391 45.795069 9.335148 1.963170
5982.243000 5982.250000 0.500000 1.590149 45.789900 9.336357 1.963220
5982.495000 5982.500000 0.500000 1.589894 45.770952 9.334897 1.963453
5982.739000 5982.750000 0.500000 1.589661 45.766509 9.336117 1.963775
5982.991000 5983.000000 0.500000 1.589404 45.743461 9.333831 1.963170
5983.240000 5983.250000 0.500000 1.589107 45.716576 9.331093 1.962511
5983.491000 5983.500000 0.500000 1.588862 45.691298 9.328225 1.962563
5983.740000 5983.750000 0.500000 1.588695 45.664998 9.324424 1.961464
5983.990000 5984.000000 0.500000 1.588406 45.642545 9.322513 1.960875
5984.241000 5984.250000 0.500000 1.588218 45.622381 9.320149 1.960847
5984.492000 5984.500000 0.500000 1.587981 45.603694 9.318540 1.960038
5984.742000 5984.750000 0.500000 1.587676 45.577683 9.316073 1.959512
5984.998000 5985.000000 0.500000 1.587516 45.544107 9.310737 1.958234
5985.247000 5985.250000 0.500000 1.587297 45.507112 9.305206 1.956815
5985.499000 5985.500000 0.500000 1.587033 45.473639 9.300831 1.955214
5985.745000 5985.750000 0.500000 1.586807 45.434081 9.294814 1.953894
5985.997000 5986.000000 0.500000 1.586589 45.399818 9.289829 1.952214
5986.247000 5986.250000 0.500000 1.586366 45.367120 9.285210 1.950703
5986.496000 5986.500000 0.500000 1.586161 45.318431 9.277122 1.948055
5986.745000 5986.750000 0.500000 1.585993 45.259674 9.266664 1.944619
5986.998000 5987.000000 0.500000 1.585737 45.203553 9.257555 1.941587
5987.249000 5987.250000 0.500000 1.585611 45.124892 9.242607 1.936730
5987.500000 5987.500000 0.500000 1.585416 45.060214 9.231173 1.932341
5987.749000 5987.750000 0.500000 1.585253 44.976471 9.215503 1.926168
5987.997000 5988.000000 0.500000 1.585109 44.875916 9.196212 1.918344
5988.249000 5988.250000 0.500000 1.585006 44.754217 9.172222 1.906969
5988.500000 5988.500000 0.500000 1.584954 44.604897 9.142096 1.891351
5988.747000 5988.750000 0.500000 1.584943 44.439502 9.108297 1.870534
5988.995000 5989.000000 0.500000 1.584976 44.238481 9.066792 1.844403
5989.243000 5989.250000 0.500000 1.585196 43.989251 9.013762 1.811919
5989.493000 5989.500000 0.500000 1.585784 43.647006 8.938430 1.774645
5989.745000 5989.750000 0.500000 1.586629 43.188880 8.837134 1.735995
5989.996000 5990.000000 0.500000 1.587881 42.516860 8.688756 1.693407
5990.250000 5990.250000 0.500000 1.589048 41.537252 8.478533 1.641202
5990.500000 5990.500000 0.500000 1.589750 40.099153 8.179286 1.572871
5990.751000 5990.750000 0.500000 1.589733 38.067979 7.765127 1.483840
5991.000000 5991.000000 0.500000 1.589185 35.771169 7.300610 1.386891
5991.249000 5991.250000 0.500000 1.588250 33.922292 6.929726 1.308787
5991.496000 5991.500000 0.500000 1.587548 33.326921 6.812829 1.279692
5991.747000 5991.750000 0.500000 1.587423 34.453955 7.044138 1.315475
5991.993000 5992.000000 0.500000 1.588051 37.310950 7.623513 1.417417
5992.247000 5992.250000 0.500000 1.588442 41.128500 8.400190 1.554824
5992.500000 5992.500000 0.500000 1.589365 44.065044 8.991674 1.657793
5992.753000 5992.750000 0.500000 1.590526 45.550499 9.283877 1.704252
5993.003000 5993.000000 0.500000 1.591816 46.138440 9.391606 1.718205
5993.252000 5993.250000 0.500000 1.593018 46.393085 9.432173 1.719981
5993.501000 5993.500000 0.500000 1.594162 46.476945 9.438436 1.717082
5993.749000 5993.750000 0.500000 1.594919 46.525313 9.441139 1.713804
5993.998000 5994.000000 0.500000 1.595179 46.526893 9.439006 1.710215
5994.246000 5994.250000 0.500000 1.595044 46.505287 9.435883 1.708045
5994.496000 5994.500000 0.500000 1.594558 46.481931 9.435680 1.707048
5994.748000 5994.750000 0.500000 1.593905 46.448031 9.434950 1.706569
5994.999000 5995.000000 0.500000 1.593386 46.431805 9.436582 1.707541
5995.253000 5995.250000 0.500000 1.593000 46.391170 9.432018 1.707477
5995.503000 5995.500000 0.500000 1.592777 46.374243 9.430655 1.708131
5995.753000 5995.750000 0.500000 1.592769 46.354888 9.426791 1.708564
5996.003000 5996.000000 0.500000 1.592853 46.343813 9.423764 1.708539
5996.252000 5996.250000 0.500000 1.592863 46.309123 9.416598 1.706152
5996.499000 5996.500000 0.500000 1.593043 46.293877 9.411825 1.703520
5996.746000 5996.750000 0.500000 1.593362 46.286374 9.407325 1.697693
5996.998000 5997.000000 0.500000 1.593959 46.268078 9.397980 1.689709
5997.247000 5997.250000 0.500000 1.595038 46.235833 9.381403 1.678092
5997.500000 5997.500000 0.500000 1.596529 46.213671 9.362815 1.663432
5997.752000 5997.750000 0.500000 1.598535 46.204539 9.342124 1.648458
5997.999000 5998.000000 0.500000 1.601131 46.187283 9.314669 1.631081
5998.252000 5998.250000 0.500000 1.604374 46.172253 9.281005 1.612188
5998.503000 5998.500000 0.500000 1.608499 46.151874 9.238429 1.592301
5998.750000 5998.750000 0.500000 1.613553 46.139586 9.189975 1.571996
5999.001000 5999.000000 0.500000 1.619594 46.105904 9.127724 1.549043
5999.251000 5999.250000 0.500000 1.626403 46.081652 9.061167 1.525770
5999.500000 5999.500000 0.500000 1.633886 46.072399 8.992257 1.503020
5999.749000 5999.750000 0.500000 1.641880 46.062912 8.919064 1.480359
6000.000000 6000.000000 0.500000 1.650001 46.053952 8.845160 1.458896
6000.250000 6000.250000 0.500000 1.657943 46.044887 8.773259 1.437623
6000.501000 6000.500000 0.500000 1.665929 46.022969 8.699230 1.417558
6000.753000 6000.750000 0.500000 1.673524 46.015549 8.631508 1.399167
6001.000000 6001.000000 0.500000 1.680483 45.994617 8.568198 1.382445
6001.251000 6001.250000 0.500000 1.686317 45.983941 8.516334 1.367654
6001.500000 6001.500000 0.500000 1.690257 45.974250 8.481298 1.355853
6001.749000 6001.750000 0.500000 1.692623 45.965729 8.459579 1.347252
6002.000000 6002.000000 0.500000 1.694159 45.960770 8.445576 1.339097
6002.251000 6002.250000 0.500000 1.695775 45.932128 8.426700 1.330975
6002.503000 6002.500000 0.500000 1.697967 45.935086 8.408718 1.323579
6002.752000 6002.750000 0.500000 1.701154 45.921198 8.379480 1.314219
6003.003000 6003.000000 0.500000 1.705391 45.911166 8.341953 1.304186
6003.252000 6003.250000 0.500000 1.710780 45.904450 8.296209 1.292565
6003.503000 6003.500000 0.500000 1.717237 45.883558 8.238825 1.279364
6003.751000 6003.750000 0.500000 1.724287 45.870733 8.179124 1.266306
6004.002000 6004.000000 0.500000 1.731489 45.863207 8.118853 1.253370
6004.250000 6004.250000 0.500000 1.738425 45.845482 8.060132 1.240624
6004.498000 6004.500000 0.500000 1.744814 45.833001 8.006763 1.228641
6004.749000 6004.750000 0.500000 1.750743 45.820264 7.957001 1.217352
6004.999000 6005.000000 0.500000 1.756797 45.811881 7.907469 1.206112
6005.250000 6005.250000 0.500000 1.763565 45.806502 7.853321 1.193953
6005.500000 6005.500000 0.500000 1.771446 45.803713 7.791161 1.180816
6005.752000 6005.750000 0.500000 1.780900 45.788461 7.714613 1.164883
6006.005000 6006.000000 0.500000 1.791447 45.764018 7.628981 1.148039
6006.253000 6006.250000 0.500000 1.802370 45.759462 7.546118 1.131946
6006.504000 6006.500000 0.500000 1.812550 45.756744 7.469390 1.116747
6006.751000 6006.750000 0.500000 1.820573 45.747946 7.409259 1.104130
6007.000000 6007.000000 0.500000 1.826143 45.750029 7.368265 1.094843
6007.252000 6007.250000 0.500000 1.829446 45.731359 7.340797 1.087625
6007.501000 6007.500000 0.500000 1.830396 45.709729 7.330370 1.082760
6007.749000 6007.750000 0.500000 1.829755 45.703594 7.334027 1.079375
6008.002000 6008.000000 0.500000 1.827854 45.703268 7.348085 1.076933
6008.253000 6008.250000 0.500000 1.825475 45.701915 7.365323 1.075359
6008.503000 6008.500000 0.500000 1.823175 45.675540 7.378041 1.073432
6008.751000 6008.750000 0.500000 1.821202 45.653042 7.388836 1.071736
6009.001000 6009.000000 0.500000 1.820183 45.653272 7.396370 1.070320
6009.248000 6009.250000 0.500000 1.820177 45.654565 7.396618 1.069153
6009.499000 6009.500000 0.500000 1.821670 45.647007 7.384445 1.066892
6009.748000 6009.750000 0.500000 1.824431 45.654764 7.365456 1.065085
6009.995000 6010.000000 0.500000 1.827960 45.647999 7.338796 1.063399
6010.249000 6010.250000 0.500000 1.832078 45.642459 7.307500 1.062088
6010.499000 6010.500000 0.500000 1.836266 45.635049 7.275765 1.061859
6010.751000 6010.750000 0.500000 1.839935 45.643695 7.250361 1.063080
6011.002000 6011.000000 0.500000 1.842711 45.637067 7.229064 1.065728
6011.255000 6011.250000 0.500000 1.844414 45.629621 7.215618 1.069388
6011.502000 6011.500000 0.500000 1.845158 45.618695 7.208658 1.073598
6011.754000 6011.750000 0.500000 1.844731 45.631008 7.213838 1.080383
6012.001000 6012.000000 0.500000 1.842742 45.616618 7.225811 1.087918
6012.252000 6012.250000 0.500000 1.839094 45.609550 7.251130 1.097020
6012.499000 6012.500000 0.500000 1.833885 45.613546 7.289149 1.108051
6012.751000 6012.750000 0.500000 1.827827 45.611681 7.333382 1.119363
6013.001000 6013.000000 0.500000 1.821393 45.620112 7.382051 1.130446
6013.251000 6013.250000 0.500000 1.815053 45.608976 7.427189 1.141044
6013.502000 6013.500000 0.500000 1.808911 45.599895 7.471621 1.150382
6013.752000 6013.750000 0.500000 1.803295 45.592765 7.512605 1.158789
6014.000000 6014.000000 0.500000 1.798385 45.589427 7.548571 1.166479
6015.000000 6014.990000 0.500000 1.784927 45.565954 7.646864 1.182470
6016.015000 6015.990000 0.500000 1.777792 45.530716 7.696061 1.184223
6017.007000 6017.010000 0.500000 1.769557 45.507388 7.755431 1.183728
6018.059000 6018.060000 0.500000 1.760063 45.485997 7.825669 1.184140
6019.122000 6019.120000 0.500000 1.753336 45.470092 7.875667 1.185413
6020.200000 6020.200000 0.500000 1.751532 45.438967 7.884506 1.187176
6021.307000 6021.300000 0.500000 1.755536 45.407603 7.847673 1.187293
6022.424000 6022.420000 0.500000 1.761008 45.370889 7.798692 1.187088
6023.572000 6023.560000 0.500000 1.763800 45.346890 7.772772 1.187177
6024.717000 6024.710000 0.500000 1.763520 45.333636 7.772701 1.184902
6025.896000 6025.890000 0.500000 1.759218 45.308446 7.801927 1.181338
6027.086000 6027.080000 0.500000 1.749278 45.272808 7.873567 1.184804
6028.304000 6028.300000 0.500000 1.737343 45.245281 7.963030 1.193080
6029.535000 6029.530000 0.500000 1.725999 45.209341 8.047414 1.201619
6030.786000 6030.780000 0.500000 1.716509 45.176637 8.118335 1.209452
6032.055000 6032.050000 0.500000 1.708920 45.148653 8.175045 1.217705
6033.347000 6033.340000 0.500000 1.702605 45.117867 8.221253 1.225014
6034.657000 6034.650000 0.500000 1.696627 45.079342 8.263484 1.231163
6035.991000 6035.980000 0.500000 1.690992 45.041865 8.303300 1.235194
6037.336000 6037.330000 0.500000 1.686961 44.993727 8.327829 1.235100
6038.710000 6038.700000 0.500000 1.684572 44.951941 8.340069 1.234042
6040.085000 6040.080000 0.500000 1.683096 44.933067 8.348834 1.236156
6041.499000 6041.490000 0.500000 1.683011 44.904838 8.344311 1.239163
6042.918000 6042.910000 0.500000 1.683906 44.862488 8.329001 1.242050
6044.361000 6044.350000 0.500000 1.683873 44.811331 8.319810 1.245489
6045.819000 6045.810000 0.500000 1.682359 44.766869 8.324124 1.249886
6047.297000 6047.290000 0.500000 1.681240 44.722316 8.325136 1.255981
6048.800000 6048.790000 0.500000 1.681594 44.684380 8.315133 1.262728
6050.316000 6050.310000 0.500000 1.683974 44.639812 8.287166 1.269057
6051.861000 6051.850000 0.500000 1.687884 44.582820 8.244261 1.274877
6053.417000 6053.410000 0.500000 1.691462 44.526422 8.204481 1.279901
6054.987000 6054.980000 0.500000 1.693523 44.455876 8.174638 1.285505
6056.589000 6056.580000 0.500000 1.695204 44.381885 8.147331 1.289107
6058.192000 6058.190000 0.500000 1.697798 44.312593 8.113636 1.290442
6059.838000 6059.830000 0.500000 1.700432 44.237880 8.078568 1.289379
6061.486000 6061.480000 0.500000 1.702625 44.157447 8.046269 1.285132
6063.154000 6063.150000 0.500000 1.704325 44.095595 8.021351 1.277859
6064.849000 6064.840000 0.500000 1.704356 44.047218 8.012316 1.269752
6066.556000 6066.550000 0.500000 1.703590 44.004127 8.010579 1.259301
6068.285000 6068.280000 0.500000 1.702699 43.956121 8.008956 1.247925
6070.037000 6070.030000 0.500000 1.701509 43.894463 8.007241 1.236978
6071.795000 6071.790000 0.500000 1.698995 43.836279 8.016709 1.234331
6073.585000 6073.580000 0.500000 1.695280 43.800907 8.039987 1.244185
6075.388000 6075.380000 0.500000 1.691411 43.750354 8.061891 1.259695
6077.218000 6077.210000 0.500000 1.687961 43.681471 8.076978 1.276474
6079.053000 6079.050000 0.500000 1.684741 43.604619 8.088717 1.293343
6080.917000 6080.910000 0.500000 1.680465 43.554304 8.114031 1.312747
6082.799000 6082.790000 0.500000 1.675379 43.479157 8.141300 1.330579
6084.696000 6084.690000 0.500000 1.670284 43.427091 8.173046 1.343441
6086.616000 6086.610000 0.500000 1.665710 43.360834 8.198036 1.345684
6088.557000 6088.550000 0.500000 1.661095 43.293089 8.223065 1.337452
6090.514000 6090.510000 0.500000 1.656294 43.213499 8.247363 1.321829
6092.486000 6092.480000 0.500000 1.651699 43.141742 8.271600 1.304483
6094.486000 6094.480000 0.500000 1.648125 43.055174 8.284573 1.286527
6096.504000 6096.490000 0.500000 1.646056 42.994694 8.290112 1.270307
6098.528000 6098.520000 0.500000 1.645126 42.914852 8.282379 1.258780
6100.585000 6100.580000 0.500000 1.643938 42.828053 8.275451 1.257576
6102.658000 6102.650000 0.500000 1.642114 42.760805 8.277603 1.269990
6104.749000 6104.740000 0.500000 1.639551 42.670535 8.281286 1.289928
6106.862000 6106.850000 0.500000 1.636419 42.574058 8.288510 1.314637
6108.984000 6108.980000 0.500000 1.633060 42.489940 8.299873 1.340612
6111.126000 6111.120000 0.500000 1.629744 42.390641 8.308010 1.362146
6113.298000 6113.290000 0.500000 1.626923 42.300237 8.313725 1.377327
6115.488000 6115.480000 0.500000 1.624760 42.189689 8.309927 1.383839
6117.690000 6117.680000 0.500000 1.623202 42.088486 8.302944 1.383713
6119.904000 6119.900000 0.500000 1.621141 41.976858 8.297963 1.381313
6122.156000 6122.150000 0.500000 1.618475 41.850780 8.295178 1.378858
6124.418000 6124.410000 0.500000 1.615655 41.761724 8.300879 1.380915
6126.702000 6126.690000 0.500000 1.612986 41.657301 8.302258 1.386437
6129.000000 6128.990000 0.500000 1.610443 41.532813 8.298503 1.394454
6131.315000 6131.310000 0.500000 1.608162 41.406813 8.292184 1.401061
6133.655000 6133.650000 0.500000 1.606441 41.275859 8.280207 1.405288
6136.006000 6136.000000 0.500000 1.605280 41.152193 8.264997 1.405212
6138.389000 6138.380000 0.500000 1.603971 41.010172 8.247269 1.402132
6140.776000 6140.770000 0.500000 1.602741 40.882837 8.231773 1.398986
6143.199000 6143.190000 0.500000 1.601294 40.738452 8.214585 1.395772
6145.626000 6145.620000 0.500000 1.599375 40.578973 8.198130 1.390844
6148.078000 6148.070000 0.500000 1.596866 40.411145 8.184749 1.382985
6150.557000 6150.550000 0.500000 1.593657 40.241653 8.176616 1.377832
6153.049000 6153.040000 0.500000 1.589955 40.032406 8.164267 1.374872
6155.558000 6155.550000 0.500000 1.587112 39.786287 8.137160 1.370020
6158.078000 6158.070000 0.500000 1.585594 39.391588 8.068678 1.354627
6160.628000 6160.620000 0.500000 1.584641 38.629359 7.920094 1.321337
6163.197000 6163.190000 0.500000 1.582831 37.089661 7.618244 1.261415
6165.781000 6165.770000 0.500000 1.580896 36.625164 7.537396 1.244566
6168.387000 6168.380000 0.500000 1.577956 39.527033 8.158502 1.352486
6171.008000 6171.000000 0.500000 1.573636 39.373120 8.161920 1.366163
6173.662000 6173.650000 0.500000 1.568457 39.137085 8.155181 1.380620
6176.317000 6176.310000 0.500000 1.563695 38.920253 8.148624 1.394505
6179.002000 6178.990000 0.500000 1.560286 38.694494 8.129029 1.404511
6181.700000 6181.690000 0.500000 1.557762 38.473394 8.102995 1.410732
6184.434000 6184.410000 0.500000 1.555090 38.255830 8.078854 1.414435
6187.173000 6187.150000 0.500000 1.551936 38.032577 8.057084 1.415649
6189.925000 6189.900000 0.500000 1.548638 37.813034 8.037056 1.415761
6192.694000 6192.680000 0.500000 1.545190 37.592660 8.017740 1.416751
6195.477000 6195.470000 0.500000 1.540831 37.359788 8.002793 1.419169
