# XDI/1.0 BlueSky/1.5.3
# Beamline.name: 6BM
# Beamline.xray_source: NSLS-II three-pole wiggler
# Beamline.collimation: paraboloid mirror, 5 nm Rh on 30 nm Pt
# Beamline.focusing: not in use
# Beamline.harmonic_rejection: flat mirror, Si stripe, pitch = 7.0 mrad relative to beam
# Detector.i0: 10 cm N2
# Detector.i1: 25 cm N2
# Detector.i2: 25 cm N2
# Element.symbol: Cr
# Element.edge: K
# Facility.name: NSLS-II
# Facility.energy: 3.0
# Facility.current: 399.5
# Facility.mode: top-off
# Facility.gup: 305882
# Facility.saf: 305422
# Facility.cycle: 2020-1
# Mono.name: Si(111)
# Mono.d_spacing: 3.1353241
# Mono.encoder_resolution: 0.0000050 deg/ct
# Mono.angle_offset: 16.0581090 deg
# Mono.scan_mode: fixed exit
# Mono.scan_type: step
# Mono.direction: forward in energy
# Sample.name: CrO3
# Sample.prep: powder on tape 2x
# Sample.x_position: -74.438 mm
# Sample.y_position: 112.405 mm
# Scan.experimenters: Sarah Nicholas, Bruce Ravel
# Scan.edge_energy: 5989.0
# Scan.start_time: 2020-01-30T04:05:39
# Scan.end_time: 2020-01-30T06:21:35
# Scan.transient_id: 20574
# Scan.uid: f596814b-f7ea-4277-940d-597cfe298a50
# Scan.plot_hint: ln(I0/It)  --  ln($5/$6)
# Scan.sequence: merge of 16 scans
# Column.1: energy eV
# Column.2: requested_energy eV
# Column.3: measurement_time seconds
# Column.4: mutrans
# Column.5: i0
# Column.6: itrans
# Column.7: irefer
# /////
#  Sigma, ground in AW M&P
# -----
# energy   requested_energy   measurement_time   mutrans   i0   itrans   irefer
5789.000000 5789.000000 0.500000 3.184599 47.649044 1.972487 0.351959
5799.010000 5799.000000 0.500000 3.166011 47.638360 2.008973 0.360845
5809.024000 5809.000000 0.500000 3.146631 47.596205 2.046534 0.371235
5819.011000 5819.000000 0.500000 3.127633 47.544298 2.083448 0.381171
5829.010000 5829.000000 0.500000 3.108603 47.458078 2.119623 0.391105
5839.013000 5839.000000 0.500000 3.089566 47.371887 2.156451 0.401279
5849.012000 5849.000000 0.500000 3.070802 47.256585 2.191949 0.411443
5859.007000 5859.000000 0.500000 3.052110 47.081846 2.225031 0.421466
5869.009000 5869.000000 0.500000 3.033630 45.940262 2.211585 0.422596
5879.007000 5879.000000 0.500000 3.015377 47.473970 2.327515 0.448494
5889.002000 5889.000000 0.500000 2.997058 47.221910 2.357941 0.458166
5899.008000 5899.000000 0.500000 2.979255 47.047196 2.391440 0.468340
5909.004000 5909.000000 0.500000 2.960913 46.811357 2.423491 0.478807
5919.002000 5919.000000 0.500000 2.943120 34.774496 1.832643 0.364621
5928.965000 5929.000000 0.500000 2.925122 45.061884 2.417790 0.485160
5938.991000 5939.000000 0.500000 2.907792 46.361769 2.531147 0.512407
5948.989000 5949.000000 0.500000 2.890086 46.903089 2.606442 0.531605
5958.996000 5959.000000 0.500000 2.873179 46.550385 2.630938 0.540958
5961.000000 5961.000000 0.500000 2.869911 46.495659 2.636493 0.542774
5962.993000 5963.000000 0.500000 2.866493 46.440748 2.642368 0.544728
5964.994000 5965.000000 0.500000 2.863122 46.390160 2.648418 0.546944
5966.992000 5967.000000 0.500000 2.859915 46.330865 2.653528 0.548905
5968.993000 5969.000000 0.500000 2.856579 46.279274 2.659421 0.550929
5970.992000 5971.000000 0.500000 2.853436 46.213537 2.664003 0.552703
5972.996000 5973.000000 0.500000 2.850179 46.161120 2.669678 0.554269
5974.995000 5975.000000 0.500000 2.846991 46.091989 2.674184 0.555968
5976.997000 5977.000000 0.500000 2.844153 46.016703 2.677403 0.557586
5978.995000 5979.000000 0.500000 2.841136 45.935841 2.680768 0.558908
5979.241000 5979.250000 0.500000 2.840937 45.926002 2.680745 0.559107
5979.488000 5979.500000 0.500000 2.840479 45.914413 2.681291 0.559179
5979.738000 5979.750000 0.500000 2.840138 45.892122 2.680908 0.559358
5979.990000 5980.000000 0.500000 2.839884 45.877565 2.680743 0.559261
5980.237000 5980.250000 0.500000 2.839562 45.871150 2.681222 0.559593
5980.489000 5980.500000 0.500000 2.839309 45.852854 2.680839 0.559245
5980.739000 5980.750000 0.500000 2.838900 45.840021 2.681182 0.559497
5980.991000 5981.000000 0.500000 2.838548 45.836148 2.681904 0.559417
5981.240000 5981.250000 0.500000 2.838259 45.821621 2.681828 0.559543
5981.487000 5981.500000 0.500000 2.837968 45.806769 2.681728 0.559816
5981.736000 5981.750000 0.500000 2.837746 45.796096 2.681699 0.559721
5981.989000 5982.000000 0.500000 2.837528 45.771799 2.680862 0.559668
5982.238000 5982.250000 0.500000 2.837208 45.746676 2.680250 0.559757
5982.489000 5982.500000 0.500000 2.836802 45.738583 2.680858 0.559587
5982.739000 5982.750000 0.500000 2.836695 45.724104 2.680305 0.559467
5982.993000 5983.000000 0.500000 2.836412 45.710507 2.680270 0.559538
5983.245000 5983.250000 0.500000 2.836210 45.694086 2.679852 0.559754
5983.495000 5983.500000 0.500000 2.835962 45.669358 2.679066 0.559388
5983.746000 5983.750000 0.500000 2.835653 45.651283 2.678823 0.559389
5983.996000 5984.000000 0.500000 2.835648 45.632755 2.677767 0.559274
5984.246000 5984.250000 0.500000 2.835272 45.611492 2.677513 0.559095
5984.495000 5984.500000 0.500000 2.835129 45.584944 2.676338 0.558689
5984.745000 5984.750000 0.500000 2.835001 45.559257 2.675172 0.558343
5984.993000 5985.000000 0.500000 2.835042 45.524869 2.673046 0.558274
5985.244000 5985.250000 0.500000 2.834845 45.490886 2.671564 0.557435
5985.493000 5985.500000 0.500000 2.834822 45.469589 2.670377 0.557468
5985.742000 5985.750000 0.500000 2.834880 45.438282 2.668390 0.557027
5985.996000 5986.000000 0.500000 2.834797 45.396997 2.666186 0.556120
5986.248000 5986.250000 0.500000 2.834933 45.355027 2.663353 0.555767
5986.496000 5986.500000 0.500000 2.835156 45.306725 2.659932 0.554560
5986.748000 5986.750000 0.500000 2.835013 45.254729 2.657249 0.553616
5986.996000 5987.000000 0.500000 2.835455 45.194127 2.652521 0.552697
5987.247000 5987.250000 0.500000 2.835666 45.133296 2.648393 0.550771
5987.494000 5987.500000 0.500000 2.836023 45.061659 2.643265 0.549477
5987.747000 5987.750000 0.500000 2.836592 44.975307 2.636684 0.547371
5987.994000 5988.000000 0.500000 2.837234 44.882028 2.629545 0.544698
5988.246000 5988.250000 0.500000 2.838137 44.761382 2.620111 0.541179
5988.496000 5988.500000 0.500000 2.839250 44.618585 2.608854 0.536226
5988.748000 5988.750000 0.500000 2.840368 44.460104 2.596650 0.530379
5988.999000 5989.000000 0.500000 2.841992 44.283047 2.582075 0.522111
5989.250000 5989.250000 0.500000 2.843941 44.035258 2.562588 0.512202
5989.497000 5989.500000 0.500000 2.846714 43.712819 2.536863 0.500797
5989.750000 5989.750000 0.500000 2.850415 43.272509 2.501938 0.488289
5989.995000 5990.000000 0.500000 2.854947 42.657419 2.455446 0.475578
5990.246000 5990.250000 0.500000 2.861300 41.744937 2.387713 0.459261
5990.497000 5990.500000 0.500000 2.870403 40.401085 2.290025 0.437411
5990.745000 5990.750000 0.500000 2.883053 38.483840 2.154200 0.408597
5990.997000 5991.000000 0.500000 2.902658 36.161370 1.984865 0.374312
5991.249000 5991.250000 0.500000 2.930883 34.155837 1.822067 0.341829
5991.504000 5991.500000 0.500000 2.965464 33.331581 1.716684 0.319746
5991.753000 5991.750000 0.500000 2.996313 34.197719 1.708174 0.316299
5992.003000 5992.000000 0.500000 3.020573 36.854665 1.796521 0.331456
5992.253000 5992.250000 0.500000 3.045309 40.625717 1.931728 0.354936
5992.500000 5992.500000 0.500000 3.081037 43.723077 2.007036 0.366901
5992.745000 5992.750000 0.500000 3.132120 45.407049 1.982791 0.361013
5992.998000 5993.000000 0.500000 3.192663 46.150360 1.896209 0.343942
5993.249000 5993.250000 0.500000 3.246346 46.416637 1.807343 0.327162
5993.496000 5993.500000 0.500000 3.278333 46.522788 1.754354 0.316175
5993.749000 5993.750000 0.500000 3.283024 46.556961 1.746678 0.314209
5994.004000 5994.000000 0.500000 3.261870 46.552922 1.785024 0.320535
5994.254000 5994.250000 0.500000 3.221451 46.536299 1.858976 0.333761
5994.504000 5994.500000 0.500000 3.168531 46.512288 1.958535 0.351302
5994.752000 5994.750000 0.500000 3.115291 46.488780 2.063561 0.370187
5994.999000 5995.000000 0.500000 3.069423 46.463853 2.157746 0.386933
5995.248000 5995.250000 0.500000 3.032650 46.431330 2.236680 0.401702
5995.495000 5995.500000 0.500000 3.004334 46.405244 2.299118 0.413093
5995.748000 5995.750000 0.500000 2.982040 46.377938 2.350339 0.422505
5995.997000 5996.000000 0.500000 2.963087 46.350849 2.393807 0.430924
5996.250000 5996.250000 0.500000 2.947038 46.315182 2.431170 0.437017
5996.502000 5996.500000 0.500000 2.933143 46.293589 2.464515 0.442742
5996.755000 5996.750000 0.500000 2.921657 46.272950 2.492098 0.446340
5997.002000 5997.000000 0.500000 2.912327 46.245505 2.513655 0.448704
5997.251000 5997.250000 0.500000 2.905219 46.221543 2.530081 0.449174
5997.498000 5997.500000 0.500000 2.899891 46.191822 2.541810 0.448631
5997.746000 5997.750000 0.500000 2.896124 46.166975 2.549929 0.446897
5997.999000 5998.000000 0.500000 2.893733 46.163928 2.555996 0.444642
5998.243000 5998.250000 0.500000 2.892656 46.135718 2.557160 0.441535
5998.498000 5998.500000 0.500000 2.892705 46.115760 2.556015 0.437760
5998.749000 5998.750000 0.500000 2.894011 46.090655 2.551301 0.433611
5999.005000 5999.000000 0.500000 2.896523 46.071749 2.543668 0.428893
5999.254000 5999.250000 0.500000 2.899935 46.066138 2.534698 0.424115
5999.503000 5999.500000 0.500000 2.904281 46.045458 2.522603 0.419022
5999.752000 5999.750000 0.500000 2.909382 46.025350 2.508746 0.413496
6000.000000 6000.000000 0.500000 2.915085 46.022888 2.494447 0.408454
6000.249000 6000.250000 0.500000 2.921498 46.015895 2.478297 0.403352
6000.496000 6000.500000 0.500000 2.928130 46.004306 2.461492 0.398456
6000.748000 6000.750000 0.500000 2.934904 45.985881 2.443778 0.393118
6000.997000 6001.000000 0.500000 2.941618 45.972577 2.426682 0.389031
6001.251000 6001.250000 0.500000 2.948553 45.958942 2.408934 0.384015
6001.503000 6001.500000 0.500000 2.955844 45.950852 2.390807 0.379490
6001.754000 6001.750000 0.500000 2.963206 45.946044 2.372967 0.375084
6002.007000 6002.000000 0.500000 2.970813 45.925205 2.353716 0.370301
6002.252000 6002.250000 0.500000 2.978431 45.924121 2.336178 0.366267
6002.501000 6002.500000 0.500000 2.985962 45.918844 2.318479 0.362066
6002.746000 6002.750000 0.500000 2.993543 45.908871 2.300819 0.358355
6002.998000 6003.000000 0.500000 3.001465 45.903383 2.282312 0.354029
6003.245000 6003.250000 0.500000 3.009465 45.898933 2.264063 0.350049
6003.499000 6003.500000 0.500000 3.018010 45.878196 2.243546 0.345745
6003.751000 6003.750000 0.500000 3.026331 45.875036 2.224621 0.341700
6004.002000 6004.000000 0.500000 3.034417 45.863819 2.206032 0.337792
6004.256000 6004.250000 0.500000 3.042655 45.850420 2.186940 0.333862
6004.504000 6004.500000 0.500000 3.051071 45.839830 2.168335 0.330180
6004.753000 6004.750000 0.500000 3.059416 45.837652 2.150317 0.326459
6004.998000 6005.000000 0.500000 3.067703 45.824792 2.132331 0.322838
6005.250000 6005.250000 0.500000 3.075558 45.824785 2.115644 0.318959
6005.495000 6005.500000 0.500000 3.083724 45.816193 2.098313 0.315438
6005.749000 6005.750000 0.500000 3.091925 45.806272 2.080472 0.311955
6005.999000 6006.000000 0.500000 3.100836 45.799913 2.061712 0.307807
6006.250000 6006.250000 0.500000 3.110473 45.793916 2.041552 0.304164
6006.504000 6006.500000 0.500000 3.121265 45.785934 2.018844 0.299382
6006.755000 6006.750000 0.500000 3.132915 45.771081 1.994752 0.294955
6007.006000 6007.000000 0.500000 3.145386 45.763960 1.969541 0.290185
6007.252000 6007.250000 0.500000 3.159150 45.757711 1.942796 0.285649
6007.504000 6007.500000 0.500000 3.174730 45.746881 1.912199 0.280219
6007.751000 6007.750000 0.500000 3.190627 45.742095 1.882205 0.274392
6007.999000 6008.000000 0.500000 3.206555 45.733727 1.852415 0.268953
6008.244000 6008.250000 0.500000 3.221099 45.723897 1.825743 0.264117
6008.500000 6008.500000 0.500000 3.233905 45.714977 1.801445 0.259666
6008.750000 6008.750000 0.500000 3.245285 45.710331 1.780735 0.256025
6009.003000 6009.000000 0.500000 3.254754 45.696607 1.763312 0.252644
6009.254000 6009.250000 0.500000 3.262455 45.688784 1.749436 0.250585
6009.504000 6009.500000 0.500000 3.268385 45.678959 1.738767 0.249027
6009.754000 6009.750000 0.500000 3.272712 45.664101 1.730737 0.247753
6010.002000 6010.000000 0.500000 3.276222 45.656616 1.724467 0.247289
6010.251000 6010.250000 0.500000 3.279427 45.649263 1.718713 0.247761
6010.499000 6010.500000 0.500000 3.282512 45.645597 1.713340 0.247421
6010.747000 6010.750000 0.500000 3.286888 45.638100 1.705644 0.247622
6010.996000 6011.000000 0.500000 3.291718 45.633120 1.697243 0.247755
6011.250000 6011.250000 0.500000 3.297587 45.616894 1.686594 0.247285
6011.501000 6011.500000 0.500000 3.303550 45.605655 1.676074 0.247258
6011.752000 6011.750000 0.500000 3.310539 45.600674 1.664196 0.246753
6012.002000 6012.000000 0.500000 3.317627 45.591650 1.652094 0.246375
6012.249000 6012.250000 0.500000 3.324759 45.580062 1.640105 0.245725
6012.505000 6012.500000 0.500000 3.332169 45.578186 1.627708 0.244871
6012.751000 6012.750000 0.500000 3.339126 45.564453 1.616156 0.244326
6013.003000 6013.000000 0.500000 3.345427 45.567945 1.606067 0.243545
6013.247000 6013.250000 0.500000 3.351617 45.559101 1.596029 0.242780
6013.502000 6013.500000 0.500000 3.357382 45.548929 1.586302 0.242034
6013.749000 6013.750000 0.500000 3.362922 45.539349 1.577280 0.241061
6014.000000 6014.000000 0.500000 3.367989 45.533306 1.569040 0.239888
6015.006000 6014.990000 0.500000 3.384753 45.509781 1.542114 0.236106
6015.984000 6015.990000 0.500000 3.395177 45.478708 1.525404 0.232475
6017.008000 6017.010000 0.500000 3.399464 45.447023 1.517538 0.229438
6018.057000 6018.060000 0.500000 3.396539 45.433595 1.521508 0.227824
6019.123000 6019.120000 0.500000 3.387447 45.409496 1.534615 0.228891
6020.203000 6020.200000 0.500000 3.378091 45.383336 1.548100 0.230881
6021.310000 6021.300000 0.500000 3.372403 45.351479 1.555902 0.233094
6022.422000 6022.420000 0.500000 3.369281 45.320728 1.559668 0.235023
6023.564000 6023.560000 0.500000 3.369836 45.285958 1.557623 0.235566
6024.717000 6024.710000 0.500000 3.375457 45.260043 1.547981 0.233380
6025.898000 6025.890000 0.500000 3.385837 45.237193 1.531181 0.229615
6027.086000 6027.080000 0.500000 3.399031 45.204983 1.510103 0.224535
6028.303000 6028.300000 0.500000 3.410521 45.171133 1.491767 0.221152
6029.536000 6029.530000 0.500000 3.417789 45.138994 1.479881 0.218808
6030.786000 6030.780000 0.500000 3.420843 45.105434 1.474272 0.217664
6032.058000 6032.050000 0.500000 3.420547 45.073679 1.473668 0.217392
6033.342000 6033.340000 0.500000 3.417194 45.034383 1.477310 0.217928
6034.657000 6034.650000 0.500000 3.411322 45.000213 1.484887 0.219052
6035.989000 6035.980000 0.500000 3.404359 44.965059 1.494118 0.219967
6037.339000 6037.330000 0.500000 3.396944 44.930804 1.504079 0.220880
6038.707000 6038.700000 0.500000 3.390231 44.889175 1.512806 0.221406
6040.085000 6040.080000 0.500000 3.383842 44.862377 1.521560 0.222660
6041.496000 6041.490000 0.500000 3.376312 44.823138 1.531740 0.224923
6042.918000 6042.910000 0.500000 3.368282 44.792974 1.543063 0.227755
6044.361000 6044.350000 0.500000 3.359511 44.757374 1.555447 0.230518
6045.816000 6045.810000 0.500000 3.349201 44.714432 1.570009 0.233376
6047.298000 6047.290000 0.500000 3.339349 44.676449 1.584227 0.236732
6048.798000 6048.790000 0.500000 3.331365 44.629884 1.595284 0.239766
6050.314000 6050.310000 0.500000 3.321386 44.586828 1.609687 0.244130
6051.863000 6051.850000 0.500000 3.309400 44.531594 1.627177 0.248995
6053.418000 6053.410000 0.500000 3.296934 44.468828 1.645226 0.254472
6054.986000 6054.980000 0.500000 3.285960 44.396349 1.660620 0.258634
6056.587000 6056.580000 0.500000 3.276761 44.327831 1.673400 0.261916
6058.196000 6058.190000 0.500000 3.269317 44.263391 1.683450 0.265127
6059.837000 6059.830000 0.500000 3.263127 44.183504 1.690833 0.267226
6061.487000 6061.480000 0.500000 3.257521 44.099359 1.697113 0.268583
6063.154000 6063.150000 0.500000 3.252372 44.043755 1.703707 0.268982
6064.845000 6064.840000 0.500000 3.247593 43.986859 1.709655 0.268442
6066.561000 6066.550000 0.500000 3.243467 43.928084 1.714461 0.267309
6068.285000 6068.280000 0.500000 3.240052 43.877709 1.718329 0.265257
6070.034000 6070.030000 0.500000 3.236951 43.820227 1.721407 0.263063
6071.798000 6071.790000 0.500000 3.234309 43.763307 1.723732 0.262829
6073.585000 6073.580000 0.500000 3.231570 43.705303 1.726157 0.265223
6075.385000 6075.380000 0.500000 3.229135 43.645340 1.727990 0.267639
6077.218000 6077.210000 0.500000 3.227364 43.588917 1.728822 0.270766
6079.058000 6079.050000 0.500000 3.225979 43.522256 1.728570 0.273890
6080.915000 6080.910000 0.500000 3.225050 43.454426 1.727477 0.277085
6082.794000 6082.790000 0.500000 3.224059 43.387132 1.726513 0.279809
6084.698000 6084.690000 0.500000 3.222749 43.318996 1.726065 0.281172
6086.614000 6086.610000 0.500000 3.220520 43.253301 1.727281 0.280760
6088.554000 6088.550000 0.500000 3.218278 43.177609 1.728131 0.278654
6090.517000 6090.510000 0.500000 3.215677 43.099456 1.729505 0.274710
6092.488000 6092.480000 0.500000 3.212911 43.024049 1.731259 0.270512
6094.486000 6094.480000 0.500000 3.210252 42.949101 1.732840 0.266881
6096.498000 6096.490000 0.500000 3.208022 42.856796 1.732983 0.263468
6098.528000 6098.520000 0.500000 3.206415 42.772487 1.732355 0.260827
6100.588000 6100.580000 0.500000 3.205280 42.691530 1.731039 0.260545
6102.654000 6102.650000 0.500000 3.204091 42.604365 1.729555 0.262786
6104.751000 6104.740000 0.500000 3.203187 42.527618 1.728007 0.266534
6106.857000 6106.850000 0.500000 3.202001 42.436953 1.726368 0.271188
6108.990000 6108.980000 0.500000 3.200727 42.340236 1.724635 0.275972
6111.126000 6111.120000 0.500000 3.198683 42.242380 1.724161 0.279898
6113.293000 6113.290000 0.500000 3.196411 42.148605 1.724239 0.282822
6115.487000 6115.480000 0.500000 3.194056 42.036510 1.723720 0.284589
6117.688000 6117.680000 0.500000 3.190926 41.945969 1.725407 0.285144
6119.911000 6119.900000 0.500000 3.187501 41.839654 1.726940 0.285058
6122.156000 6122.150000 0.500000 3.183464 41.716683 1.728811 0.284774
6124.413000 6124.410000 0.500000 3.179152 41.609487 1.731810 0.285322
6126.697000 6126.690000 0.500000 3.174219 41.499031 1.735770 0.287436
6128.998000 6128.990000 0.500000 3.169136 41.372172 1.739295 0.290018
6131.320000 6131.310000 0.500000 3.164086 41.246276 1.742784 0.292140
6133.655000 6133.650000 0.500000 3.158887 41.121059 1.746529 0.293638
6136.003000 6136.000000 0.500000 3.153513 40.999639 1.750741 0.295010
6138.384000 6138.380000 0.500000 3.148014 40.852871 1.754105 0.295774
6140.775000 6140.770000 0.500000 3.142599 40.710660 1.757501 0.296064
6143.196000 6143.190000 0.500000 3.137197 40.556746 1.760343 0.296513
6145.627000 6145.620000 0.500000 3.131928 40.398389 1.762732 0.296104
6148.078000 6148.070000 0.500000 3.126560 40.238213 1.765195 0.295652
6150.559000 6150.550000 0.500000 3.121302 40.058031 1.766555 0.295325
6153.045000 6153.040000 0.500000 3.115872 39.845788 1.766743 0.295118
6155.556000 6155.550000 0.500000 3.110722 39.589292 1.764446 0.294216
6158.072000 6158.070000 0.500000 3.105247 39.191921 1.756311 0.292307
6160.624000 6160.620000 0.500000 3.100061 38.423388 1.730833 0.286263
6163.193000 6163.190000 0.500000 3.094496 37.056813 1.678587 0.275631
6165.776000 6165.770000 0.500000 3.089181 36.527576 1.663440 0.272342
6168.387000 6168.380000 0.500000 3.083991 39.280164 1.798099 0.295497
6171.008000 6171.000000 0.500000 3.078388 39.118926 1.800777 0.298881
6173.657000 6173.650000 0.500000 3.073043 38.890892 1.799875 0.302214
6176.317000 6176.310000 0.500000 3.068034 38.661764 1.798251 0.304832
6178.996000 6178.990000 0.500000 3.062812 38.436311 1.797124 0.307781
6181.698000 6181.690000 0.500000 3.057515 38.205371 1.795819 0.309769
6184.415000 6184.410000 0.500000 3.052778 37.977341 1.793571 0.311442
6187.153000 6187.150000 0.500000 3.047619 37.741121 1.791627 0.311921
6189.904000 6189.900000 0.500000 3.042811 37.506243 1.789064 0.312497
6192.681000 6192.680000 0.500000 3.037848 37.275983 1.786921 0.313255
6195.477000 6195.470000 0.500000 3.033046 37.035992 1.783982 0.313468
