# XDI/1.0 BlueSky/1.10.0 BMM/2023-1.0-py310-tiled
# Beamline.name: BMM (06BM) -- Beamline for Materials Measurement (NIST)
# Beamline.xray_source: NSLS-II three-pole wiggler
# Beamline.collimation: paraboloid mirror, 5 nm Rh on 30 nm Pt
# Beamline.focusing: not in use
# Beamline.harmonic_rejection: flat mirror, Pt stripe, pitch = 7.0 mrad relative to beam
# Beamline.software: Bluesky 1.10.0, Ophyd 1.7.0, DataBroker 2.0.0b13, Python 3.10.8, 2023-1.0-py310-tiled
# Detector.I0: 10 cm N2
# Detector.I1: 25 cm N2
# Detector.I2: 25 cm N2
# Element.symbol: Nb
# Element.edge: K
# Element.reference: Nb
# Element.reference_material: Nb foil
# Facility.name: NSLS-II
# Facility.energy: 3.0
# Facility.current: 400.5
# Facility.mode: top-off
# Facility.GUP: 301027
# Facility.SAF: 310583
# Facility.cycle: 2023-2
# Mono.name: Si(111)
# Mono.d_spacing: 3.1351860
# Mono.encoder_resolution: 0.0000050 deg/ct
# Mono.angle_offset: 16.0754326 deg
# Mono.scan_mode: pseudo channel cut
# Mono.scan_type: step
# Mono.direction: forward in energy
# Sample.name: NbN
# Sample.prep: powder on tape
# Sample.x: 117.785 mm
# Sample.y: 114.695 mm
# Sample.SDD_position: 205.000 mm
# Scan.experimenters: Bruce Ravel
# Scan.edge_energy: 18985.6
# Scan.start_time: 2023-06-23T20:23:41
# Scan.end_time: 2023-06-23T20:31:19
# Scan.transient_id: 85006
# Scan.uid: afaf1aa8-d98d-4e20-a752-795bb067ffac
# Scan.plot_hint: ln(I0/It)  --  ln($5/$6)
# Column.1: energy eV
# Column.2: requested_energy eV
# Column.3: measurement_time seconds
# Column.4: xmu 
# Column.5: I0 nA
# Column.6: It nA
# Column.7: Ir nA
# ///////////
# BMM standards collection
# -----------
# energy  requested_energy  measurement_time  xmu  I0  It  Ir
  18785.665  18785.600  0.500  -0.096768  10.021581  11.039823  9.553649
  18795.645  18795.600  0.500  -0.097271  9.998520  11.019960  9.538629
  18805.729  18805.600  0.500  -0.097898  9.982028  11.008681  9.530176
  18815.730  18815.600  0.500  -0.098515  9.964170  10.995769  9.519724
  18825.711  18825.600  0.500  -0.099201  9.937007  10.973321  9.502518
  18835.718  18835.600  0.500  -0.099649  9.915464  10.954441  9.488427
  18845.736  18845.600  0.500  -0.099932  9.890118  10.929529  9.465592
  18855.749  18855.600  0.500  -0.100490  9.865040  10.907903  9.448104
  18865.616  18865.600  0.500  -0.100721  9.829275  10.870865  9.417958
  18875.573  18875.600  0.500  -0.100927  9.807033  10.848496  9.399239
  18885.633  18885.600  0.500  -0.100614  9.787162  10.823126  9.380995
  18895.642  18895.600  0.500  -0.100226  9.756272  10.784789  9.347211
  18905.677  18905.600  0.500  -0.099789  9.729404  10.750382  9.316878
  18915.660  18915.600  0.500  -0.098779  9.698516  10.705435  9.277900
  18925.653  18925.600  0.500  -0.097566  9.678926  10.670863  9.246390
  18935.610  18935.600  0.500  -0.095340  9.651694  10.617178  9.196669
  18945.609  18945.600  0.500  -0.091852  9.636412  10.563458  9.143106
  18955.556  18955.600  0.500  -0.085288  9.600380  10.455111  9.042019
  18957.606  18957.600  0.500  -0.083691  9.597156  10.434916  9.019697
  18959.626  18959.600  0.500  -0.081675  9.591517  10.407789  8.991444
  18961.661  18961.600  0.500  -0.079393  9.588525  10.380820  8.964755
  18963.634  18963.600  0.500  -0.077150  9.584344  10.353051  8.938201
  18965.639  18965.600  0.500  -0.074146  9.577340  10.314445  8.900150
  18967.550  18967.600  0.500  -0.070861  9.568726  10.271379  8.856673
  18969.555  18969.600  0.500  -0.066886  9.561256  10.222641  8.807238
  18971.514  18971.600  0.500  -0.062079  9.561070  10.173427  8.753666
  18973.505  18973.600  0.500  -0.056233  9.560926  10.113969  8.693215
  18975.702  18975.600  0.500  -0.048750  9.547084  10.024031  8.600634
  18976.097  18975.900  0.500  -0.046992  9.543791  10.002975  8.578553
  18976.097  18976.200  0.500  -0.046840  9.540247  9.997742  8.574462
  18976.334  18976.500  0.500  -0.046350  9.539029  9.991570  8.561806
  18976.650  18976.800  0.500  -0.044744  9.540495  9.977073  8.547393
  18976.950  18977.100  0.500  -0.043332  9.531700  9.953811  8.525614
  18977.535  18977.400  0.500  -0.040510  9.520918  9.914525  8.483567
  18977.804  18977.700  0.500  -0.039208  9.524667  9.905524  8.476153
  18978.073  18978.000  0.500  -0.037899  9.519747  9.887456  8.453631
  18978.389  18978.300  0.500  -0.036227  9.505253  9.855908  8.422504
  18978.673  18978.600  0.500  -0.034692  9.513702  9.849547  8.412846
  18978.974  18978.900  0.500  -0.033130  9.497319  9.817239  8.382611
  18979.227  18979.200  0.500  -0.031240  9.496758  9.798121  8.360985
  18979.543  18979.500  0.500  -0.029377  9.493494  9.776519  8.337149
  18979.859  18979.800  0.500  -0.027417  9.485697  9.749367  8.306356
  18980.175  18980.100  0.500  -0.025300  9.483105  9.726090  8.282491
  18980.460  18980.400  0.500  -0.023083  9.485005  9.706495  8.257746
  18980.761  18980.700  0.500  -0.020740  9.484450  9.683213  8.230670
  18981.045  18981.000  0.500  -0.018506  9.485629  9.662809  8.204133
  18981.377  18981.300  0.500  -0.015911  9.486428  9.638570  8.178442
  18981.646  18981.600  0.500  -0.013649  9.492945  9.623403  8.154298
  18981.947  18981.900  0.500  -0.010649  9.487268  9.588837  8.114205
  18982.231  18982.200  0.500  -0.008064  9.492542  9.569400  8.088409
  18982.548  18982.500  0.500  -0.005037  9.502012  9.549994  8.057778
  18982.848  18982.800  0.500  -0.001451  9.495481  9.509265  8.010555
  18983.165  18983.100  0.500  0.002364  9.505167  9.482725  7.972151
  18983.449  18983.400  0.500  0.005896  9.506368  9.450486  7.929300
  18983.734  18983.700  0.500  0.010032  9.509523  9.414598  7.879851
  18984.035  18984.000  0.500  0.013922  9.507610  9.376161  7.828345
  18984.319  18984.300  0.500  0.018467  9.507572  9.333602  7.770287
  18984.620  18984.600  0.500  0.022997  9.505186  9.289088  7.706018
  18984.920  18984.900  0.500  0.028759  9.513586  9.243880  7.638878
  18985.237  18985.200  0.500  0.034771  9.508858  9.183907  7.558111
  18985.553  18985.500  0.500  0.041650  9.506693  9.118874  7.465034
  18985.854  18985.800  0.500  0.049229  9.504330  9.047773  7.372262
  18986.155  18986.100  0.500  0.057116  9.502104  8.974593  7.269824
  18986.455  18986.400  0.500  0.065205  9.502562  8.902713  7.173250
  18986.740  18986.700  0.500  0.074757  9.505504  8.820813  7.068039
  18987.041  18987.000  0.500  0.084631  9.504017  8.732778  6.954964
  18987.341  18987.300  0.500  0.095754  9.500978  8.633422  6.832504
  18987.626  18987.600  0.500  0.107793  9.498234  8.527644  6.707596
  18987.927  18987.900  0.500  0.121555  9.497958  8.410842  6.574493
  18988.212  18988.200  0.500  0.135748  9.500010  8.294102  6.446718
  18988.544  18988.500  0.500  0.151345  9.495905  8.162212  6.306350
  18988.861  18988.800  0.500  0.169025  9.500131  8.022742  6.168150
  18989.146  18989.100  0.500  0.186502  9.498224  7.882166  6.032044
  18989.415  18989.400  0.500  0.204136  9.501031  7.746683  5.902966
  18989.715  18989.700  0.500  0.224977  9.496853  7.583567  5.753087
  18990.016  18990.000  0.500  0.245515  9.499964  7.431837  5.618770
  18990.317  18990.300  0.500  0.268775  9.491897  7.254799  5.466569
  18990.618  18990.600  0.500  0.292946  9.494289  7.083330  5.319084
  18990.934  18990.900  0.500  0.318320  9.492226  6.904364  5.169143
  18991.235  18991.200  0.500  0.345419  9.489981  6.718184  5.014340
  18991.520  18991.500  0.500  0.370407  9.493067  6.554518  4.879237
  18991.805  18991.800  0.500  0.396102  9.487537  6.384523  4.738769
  18992.106  18992.100  0.500  0.423272  9.487961  6.213671  4.599256
  18992.422  18992.400  0.500  0.450710  9.482083  6.041750  4.458760
  18992.723  18992.700  0.500  0.479228  9.486355  5.874529  4.320663
  18993.008  18993.000  0.500  0.509664  9.484893  5.697548  4.177774
  18993.309  18993.300  0.500  0.540798  9.482658  5.521595  4.032069
  18993.610  18993.600  0.500  0.572039  9.478746  5.349554  3.892044
  18993.927  18993.900  0.500  0.603115  9.480805  5.186993  3.759798
  18994.212  18994.200  0.500  0.635828  9.485856  5.022729  3.626268
  18994.497  18994.500  0.500  0.667208  9.480231  4.864681  3.496872
  18994.845  18994.800  0.500  0.699531  9.478364  4.709023  3.371280
  18995.099  18995.100  0.500  0.733194  9.477724  4.552835  3.246056
  18995.415  18995.400  0.500  0.765809  9.476320  4.406087  3.125174
  18995.716  18995.700  0.500  0.800702  9.473348  4.253663  3.002459
  18996.001  18996.000  0.500  0.833658  9.474264  4.116162  2.891461
  18996.334  18996.300  0.500  0.869504  9.475176  3.971609  2.774930
  18996.635  18996.600  0.500  0.905458  9.477324  3.832219  2.663738
  18996.920  18996.900  0.500  0.939825  9.472663  3.700934  2.558790
  18997.221  18997.200  0.500  0.974418  9.475997  3.576354  2.459176
  18997.490  18997.500  0.500  1.009757  9.471539  3.450554  2.360197
  18997.807  18997.800  0.500  1.045516  9.472841  3.329801  2.263552
  18998.092  18998.100  0.500  1.081686  9.472458  3.211386  2.169526
  18998.393  18998.400  0.500  1.118559  9.473003  3.095305  2.078993
  18998.679  18998.700  0.500  1.161039  9.467926  2.964981  1.977853
  18999.011  18999.000  0.500  1.201455  9.469180  2.847916  1.887302
  18999.297  18999.300  0.500  1.241338  9.477714  2.739034  1.804214
  18999.629  18999.600  0.500  1.286437  9.466178  2.615063  1.708938
  18999.883  18999.900  0.500  1.327823  9.463899  2.508442  1.629045
  19000.216  19000.200  0.500  1.370330  9.462114  2.403596  1.551139
  19000.469  19000.500  0.500  1.412244  9.460408  2.304518  1.477310
  19000.770  19000.800  0.500  1.456200  9.468548  2.207312  1.406393
  19001.071  19001.100  0.500  1.503914  9.460994  2.102787  1.331441
  19001.372  19001.400  0.500  1.551718  9.464776  2.005431  1.261980
  19001.689  19001.700  0.500  1.601244  9.461783  1.907927  1.193905
  19002.022  19002.000  0.500  1.651909  9.458376  1.813016  1.128315
  19002.292  19002.300  0.500  1.698359  9.460918  1.731193  1.072899
  19002.593  19002.600  0.500  1.743849  9.458809  1.653837  1.020594
  19002.910  19002.900  0.500  1.788267  9.461109  1.582369  0.973125
  19003.179  19003.200  0.500  1.831465  9.457774  1.514934  0.928036
  19003.465  19003.500  0.500  1.871747  9.450723  1.454038  0.887921
  19003.766  19003.800  0.500  1.912151  9.456449  1.397305  0.851975
  19004.083  19004.100  0.500  1.947953  9.501316  1.354560  0.825214
  19004.368  19004.400  0.500  1.979821  9.490672  1.310604  0.797540
  19004.669  19004.700  0.500  2.010829  9.493262  1.270935  0.773231
  19004.986  19005.000  0.500  2.037169  9.491713  1.237694  0.753303
  19005.256  19005.300  0.500  2.058281  9.491472  1.211807  0.738455
  19005.573  19005.600  0.500  2.075671  9.494872  1.191343  0.726943
  19005.843  19005.900  0.500  2.089321  9.484940  1.173962  0.716638
  19006.144  19006.200  0.500  2.100723  9.481075  1.160180  0.709969
  19006.461  19006.500  0.500  2.108081  9.483227  1.151936  0.705614
  19006.794  19006.800  0.500  2.112969  9.482831  1.146271  0.703877
  19007.079  19007.100  0.500  2.115097  9.480293  1.143528  0.704227
  19007.428  19007.400  0.500  2.114911  9.483204  1.144092  0.705727
  19007.714  19007.700  0.500  2.113468  9.478095  1.145127  0.708122
  19007.999  19008.000  0.500  2.109895  9.477661  1.149173  0.710222
  19008.285  19008.300  0.500  2.106425  9.480872  1.153559  0.714350
  19008.570  19008.600  0.500  2.102003  9.476897  1.158185  0.717447
  19008.903  19008.900  0.500  2.097945  9.479412  1.163203  0.721220
  19009.189  19009.200  0.500  2.093457  9.476881  1.168124  0.724634
  19009.474  19009.500  0.500  2.088836  9.468915  1.172547  0.727150
  19009.807  19009.800  0.500  2.085389  9.474771  1.177323  0.729952
  19010.109  19010.100  0.500  2.082024  9.471437  1.180876  0.732430
  19010.410  19010.400  0.500  2.078852  9.473629  1.184902  0.734429
  19010.616  19010.600  0.500  2.077635  9.472871  1.186250  0.735068
  19011.584  19011.590  0.500  2.070329  9.465165  1.193977  0.737876
  19012.647  19012.590  0.500  2.066109  9.475046  1.200277  0.740650
  19013.663  19013.610  0.500  2.059964  9.463607  1.206217  0.742515
  19014.694  19014.660  0.500  2.053320  9.459582  1.213742  0.746531
  19015.789  19015.720  0.500  2.045402  9.464805  1.224066  0.752246
  19016.821  19016.800  0.500  2.039799  9.453849  1.229519  0.756274
  19017.932  19017.900  0.500  2.037522  9.455628  1.232553  0.757477
  19019.076  19019.020  0.500  2.037440  9.452672  1.232270  0.756935
  19020.235  19020.160  0.500  2.036565  9.454344  1.233566  0.756112
  19021.378  19021.310  0.500  2.028639  9.442596  1.241837  0.758406
  19022.506  19022.490  0.500  2.008534  9.439826  1.266686  0.770838
  19023.745  19023.680  0.500  1.970783  9.434885  1.314729  0.796937
  19024.936  19024.900  0.500  1.923026  9.430995  1.378472  0.832802
  19026.176  19026.130  0.500  1.869611  9.425867  1.453314  0.875536
  19027.431  19027.380  0.500  1.819764  9.426438  1.527687  0.917254
  19028.671  19028.650  0.500  1.779669  9.420700  1.589216  0.952674
  19029.974  19029.940  0.500  1.748314  9.422647  1.640174  0.985088
  19031.262  19031.250  0.500  1.728446  9.422095  1.672988  1.007873
  19032.581  19032.580  0.500  1.716098  9.411123  1.691802  1.025029
  19033.885  19033.930  0.500  1.707695  9.403062  1.704617  1.040123
  19035.333  19035.300  0.500  1.697886  9.403277  1.721459  1.057794
  19036.653  19036.680  0.500  1.685903  9.401975  1.741971  1.073989
  19038.101  19038.090  0.500  1.673506  9.402507  1.763800  1.092263
  19039.501  19039.510  0.500  1.663701  9.391214  1.779039  1.103517
  19040.965  19040.950  0.500  1.660026  9.389253  1.785216  1.107606
  19042.413  19042.410  0.500  1.665383  9.385507  1.774970  1.100381
  19043.909  19043.890  0.500  1.679572  9.382411  1.749385  1.082710
  19045.422  19045.390  0.500  1.702902  9.376415  1.707953  1.055146
  19046.919  19046.910  0.500  1.735129  9.374151  1.653388  1.020291
  19048.495  19048.450  0.500  1.774602  9.368083  1.588367  0.979797
  19050.056  19050.010  0.500  1.818167  9.364126  1.520013  0.938043
  19051.618  19051.580  0.500  1.860767  9.344413  1.453554  0.897097
  19053.211  19053.180  0.500  1.897525  9.341766  1.400697  0.865774
  19054.805  19054.790  0.500  1.924085  9.353773  1.365738  0.845698
  19056.478  19056.430  0.500  1.935098  9.349553  1.350169  0.836623
  19058.104  19058.080  0.500  1.932373  9.351196  1.354092  0.839364
  19059.795  19059.750  0.500  1.918901  9.340774  1.370928  0.848615
  19061.453  19061.440  0.500  1.899550  9.338513  1.397377  0.863968
  19063.176  19063.150  0.500  1.877993  9.334626  1.427233  0.879305
  19064.867  19064.880  0.500  1.860405  9.328074  1.451538  0.891450
  19066.590  19066.630  0.500  1.849472  9.332273  1.468155  0.897894
  19068.394  19068.390  0.500  1.846237  9.323990  1.471605  0.898449
  19070.165  19070.180  0.500  1.850353  9.315143  1.464170  0.894160
  19071.985  19071.980  0.500  1.858536  9.315373  1.452273  0.889028
  19073.854  19073.810  0.500  1.866465  9.306063  1.439364  0.884826
  19075.643  19075.650  0.500  1.869565  9.301109  1.434144  0.885381
  19077.528  19077.510  0.500  1.866288  9.293959  1.437746  0.891137
  19079.429  19079.390  0.500  1.858142  9.289119  1.448750  0.899675
  19081.315  19081.290  0.500  1.845915  9.289416  1.466620  0.910947
  19083.217  19083.210  0.500  1.833758  9.283015  1.483536  0.921576
  19085.183  19085.150  0.500  1.822098  9.278342  1.500179  0.932114
  19087.134  19087.110  0.500  1.810955  9.269404  1.515528  0.941485
  19089.117  19089.080  0.500  1.801135  9.268432  1.530324  0.950076
  19091.085  19091.080  0.500  1.791962  9.262975  1.543517  0.959071
  19093.085  19093.090  0.500  1.782743  9.257493  1.556889  0.967427
  19095.070  19095.120  0.500  1.772993  9.257730  1.572184  0.976479
  19097.215  19097.180  0.500  1.760457  9.252157  1.591059  0.987023
  19099.248  19099.250  0.500  1.748475  9.238042  1.607781  0.996428
  19101.362  19101.340  0.500  1.737288  9.231701  1.624751  1.004330
  19103.444  19103.450  0.500  1.729926  9.227858  1.636077  1.009960
  19105.591  19105.580  0.500  1.726304  9.221140  1.640817  1.011873
  19107.739  19107.720  0.500  1.725967  9.217277  1.640683  1.012030
  19109.902  19109.890  0.500  1.730134  9.209883  1.632551  1.007946
  19112.083  19112.080  0.500  1.738124  9.209671  1.619520  1.002299
  19114.264  19114.280  0.500  1.747362  9.201196  1.603152  0.993300
  19116.509  19116.500  0.500  1.757466  9.192013  1.585452  0.985591
  19118.756  19118.750  0.500  1.765650  9.184244  1.571200  0.979225
  19121.018  19121.010  0.500  1.773354  9.187599  1.559711  0.975109
  19123.298  19123.290  0.500  1.779366  9.175807  1.548372  0.970136
  19125.594  19125.590  0.500  1.786271  9.174206  1.537450  0.964702
  19127.938  19127.910  0.500  1.791819  9.172348  1.528634  0.959519
  19130.283  19130.250  0.500  1.796958  9.156383  1.518151  0.953729
  19132.661  19132.600  0.500  1.799128  9.150092  1.513819  0.950876
  19134.992  19134.980  0.500  1.798996  9.149450  1.513912  0.950321
  19137.387  19137.370  0.500  1.796453  9.148811  1.517663  0.951771
  19139.783  19139.790  0.500  1.792047  9.138763  1.522689  0.954363
  19142.211  19142.220  0.500  1.785586  9.130909  1.531241  0.959162
  19144.705  19144.670  0.500  1.777861  9.126876  1.542435  0.964618
  19147.199  19147.150  0.500  1.770795  9.119375  1.552096  0.970651
  19149.678  19149.640  0.500  1.763485  9.119472  1.563500  0.978751
  19152.205  19152.150  0.500  1.756409  9.108310  1.572675  0.984190
  19154.702  19154.670  0.500  1.750582  9.109177  1.582017  0.989315
  19157.231  19157.220  0.500  1.745233  9.091877  1.587482  0.990688
  19159.760  19159.790  0.500  1.741921  9.090084  1.592434  0.990948
  19162.371  19162.370  0.500  1.741630  9.078112  1.590798  0.986874
  19164.999  19164.980  0.500  1.744284  9.074102  1.585881  0.982979
  19167.644  19167.600  0.500  1.746420  9.069214  1.581645  0.979889
  19170.273  19170.250  0.500  1.747768  9.062128  1.578280  0.978693
  19172.935  19172.910  0.500  1.746781  9.059691  1.579415  0.982190
  19175.663  19175.590  0.500  1.742507  9.048880  1.584286  0.989538
  19178.343  19178.290  0.500  1.736793  9.039593  1.591730  0.999361
  19181.007  19181.010  0.500  1.730120  9.029057  1.600520  1.010906
  19183.737  19183.750  0.500  1.722448  9.012908  1.609961  1.020834
  19186.516  19186.500  0.500  1.716534  9.008475  1.618713  1.028685
  19189.248  19189.280  0.500  1.712305  9.012246  1.626255  1.034912
  19192.110  19192.070  0.500  1.707390  9.007416  1.633392  1.038249
  19194.940  19194.890  0.500  1.702940  9.001321  1.639565  1.041651
  19197.771  19197.720  0.500  1.699628  8.992373  1.643370  1.043237
  19200.619  19200.570  0.500  1.697668  8.985693  1.645371  1.044564
  19203.484  19203.450  0.500  1.697232  8.974464  1.644031  1.042356
  19206.317  19206.340  0.500  1.699240  8.973839  1.640618  1.038893
  19209.281  19209.250  0.500  1.702653  8.965145  1.633446  1.031622
  19212.149  19212.170  0.500  1.708582  8.958357  1.622560  1.023053
  19215.179  19215.120  0.500  1.716100  8.954931  1.609791  1.012511
  19218.113  19218.090  0.500  1.722889  8.948711  1.597788  1.003478
  19221.113  19221.070  0.500  1.726996  8.927563  1.587479  0.995953
  19224.131  19224.080  0.500  1.728004  8.923142  1.585095  0.993469
  19227.068  19227.100  0.500  1.725775  8.919947  1.588063  0.994731
  19230.152  19230.150  0.500  1.720368  8.904783  1.593959  0.997806
  19233.237  19233.210  0.500  1.715137  8.900876  1.601615  1.003126
  19236.355  19236.290  0.500  1.709882  8.904048  1.610628  1.009928
  19239.393  19239.390  0.500  1.706072  8.886381  1.613569  1.012079
  19242.546  19242.510  0.500  1.706145  8.882676  1.612777  1.013996
  19245.652  19245.650  0.500  1.707858  8.868784  1.607499  1.013347
  19248.856  19248.800  0.500  1.709964  8.865283  1.603484  1.012719
