# XDI/1.0 BlueSky/1.10.0 BMM/2023-1.0-py310-tiled
# Beamline.name: BMM (06BM) -- Beamline for Materials Measurement (NIST)
# Beamline.xray_source: NSLS-II three-pole wiggler
# Beamline.collimation: paraboloid mirror, 5 nm Rh on 30 nm Pt
# Beamline.focusing: not in use
# Beamline.harmonic_rejection: flat mirror, Pt stripe, pitch = 7.0 mrad relative to beam
# Beamline.software: Bluesky 1.10.0, Ophyd 1.7.0, DataBroker 2.0.0b13, Python 3.10.8, 2023-1.0-py310-tiled
# Detector.I0: 10 cm N2
# Detector.I1: 25 cm N2
# Detector.I2: 25 cm N2
# Element.symbol: Nb
# Element.edge: K
# Element.reference: Nb
# Element.reference_material: Nb foil
# Facility.name: NSLS-II
# Facility.energy: 3.0
# Facility.current: 400.2
# Facility.mode: top-off
# Facility.GUP: 301027
# Facility.SAF: 310583
# Facility.cycle: 2023-2
# Mono.name: Si(111)
# Mono.d_spacing: 3.1351860
# Mono.encoder_resolution: 0.0000050 deg/ct
# Mono.angle_offset: 16.0754326 deg
# Mono.scan_mode: pseudo channel cut
# Mono.scan_type: step
# Mono.direction: forward in energy
# Sample.name: NbC
# Sample.prep: powder on tape
# Sample.x: 117.785 mm
# Sample.y: 114.695 mm
# Sample.SDD_position: 205.000 mm
# Scan.experimenters: Bruce Ravel
# Scan.edge_energy: 18985.6
# Scan.start_time: 2023-06-23T20:31:44
# Scan.end_time: 2023-06-23T20:39:24
# Scan.transient_id: 85011
# Scan.uid: 3b3232ec-8769-407f-bae0-1b7477bf5faa
# Scan.plot_hint: ln(I0/It)  --  ln($5/$6)
# Column.1: energy eV
# Column.2: requested_energy eV
# Column.3: measurement_time seconds
# Column.4: xmu 
# Column.5: I0 nA
# Column.6: It nA
# Column.7: Ir nA
# ///////////
# BMM standards collection
# -----------
# energy  requested_energy  measurement_time  xmu  I0  It  Ir
  18785.464  18785.600  0.500  -0.447605  10.022709  15.681136  13.570095
  18795.645  18795.600  0.500  -0.447827  10.001429  15.651314  13.548927
  18805.636  18805.600  0.500  -0.448210  9.986364  15.633726  13.536571
  18815.668  18815.600  0.500  -0.448207  9.966939  15.603271  13.511785
  18825.649  18825.600  0.500  -0.448667  9.942259  15.571798  13.484972
  18835.687  18835.600  0.500  -0.449260  9.914641  15.537756  13.456894
  18845.674  18845.600  0.500  -0.449368  9.891284  15.502818  13.430695
  18855.718  18855.600  0.500  -0.449569  9.864268  15.463582  13.398149
  18865.710  18865.600  0.500  -0.449702  9.843861  15.433653  13.374049
  18875.729  18875.600  0.500  -0.450083  9.811851  15.389327  13.332762
  18885.727  18885.600  0.500  -0.450503  9.787885  15.358180  13.308197
  18895.704  18895.600  0.500  -0.450544  9.762847  15.319519  13.276674
  18905.724  18905.600  0.500  -0.450544  9.737698  15.280054  13.243382
  18915.738  18915.600  0.500  -0.450800  9.695757  15.218143  13.187885
  18925.700  18925.600  0.500  -0.450769  9.686191  15.202651  13.171341
  18935.705  18935.600  0.500  -0.450910  9.665239  15.171905  13.142360
  18945.625  18945.600  0.500  -0.450489  9.639325  15.124864  13.093444
  18955.682  18955.600  0.500  -0.450031  9.608546  15.069660  13.030308
  18957.669  18957.600  0.500  -0.449655  9.604912  15.058299  13.015824
  18959.626  18959.600  0.500  -0.449681  9.595373  15.043735  12.997742
  18961.645  18961.600  0.500  -0.449393  9.594579  15.038168  12.988420
  18963.634  18963.600  0.500  -0.449011  9.588548  15.022970  12.970585
  18965.655  18965.600  0.500  -0.448751  9.585047  15.013576  12.953082
  18967.660  18967.600  0.500  -0.448311  9.573592  14.989050  12.922657
  18969.682  18969.600  0.500  -0.447726  9.572603  14.978736  12.903949
  18971.577  18971.600  0.500  -0.447117  9.562640  14.954037  12.871333
  18973.584  18973.600  0.500  -0.446655  9.562765  14.947318  12.845696
  18975.591  18975.600  0.500  -0.445742  9.559592  14.928719  12.806477
  18975.844  18975.900  0.500  -0.445659  9.552707  14.916737  12.791705
  18976.144  18976.200  0.500  -0.445534  9.554006  14.916900  12.786856
  18976.460  18976.500  0.500  -0.445128  9.550221  14.904934  12.775724
  18976.729  18976.800  0.500  -0.445129  9.550754  14.905777  12.768660
  18977.061  18977.100  0.500  -0.444804  9.542982  14.888812  12.750880
  18977.409  18977.400  0.500  -0.444673  9.541677  14.884821  12.739211
  18977.662  18977.700  0.500  -0.444732  9.530307  14.867961  12.718760
  18977.978  18978.000  0.500  -0.444420  9.527644  14.859173  12.707958
  18978.278  18978.300  0.500  -0.444039  9.521902  14.844561  12.691429
  18978.594  18978.600  0.500  -0.444133  9.521327  14.845059  12.681065
  18978.895  18978.900  0.500  -0.443864  9.508771  14.821498  12.654224
  18979.164  18979.200  0.500  -0.443392  9.509401  14.815486  12.642937
  18979.464  18979.500  0.500  -0.443134  9.508067  14.809579  12.630967
  18979.828  18979.800  0.500  -0.443007  9.503101  14.799976  12.613289
  18980.112  18980.100  0.500  -0.442634  9.502321  14.793241  12.598783
  18980.381  18980.400  0.500  -0.442653  9.498452  14.787488  12.581461
  18980.697  18980.700  0.500  -0.442349  9.497361  14.781299  12.566205
  18981.014  18981.000  0.500  -0.442013  9.504108  14.786834  12.557570
  18981.282  18981.300  0.500  -0.441592  9.509615  14.789180  12.546563
  18981.583  18981.600  0.500  -0.441471  9.508935  14.786327  12.528424
  18981.899  18981.900  0.500  -0.441052  9.506950  14.777051  12.502879
  18982.200  18982.200  0.500  -0.440696  9.510035  14.776581  12.485361
  18982.484  18982.500  0.500  -0.440453  9.517475  14.784548  12.475176
  18982.801  18982.800  0.500  -0.439670  9.517558  14.773111  12.444507
  18983.117  18983.100  0.500  -0.439195  9.517910  14.766635  12.411428
  18983.402  18983.400  0.500  -0.438761  9.519974  14.763426  12.381161
  18983.702  18983.700  0.500  -0.438008  9.525049  14.760185  12.350131
  18984.035  18984.000  0.500  -0.437688  9.526723  14.758046  12.306899
  18984.303  18984.300  0.500  -0.436972  9.521404  14.739249  12.255908
  18984.588  18984.600  0.500  -0.436238  9.530696  14.742812  12.219248
  18984.905  18984.900  0.500  -0.435616  9.523434  14.722416  12.154191
  18985.189  18985.200  0.500  -0.434816  9.523289  14.710424  12.091120
  18985.490  18985.500  0.500  -0.433812  9.526880  14.701210  12.028214
  18985.791  18985.800  0.500  -0.432828  9.524800  14.683532  11.956210
  18986.075  18986.100  0.500  -0.431671  9.524656  14.666336  11.877063
  18986.392  18986.400  0.500  -0.430475  9.522958  14.646191  11.785654
  18986.661  18986.700  0.500  -0.429246  9.523010  14.628278  11.703469
  18986.946  18987.000  0.500  -0.427819  9.528373  14.615657  11.623725
  18987.246  18987.300  0.500  -0.426255  9.526356  14.589721  11.527274
  18987.563  18987.600  0.500  -0.424591  9.546442  14.596178  11.462664
  18987.848  18987.900  0.500  -0.422479  9.547768  14.567409  11.374225
  18988.164  18988.200  0.500  -0.420480  9.547399  14.537744  11.281165
  18988.465  18988.500  0.500  -0.418197  9.546491  14.503225  11.186927
  18988.718  18988.800  0.500  -0.415910  9.547572  14.471720  11.109352
  18989.066  18989.100  0.500  -0.413307  9.543715  14.428278  11.018839
  18989.383  18989.400  0.500  -0.410304  9.541481  14.381643  10.939423
  18989.652  18989.700  0.500  -0.407772  9.541090  14.344683  10.867043
  18989.953  18990.000  0.500  -0.405228  9.540003  14.306612  10.800175
  18990.301  18990.300  0.500  -0.401580  9.533940  14.245457  10.709393
  18990.602  18990.600  0.500  -0.398596  9.533552  14.202430  10.647592
  18990.871  18990.900  0.500  -0.395941  9.532565  14.163315  10.590576
  18991.203  18991.200  0.500  -0.392244  9.539149  14.120784  10.524501
  18991.520  18991.500  0.500  -0.388947  9.533021  14.065271  10.449457
  18991.789  18991.800  0.500  -0.385643  9.529756  14.014075  10.383496
  18992.090  18992.100  0.500  -0.382220  9.531267  13.968399  10.317648
  18992.391  18992.400  0.500  -0.378699  9.539633  13.931519  10.257717
  18992.723  18992.700  0.500  -0.374595  9.529872  13.860265  10.168319
  18992.992  18993.000  0.500  -0.371379  9.528734  13.814120  10.100107
  18993.293  18993.300  0.500  -0.367945  9.535259  13.776187  10.037356
  18993.610  18993.600  0.500  -0.363765  9.524080  13.702641  9.940225
  18993.911  18993.900  0.500  -0.359506  9.521294  13.640413  9.853684
  18994.212  18994.200  0.500  -0.355943  9.523157  13.594555  9.785805
  18994.497  18994.500  0.500  -0.351784  9.525677  13.541716  9.703489
  18994.829  18994.800  0.500  -0.347128  9.520273  13.471161  9.609722
  18994.940  18995.100  0.500  -0.345547  9.518630  13.447570  9.574807
  18995.590  18995.400  0.500  -0.336040  9.516399  13.317195  9.385189
  18995.558  18995.700  0.500  -0.336180  9.511611  13.312370  9.381154
  18995.859  18996.000  0.500  -0.332065  9.512255  13.258599  9.304332
  18996.176  18996.300  0.500  -0.327369  9.510996  13.194732  9.212731
  18996.445  18996.600  0.500  -0.322407  9.513834  13.133339  9.117961
  18996.762  18996.900  0.500  -0.317608  9.511361  13.067060  9.024245
  18997.094  18997.200  0.500  -0.312095  9.510313  12.993787  8.921426
  18997.411  18997.500  0.500  -0.306889  9.509915  12.925787  8.822376
  18997.696  18997.800  0.500  -0.301865  9.517053  12.870656  8.733582
  18997.981  18998.100  0.500  -0.296496  9.506576  12.787645  8.620998
  18998.298  18998.400  0.500  -0.290900  9.504218  12.713140  8.518488
  18998.599  18998.700  0.500  -0.285256  9.509326  12.648375  8.420681
  18998.900  18999.000  0.500  -0.278928  9.502474  12.559534  8.305132
  18999.186  18999.300  0.500  -0.273015  9.510690  12.496285  8.206588
  18999.487  18999.600  0.500  -0.266764  9.508454  12.415500  8.100670
  18999.835  18999.900  0.500  -0.260156  9.504283  12.328309  7.989833
  19000.120  19000.200  0.500  -0.253152  9.500309  12.237144  7.878875
  19000.422  19000.500  0.500  -0.247175  9.498504  12.161914  7.781511
  19000.707  19000.800  0.500  -0.240556  9.500480  12.084191  7.686870
  19000.976  19001.100  0.500  -0.234209  9.505607  12.014216  7.600471
  19001.293  19001.400  0.500  -0.226809  9.497465  11.915427  7.497498
  19001.594  19001.700  0.500  -0.219607  9.495331  11.827262  7.405021
  19001.927  19002.000  0.500  -0.212158  9.497359  11.742000  7.315288
  19002.244  19002.300  0.500  -0.204967  9.493252  11.652818  7.229369
  19002.545  19002.600  0.500  -0.198283  9.491575  11.573150  7.154613
  19002.862  19002.900  0.500  -0.191641  9.491390  11.496315  7.085959
  19003.132  19003.200  0.500  -0.186288  9.489135  11.432221  7.031969
  19003.433  19003.500  0.500  -0.180544  9.489881  11.367633  6.983890
  19003.750  19003.800  0.500  -0.175278  9.493867  11.312682  6.941220
  19004.019  19004.100  0.500  -0.170091  9.489327  11.248771  6.896261
  19004.336  19004.400  0.500  -0.165308  9.492099  11.198368  6.865329
  19004.654  19004.700  0.500  -0.160952  9.488343  11.145278  6.835857
  19004.971  19005.000  0.500  -0.157428  9.483838  11.100804  6.813825
  19005.304  19005.300  0.500  -0.154001  9.483146  11.062013  6.800800
  19005.589  19005.600  0.500  -0.151419  9.484519  11.035091  6.790818
  19005.859  19005.900  0.500  -0.149030  9.485450  11.009835  6.787425
  19006.176  19006.200  0.500  -0.147082  9.484115  10.986859  6.787797
  19006.429  19006.500  0.500  -0.145899  9.480869  10.970117  6.788389
  19006.762  19006.800  0.500  -0.144746  9.488036  10.965755  6.799668
  19007.079  19007.100  0.500  -0.143583  9.475132  10.938115  6.794825
  19007.397  19007.400  0.500  -0.143101  9.477452  10.935525  6.806609
  19007.698  19007.700  0.500  -0.142757  9.478636  10.933123  6.816164
  19007.999  19008.000  0.500  -0.142717  9.476634  10.930376  6.823965
  19008.285  19008.300  0.500  -0.142465  9.476672  10.927671  6.829205
  19008.602  19008.600  0.500  -0.142656  9.474241  10.926958  6.834470
  19008.872  19008.900  0.500  -0.142951  9.481513  10.938572  6.843017
  19009.173  19009.200  0.500  -0.142839  9.472486  10.926934  6.839945
  19009.458  19009.500  0.500  -0.142880  9.475596  10.930961  6.843214
  19009.760  19009.800  0.500  -0.142989  9.472343  10.928403  6.837933
  19010.093  19010.100  0.500  -0.142991  9.472503  10.928608  6.838758
  19010.378  19010.400  0.500  -0.142785  9.466165  10.919043  6.830768
  19010.616  19010.600  0.500  -0.142935  9.469283  10.924285  6.829646
  19011.600  19011.590  0.500  -0.142120  9.474319  10.921190  6.814373
  19012.615  19012.590  0.500  -0.140953  9.463560  10.896067  6.780240
  19013.663  19013.610  0.500  -0.139331  9.462108  10.876733  6.756232
  19014.678  19014.660  0.500  -0.137788  9.460843  10.858518  6.739852
  19015.742  19015.720  0.500  -0.135893  9.456618  10.833114  6.721967
  19016.821  19016.800  0.500  -0.133083  9.454142  10.799885  6.701778
  19017.932  19017.900  0.500  -0.130118  9.451479  10.764884  6.678346
  19019.076  19019.020  0.500  -0.127217  9.455658  10.738448  6.651853
  19020.187  19020.160  0.500  -0.125772  9.439151  10.704218  6.614426
  19021.362  19021.310  0.500  -0.126402  9.444573  10.717113  6.603232
  19022.506  19022.490  0.500  -0.131491  9.434357  10.760145  6.604389
  19023.697  19023.680  0.500  -0.140627  9.437462  10.862469  6.641109
  19024.920  19024.900  0.500  -0.152154  9.431894  10.981930  6.687364
  19026.112  19026.130  0.500  -0.163622  9.428417  11.104501  6.735760
  19027.383  19027.380  0.500  -0.173634  9.422716  11.209457  6.778609
  19028.639  19028.650  0.500  -0.180699  9.421022  11.286900  6.815212
  19029.974  19029.940  0.500  -0.185131  9.415200  11.330023  6.845452
  19031.214  19031.250  0.500  -0.188011  9.415573  11.363160  6.886631
  19032.566  19032.580  0.500  -0.189898  9.416303  11.385497  6.938023
  19033.901  19033.930  0.500  -0.191753  9.406506  11.394773  6.989792
  19035.349  19035.300  0.500  -0.194033  9.404538  11.418396  7.051986
  19036.685  19036.680  0.500  -0.196442  9.400811  11.441392  7.100828
  19038.132  19038.090  0.500  -0.198391  9.406442  11.470583  7.143750
  19039.533  19039.510  0.500  -0.199214  9.394320  11.465236  7.153694
  19040.981  19040.950  0.500  -0.198268  9.388749  11.447595  7.146349
  19042.445  19042.410  0.500  -0.196089  9.385740  11.419020  7.120634
  19043.909  19043.890  0.500  -0.192039  9.384907  11.371861  7.078211
  19045.422  19045.390  0.500  -0.187198  9.377406  11.307895  7.027195
  19046.935  19046.910  0.500  -0.181190  9.374843  11.237087  6.976116
  19048.495  19048.450  0.500  -0.174940  9.371251  11.162802  6.928298
  19050.040  19050.010  0.500  -0.168964  9.368672  11.093229  6.889102
  19051.650  19051.580  0.500  -0.163828  9.348605  11.012764  6.849920
  19053.195  19053.180  0.500  -0.161346  9.343084  10.978982  6.839692
  19054.821  19054.790  0.500  -0.160778  9.349940  10.980798  6.852697
  19056.431  19056.430  0.500  -0.162553  9.352206  11.002975  6.873934
  19058.088  19058.080  0.500  -0.165515  9.346638  11.029037  6.892159
  19059.747  19059.750  0.500  -0.169491  9.342702  11.068320  6.910301
  19061.421  19061.440  0.500  -0.173073  9.343427  11.108896  6.918635
  19063.144  19063.150  0.500  -0.175811  9.337433  11.132204  6.909864
  19064.867  19064.880  0.500  -0.177138  9.330695  11.138941  6.887609
  19066.574  19066.630  0.500  -0.176971  9.327759  11.133575  6.862008
  19068.425  19068.390  0.500  -0.174994  9.323770  11.106842  6.830669
  19070.181  19070.180  0.500  -0.172057  9.315570  11.064526  6.806413
  19071.985  19071.980  0.500  -0.169183  9.316078  11.033379  6.803840
  19073.886  19073.810  0.500  -0.167209  9.302891  10.996031  6.808089
  19075.690  19075.650  0.500  -0.166756  9.296236  10.983191  6.828916
  19077.544  19077.510  0.500  -0.167384  9.293506  10.986859  6.855921
  19079.429  19079.390  0.500  -0.168222  9.291538  10.993736  6.875842
  19081.331  19081.290  0.500  -0.169582  9.286082  11.002236  6.883943
  19083.217  19083.210  0.500  -0.170172  9.286162  11.008822  6.887870
  19085.167  19085.150  0.500  -0.171640  9.278843  11.016306  6.888679
  19087.086  19087.110  0.500  -0.173578  9.274978  11.033085  6.898618
  19089.053  19089.080  0.500  -0.175323  9.270315  11.046791  6.909057
  19091.085  19091.080  0.500  -0.177890  9.264195  11.067878  6.920902
  19093.101  19093.090  0.500  -0.180826  9.256577  11.091293  6.935367
  19095.118  19095.120  0.500  -0.183534  9.248350  11.111478  6.947121
  19097.167  19097.180  0.500  -0.186352  9.245416  11.139305  6.956967
  19099.248  19099.250  0.500  -0.189107  9.242254  11.166222  6.960519
  19101.394  19101.340  0.500  -0.191364  9.244298  11.193923  6.963540
  19103.508  19103.450  0.500  -0.192969  9.226198  11.189950  6.948478
  19105.591  19105.580  0.500  -0.193569  9.222266  11.191900  6.941299
  19107.771  19107.720  0.500  -0.192923  9.219037  11.180750  6.934811
  19109.935  19109.890  0.500  -0.191362  9.216070  11.159723  6.928887
  19112.147  19112.080  0.500  -0.189550  9.215919  11.139329  6.930528
  19114.296  19114.280  0.500  -0.187473  9.203773  11.101571  6.922275
  19116.477  19116.500  0.500  -0.185551  9.192113  11.066221  6.920142
  19118.724  19118.750  0.500  -0.183353  9.185141  11.033538  6.924274
  19120.986  19121.010  0.500  -0.181237  9.190958  11.017196  6.932227
  19123.249  19123.290  0.500  -0.179248  9.191676  10.996160  6.934921
  19125.545  19125.590  0.500  -0.177950  9.179839  10.967751  6.923200
  19127.890  19127.910  0.500  -0.177193  9.167643  10.944893  6.914163
  19130.299  19130.250  0.500  -0.177073  9.159264  10.933582  6.914213
  19132.597  19132.600  0.500  -0.177965  9.144496  10.925689  6.910375
  19135.024  19134.980  0.500  -0.179713  9.147551  10.948465  6.922407
  19137.387  19137.370  0.500  -0.181711  9.149872  10.973146  6.930667
  19139.783  19139.790  0.500  -0.184097  9.143317  10.991475  6.934959
  19142.179  19142.220  0.500  -0.186244  9.136441  11.006817  6.937596
  19144.705  19144.670  0.500  -0.188698  9.126647  11.022030  6.941206
  19147.118  19147.150  0.500  -0.190621  9.121392  11.036889  6.948598
  19149.678  19149.640  0.500  -0.192604  9.112626  11.048169  6.956696
  19152.205  19152.150  0.500  -0.194085  9.150307  11.110297  6.996848
  19154.718  19154.670  0.500  -0.195007  9.137856  11.105416  6.986830
  19157.214  19157.220  0.500  -0.194076  9.136045  11.092884  6.966840
  19159.793  19159.790  0.500  -0.192522  9.125552  11.062931  6.925275
  19162.371  19162.370  0.500  -0.190276  9.113389  11.023402  6.883384
  19164.967  19164.980  0.500  -0.188353  9.107069  10.994592  6.852392
  19167.595  19167.600  0.500  -0.186998  9.101182  10.972611  6.835322
  19170.289  19170.250  0.500  -0.186365  9.092482  10.955190  6.835655
  19172.951  19172.910  0.500  -0.186446  9.091426  10.954799  6.857398
  19175.615  19175.590  0.500  -0.186609  9.082826  10.946227  6.882629
  19178.327  19178.290  0.500  -0.186721  9.072278  10.934735  6.911273
  19181.072  19181.010  0.500  -0.187440  9.066515  10.935650  6.948850
  19183.753  19183.750  0.500  -0.188225  9.049966  10.924259  6.968701
  19186.533  19186.500  0.500  -0.189526  9.054460  10.943910  6.999006
  19189.329  19189.280  0.500  -0.191356  9.046284  10.954062  7.009993
  19192.061  19192.070  0.500  -0.193640  9.041377  10.973155  7.017923
  19194.907  19194.890  0.500  -0.196047  9.040097  10.998040  7.027922
  19197.771  19197.720  0.500  -0.197937  9.025796  11.001411  7.026734
  19200.586  19200.570  0.500  -0.199703  9.009682  11.001185  7.021986
  19203.500  19203.450  0.500  -0.200053  9.012345  11.008282  7.021826
  19206.349  19206.340  0.500  -0.200246  9.007663  11.004697  7.008949
  19209.216  19209.250  0.500  -0.198980  8.999484  10.980792  6.982744
  19212.197  19212.170  0.500  -0.198322  8.992011  10.964457  6.957186
  19215.147  19215.120  0.500  -0.198599  8.984795  10.958689  6.938348
  19218.146  19218.090  0.500  -0.199343  8.976933  10.957249  6.925303
  19221.113  19221.070  0.500  -0.199659  8.964559  10.945603  6.908602
  19224.114  19224.080  0.500  -0.200424  8.959899  10.948288  6.901309
