# XDI/1.0 BlueSky/1.10.0 BMM/2023-1.0-py310-tiled
# Beamline.name: BMM (06BM) -- Beamline for Materials Measurement (NIST)
# Beamline.xray_source: NSLS-II three-pole wiggler
# Beamline.collimation: paraboloid mirror, 5 nm Rh on 30 nm Pt
# Beamline.focusing: not in use
# Beamline.harmonic_rejection: flat mirror, Pt stripe, pitch = 7.0 mrad relative to beam
# Beamline.software: Bluesky 1.10.0, Ophyd 1.7.0, DataBroker 2.0.0b13, Python 3.10.8, 2023-1.0-py310-tiled
# Detector.I0: 10 cm N2
# Detector.I1: 25 cm N2
# Detector.I2: 25 cm N2
# Element.symbol: Nb
# Element.edge: K
# Element.reference: Nb
# Element.reference_material: Nb foil
# Facility.name: NSLS-II
# Facility.energy: 3.0
# Facility.current: 400.3
# Facility.mode: top-off
# Facility.GUP: 301027
# Facility.SAF: 310583
# Facility.cycle: 2023-2
# Mono.name: Si(111)
# Mono.d_spacing: 3.1351860
# Mono.encoder_resolution: 0.0000050 deg/ct
# Mono.angle_offset: 16.0754326 deg
# Mono.scan_mode: pseudo channel cut
# Mono.scan_type: step
# Mono.direction: forward in energy
# Sample.name: NbO2
# Sample.prep: powder on tape
# Sample.x: 117.785 mm
# Sample.y: 114.695 mm
# Sample.SDD_position: 205.000 mm
# Scan.experimenters: Bruce Ravel
# Scan.edge_energy: 18985.6
# Scan.start_time: 2023-06-23T20:07:41
# Scan.end_time: 2023-06-23T20:15:08
# Scan.transient_id: 84996
# Scan.uid: 821c02aa-c903-4a0c-b8db-6ca8157c4395
# Scan.plot_hint: ln(I0/It)  --  ln($5/$6)
# Column.1: energy eV
# Column.2: requested_energy eV
# Column.3: measurement_time seconds
# Column.4: xmu 
# Column.5: I0 nA
# Column.6: It nA
# Column.7: Ir nA
# ///////////
# BMM standards collection
# -----------
# energy  requested_energy  measurement_time  xmu  I0  It  Ir
  18785.634  18785.600  0.500  -0.471172  9.992523  16.006735  13.852234
  18795.676  18795.600  0.500  -0.471433  9.968039  15.971677  13.825932
  18805.729  18805.600  0.500  -0.471777  9.953513  15.953887  13.813927
  18815.668  18815.600  0.500  -0.471909  9.934746  15.925910  13.792067
  18825.695  18825.600  0.500  -0.472215  9.894064  15.865551  13.741387
  18835.703  18835.600  0.500  -0.472588  9.873609  15.838658  13.719675
  18845.720  18845.600  0.500  -0.472642  9.848866  15.799811  13.689015
  18855.687  18855.600  0.500  -0.472978  9.819065  15.757301  13.654014
  18865.679  18865.600  0.500  -0.473219  9.792166  15.717931  13.620721
  18875.713  18875.600  0.500  -0.473382  9.771379  15.687119  13.596388
  18885.711  18885.600  0.500  -0.473373  9.748335  15.649976  13.562208
  18895.689  18895.600  0.500  -0.473937  9.717746  15.609669  13.528681
  18905.677  18905.600  0.500  -0.473889  9.693927  15.570658  13.495830
  18915.722  18915.600  0.500  -0.474030  9.656270  15.512360  13.443542
  18925.700  18925.600  0.500  -0.473916  9.642028  15.487716  13.419033
  18935.768  18935.600  0.500  -0.474046  9.618847  15.452500  13.385526
  18945.530  18945.600  0.500  -0.473753  9.580420  15.386256  13.319021
  18955.524  18955.600  0.500  -0.473032  9.563196  15.347528  13.273117
  18957.480  18957.600  0.500  -0.473001  9.549054  15.324354  13.250068
  18959.468  18959.600  0.500  -0.472749  9.552700  15.326344  13.244973
  18961.472  18961.600  0.500  -0.472387  9.543864  15.306628  13.226005
  18963.445  18963.600  0.500  -0.472288  9.535754  15.292103  13.202959
  18965.450  18965.600  0.500  -0.472180  9.527058  15.276505  13.183017
  18967.486  18967.600  0.500  -0.471459  9.524375  15.261197  13.164570
  18969.476  18969.600  0.500  -0.471419  9.516143  15.247393  13.139692
  18971.483  18971.600  0.500  -0.470947  9.509664  15.229817  13.109697
  18973.489  18973.600  0.500  -0.470263  9.508163  15.217013  13.081557
  18975.528  18975.600  0.500  -0.469343  9.508340  15.203300  13.049719
  18975.796  18975.900  0.500  -0.469410  9.504513  15.198192  13.039688
  18976.081  18976.200  0.500  -0.469211  9.490981  15.173535  13.016628
  18976.381  18976.500  0.500  -0.469245  9.502037  15.191726  13.026182
  18976.682  18976.800  0.500  -0.469093  9.493839  15.176309  13.007684
  18976.982  18977.100  0.500  -0.469100  9.486880  15.165306  12.995200
  18977.266  18977.400  0.500  -0.468684  9.487518  15.160012  12.986245
  18977.598  18977.700  0.500  -0.468626  9.477185  15.142617  12.962646
  18977.930  18978.000  0.500  -0.468740  9.481310  15.150934  12.964107
  18978.231  18978.300  0.500  -0.468316  9.472027  15.129686  12.941345
  18978.515  18978.600  0.500  -0.468333  9.464288  15.117577  12.923845
  18978.816  18978.900  0.500  -0.468042  9.458009  15.103161  12.903579
  18979.116  18979.200  0.500  -0.467677  9.451031  15.086505  12.885698
  18979.416  18979.500  0.500  -0.467914  9.448083  15.085378  12.871980
  18979.733  18979.800  0.500  -0.467652  9.440902  15.069958  12.852521
  18980.049  18980.100  0.500  -0.467312  9.449474  15.078515  12.850162
  18980.397  18980.400  0.500  -0.467166  9.436632  15.055826  12.820158
  18980.681  18980.700  0.500  -0.466992  9.433223  15.047773  12.805253
  18980.935  18981.000  0.500  -0.466833  9.438658  15.054040  12.802759
  18981.219  18981.300  0.500  -0.466561  9.437778  15.048547  12.784794
  18981.520  18981.600  0.500  -0.466263  9.443613  15.053373  12.776661
  18981.836  18981.900  0.500  -0.466023  9.444090  15.050516  12.759025
  18982.152  18982.200  0.500  -0.465755  9.443674  15.045816  12.736069
  18982.437  18982.500  0.500  -0.465360  9.448373  15.047355  12.720176
  18982.737  18982.800  0.500  -0.465407  9.450360  15.051234  12.702969
  18983.070  18983.100  0.500  -0.464579  9.462503  15.058095  12.687994
  18983.354  18983.400  0.500  -0.464482  9.457738  15.049052  12.655431
  18983.671  18983.700  0.500  -0.463933  9.468352  15.057676  12.638534
  18983.955  18984.000  0.500  -0.463863  9.458370  15.040751  12.589389
  18984.272  18984.300  0.500  -0.463335  9.467090  15.046661  12.561051
  18984.572  18984.600  0.500  -0.462868  9.467458  15.040223  12.517137
  18984.873  18984.900  0.500  -0.462546  9.461871  15.026520  12.456435
  18985.189  18985.200  0.500  -0.461780  9.464458  15.019118  12.402907
  18985.506  18985.500  0.500  -0.461185  9.466193  15.012926  12.345550
  18985.775  18985.800  0.500  -0.460842  9.459740  14.997555  12.279051
  18986.075  18986.100  0.500  -0.460046  9.468623  14.999695  12.218547
  18986.360  18986.400  0.500  -0.459532  9.465556  14.987130  12.144122
  18986.661  18986.700  0.500  -0.458887  9.470918  14.985940  12.068512
  18986.977  18987.000  0.500  -0.457983  9.464602  14.962415  11.975794
  18987.262  18987.300  0.500  -0.457152  9.461936  14.945783  11.884822
  18987.579  18987.600  0.500  -0.456030  9.457939  14.922708  11.792741
  18987.879  18987.900  0.500  -0.454864  9.462625  14.912702  11.712737
  18988.133  18988.200  0.500  -0.453803  9.467332  14.904310  11.641066
  18988.449  18988.500  0.500  -0.452441  9.458993  14.870911  11.544409
  18988.766  18988.800  0.500  -0.451084  9.456222  14.846386  11.466571
  18989.051  18989.100  0.500  -0.449417  9.462200  14.831029  11.394063
  18989.383  18989.400  0.500  -0.447753  9.471085  14.820273  11.325339
  18989.699  18989.700  0.500  -0.445760  9.460987  14.775008  11.238463
  18990.000  18990.000  0.500  -0.443920  9.458636  14.744182  11.173603
  18990.269  18990.300  0.500  -0.441846  9.463053  14.720505  11.116390
  18990.570  18990.600  0.500  -0.439598  9.467971  14.695083  11.061851
  18990.855  18990.900  0.500  -0.437623  9.462579  14.657734  10.998275
  18991.140  18991.200  0.500  -0.435478  9.469984  14.637769  10.953831
  18991.472  18991.500  0.500  -0.433388  9.459489  14.591028  10.881471
  18991.773  18991.800  0.500  -0.430703  9.459352  14.551684  10.821908
  18992.074  18992.100  0.500  -0.428288  9.461221  14.519453  10.763338
  18992.359  18992.400  0.500  -0.426215  9.460359  14.488061  10.712816
  18992.644  18992.700  0.500  -0.423508  9.463967  14.454406  10.655082
  18992.961  18993.000  0.500  -0.421505  9.460861  14.420752  10.594113
  18993.246  18993.300  0.500  -0.418683  9.460522  14.379600  10.528629
  18993.547  18993.600  0.500  -0.416173  9.463482  14.348035  10.468839
  18993.863  18993.900  0.500  -0.413365  9.463507  14.307841  10.394612
  18994.212  18994.200  0.500  -0.410493  9.463789  14.267238  10.319204
  18994.481  18994.500  0.500  -0.408084  9.472045  14.245320  10.264540
  18994.782  18994.800  0.500  -0.405531  9.457762  14.187577  10.181412
  18995.083  18995.100  0.500  -0.402805  9.463056  14.156882  10.115468
  18995.368  18995.400  0.500  -0.400534  9.470547  14.135936  10.057323
  18995.669  18995.700  0.500  -0.397403  9.461127  14.077741  9.966679
  18995.986  18996.000  0.500  -0.394449  9.457282  14.030502  9.882186
  18996.287  18996.300  0.500  -0.391196  9.454995  13.981561  9.801626
  18996.587  18996.600  0.500  -0.388007  9.491153  13.990338  9.756237
  18996.888  18996.900  0.500  -0.384814  9.495876  13.952680  9.680169
  18997.174  18997.200  0.500  -0.381465  9.498141  13.909349  9.598150
  18997.475  18997.500  0.500  -0.377915  9.493297  13.852990  9.507081
  18997.776  18997.800  0.500  -0.373986  9.496851  13.803839  9.418844
  18998.092  18998.100  0.500  -0.369713  9.498450  13.747289  9.320542
  18998.409  18998.400  0.500  -0.365108  9.494997  13.679157  9.213037
  18998.710  18998.700  0.500  -0.360424  9.486461  13.602995  9.100917
  18999.011  18999.000  0.500  -0.355190  9.490448  13.537665  8.997873
  18999.312  18999.300  0.500  -0.350250  9.489915  13.470199  8.897830
  18999.582  18999.600  0.500  -0.345069  9.498343  13.412489  8.803189
  18999.867  18999.900  0.500  -0.340327  9.493030  13.341571  8.703450
  19000.200  19000.200  0.500  -0.334209  9.487406  13.252347  8.584086
  19000.517  19000.500  0.500  -0.327980  9.488937  13.172178  8.475454
  19000.802  19000.800  0.500  -0.321676  9.491022  13.092280  8.371256
  19001.119  19001.100  0.500  -0.314821  9.496802  13.010758  8.267421
  19001.420  19001.400  0.500  -0.308161  9.489750  12.914788  8.161103
  19001.705  19001.700  0.500  -0.302143  9.489719  12.837268  8.072474
  19001.991  19002.000  0.500  -0.295655  9.488550  12.752676  7.980676
  19002.323  19002.300  0.500  -0.288411  9.487281  12.658931  7.884810
  19002.609  19002.600  0.500  -0.281503  9.482973  12.566079  7.795391
  19002.942  19002.900  0.500  -0.273914  9.490262  12.480654  7.717927
  19003.259  19003.200  0.500  -0.266542  9.492694  12.392168  7.638514
  19003.528  19003.500  0.500  -0.259562  9.492930  12.306275  7.571090
  19003.845  19003.800  0.500  -0.252798  9.482338  12.209680  7.500584
  19004.115  19004.100  0.500  -0.246047  9.489141  12.136225  7.447254
  19004.416  19004.400  0.500  -0.239546  9.478146  12.043613  7.384839
  19004.717  19004.700  0.500  -0.232294  9.482643  11.962263  7.335668
  19005.018  19005.000  0.500  -0.225228  9.483131  11.878645  7.288283
  19005.319  19005.300  0.500  -0.218992  9.477116  11.797315  7.241751
  19005.621  19005.600  0.500  -0.212431  9.478093  11.721380  7.205713
  19005.906  19005.900  0.500  -0.206587  9.473407  11.647313  7.170719
  19006.191  19006.200  0.500  -0.201110  9.478633  11.590083  7.147580
  19006.509  19006.500  0.500  -0.195657  9.480618  11.529466  7.120461
  19006.842  19006.800  0.500  -0.189855  9.474225  11.455040  7.091079
  19007.095  19007.100  0.500  -0.184304  9.474165  11.391564  7.065664
  19007.412  19007.400  0.500  -0.179478  9.469404  11.331017  7.040323
  19007.730  19007.700  0.500  -0.174765  9.471317  11.280025  7.023422
  19008.015  19008.000  0.500  -0.170615  9.468292  11.229713  6.998634
  19008.301  19008.300  0.500  -0.166739  9.466354  11.183988  6.980322
  19008.602  19008.600  0.500  -0.162755  9.468078  11.141548  6.959722
  19008.903  19008.900  0.500  -0.158726  9.467736  11.096348  6.937767
  19009.221  19009.200  0.500  -0.154855  9.466273  11.051765  6.915210
  19009.506  19009.500  0.500  -0.150961  9.463606  11.005713  6.887849
  19009.823  19009.800  0.500  -0.147200  9.463732  10.964548  6.864000
  19010.109  19010.100  0.500  -0.144286  9.463204  10.932027  6.844448
  19010.378  19010.400  0.500  -0.141627  9.458380  10.897440  6.818829
  19010.585  19010.600  0.500  -0.139658  9.465577  10.884279  6.809416
  19011.632  19011.590  0.500  -0.131741  9.464957  10.797745  6.742841
  19012.615  19012.590  0.500  -0.128422  9.453349  10.748772  6.695324
  19013.615  19013.610  0.500  -0.128942  9.448319  10.748640  6.681891
  19014.663  19014.660  0.500  -0.132192  9.445583  10.780508  6.693714
  19015.710  19015.720  0.500  -0.136212  9.451974  10.831247  6.723023
  19016.789  19016.800  0.500  -0.139248  9.443024  10.853894  6.736465
  19017.885  19017.900  0.500  -0.139783  9.441143  10.857538  6.738720
  19019.012  19019.020  0.500  -0.138546  9.438103  10.840631  6.721472
  19020.171  19020.160  0.500  -0.136531  9.435098  10.815359  6.690387
  19021.330  19021.310  0.500  -0.133996  9.431527  10.783896  6.651794
  19022.474  19022.490  0.500  -0.132720  9.425292  10.763029  6.614520
  19023.761  19023.680  0.500  -0.133900  9.424082  10.774347  6.593472
  19024.920  19024.900  0.500  -0.137858  9.418752  10.810965  6.591102
  19026.160  19026.130  0.500  -0.144573  9.422629  10.888280  6.612317
  19027.431  19027.380  0.500  -0.153596  9.415682  10.978876  6.645187
  19028.671  19028.650  0.500  -0.163167  9.412004  11.080127  6.690731
  19029.974  19029.940  0.500  -0.172982  9.409545  11.186490  6.757773
  19031.309  19031.250  0.500  -0.182530  9.401986  11.284735  6.833728
  19032.581  19032.580  0.500  -0.190145  9.402647  11.371791  6.921814
  19033.949  19033.930  0.500  -0.196887  9.396079  11.440731  7.008377
  19035.317  19035.300  0.500  -0.201788  9.391990  11.491932  7.090029
  19036.701  19036.680  0.500  -0.205068  9.384894  11.520978  7.145350
  19038.085  19038.090  0.500  -0.206927  9.384572  11.542011  7.185648
  19039.517  19039.510  0.500  -0.208822  9.382852  11.561786  7.211804
  19040.965  19040.950  0.500  -0.209621  9.378187  11.565283  7.217508
  19042.429  19042.410  0.500  -0.211051  9.365889  11.566640  7.213917
  19043.893  19043.890  0.500  -0.212863  9.362197  11.583054  7.212740
  19045.438  19045.390  0.500  -0.214435  9.360196  11.598795  7.213281
  19046.982  19046.910  0.500  -0.216313  9.357960  11.617827  7.215243
  19048.479  19048.450  0.500  -0.217713  9.349940  11.624131  7.218331
  19050.072  19050.010  0.500  -0.219071  9.342131  11.630198  7.225009
  19051.602  19051.580  0.500  -0.219860  9.331901  11.626632  7.230437
  19053.243  19053.180  0.500  -0.220093  9.328047  11.624546  7.239846
  19054.868  19054.790  0.500  -0.218915  9.330463  11.613870  7.246065
  19056.446  19056.430  0.500  -0.216442  9.336209  11.592310  7.240962
  19058.073  19058.080  0.500  -0.213662  9.334973  11.558603  7.222292
  19059.747  19059.750  0.500  -0.209658  9.325969  11.501312  7.183404
  19061.453  19061.440  0.500  -0.205470  9.322824  11.449375  7.137256
  19063.176  19063.150  0.500  -0.201552  9.318625  11.399469  7.082967
  19064.915  19064.880  0.500  -0.197757  9.313382  11.349903  7.022293
  19066.670  19066.630  0.500  -0.194275  9.311382  11.308023  6.972981
  19068.457  19068.390  0.500  -0.190791  9.301102  11.256252  6.924404
  19070.213  19070.180  0.500  -0.187597  9.295958  11.214157  6.896132
  19072.017  19071.980  0.500  -0.184384  9.295054  11.177091  6.889430
  19073.870  19073.810  0.500  -0.181816  9.289570  11.141848  6.891411
  19075.659  19075.650  0.500  -0.180610  9.289886  11.128800  6.914362
  19077.512  19077.510  0.500  -0.180777  9.287013  11.127219  6.938759
  19079.429  19079.390  0.500  -0.182055  9.273747  11.125532  6.954807
  19081.299  19081.290  0.500  -0.183737  9.267805  11.137124  6.969451
  19083.217  19083.210  0.500  -0.185103  9.267501  11.151977  6.978701
  19085.151  19085.150  0.500  -0.186957  9.259316  11.162805  6.981712
  19087.134  19087.110  0.500  -0.188060  9.258624  11.174293  6.988668
  19089.101  19089.080  0.500  -0.189226  9.248674  11.175299  6.990248
  19091.149  19091.080  0.500  -0.190746  9.244792  11.187606  6.996772
  19093.117  19093.090  0.500  -0.192337  9.237761  11.196901  7.001919
  19095.166  19095.120  0.500  -0.193732  9.243000  11.218885  7.012838
  19097.231  19097.180  0.500  -0.195544  9.224172  11.216333  7.003984
  19099.296  19099.250  0.500  -0.197149  9.224738  11.235041  7.005188
  19101.314  19101.340  0.500  -0.199022  9.220999  11.251542  7.001729
  19103.460  19103.450  0.500  -0.200632  9.214834  11.262136  6.996230
  19105.591  19105.580  0.500  -0.201714  9.205777  11.263250  6.988170
  19107.739  19107.720  0.500  -0.203000  9.197391  11.267470  6.990238
  19109.935  19109.890  0.500  -0.203936  9.196177  11.276529  7.001230
  19112.147  19112.080  0.500  -0.204605  9.193104  11.280313  7.017399
  19114.328  19114.280  0.500  -0.205704  9.182841  11.280101  7.033071
  19116.542  19116.500  0.500  -0.206766  9.172525  11.279409  7.053091
  19118.772  19118.750  0.500  -0.207401  9.170229  11.283751  7.078691
  19121.034  19121.010  0.500  -0.208438  9.163308  11.286930  7.100615
  19123.298  19123.290  0.500  -0.209099  9.164396  11.295727  7.121369
  19125.626  19125.590  0.500  -0.209431  9.159859  11.293888  7.131481
  19127.906  19127.910  0.500  -0.210337  9.146341  11.287447  7.132801
  19130.251  19130.250  0.500  -0.210410  9.145093  11.286724  7.137124
  19132.661  19132.600  0.500  -0.210694  9.127866  11.268660  7.129114
  19135.040  19134.980  0.500  -0.210908  9.128329  11.271652  7.128679
  19137.435  19137.370  0.500  -0.210435  9.124946  11.262149  7.115419
  19139.831  19139.790  0.500  -0.209991  9.120527  11.251691  7.100106
  19142.259  19142.220  0.500  -0.209712  9.118155  11.245624  7.090346
  19144.721  19144.670  0.500  -0.209060  9.111377  11.229940  7.075952
  19147.151  19147.150  0.500  -0.209000  9.098571  11.213488  7.062485
  19149.678  19149.640  0.500  -0.208562  9.096559  11.206100  7.057225
  19152.205  19152.150  0.500  -0.208240  9.086969  11.190677  7.047695
  19154.718  19154.670  0.500  -0.207526  9.080670  11.174941  7.034822
  19157.263  19157.220  0.500  -0.206978  9.072848  11.159196  7.011572
  19159.857  19159.790  0.500  -0.206527  9.070175  11.150882  6.985215
  19162.387  19162.370  0.500  -0.205907  9.067694  11.140923  6.959926
  19164.999  19164.980  0.500  -0.205692  9.058982  11.127824  6.939307
  19167.612  19167.600  0.500  -0.205450  9.051548  11.116003  6.927436
  19170.289  19170.250  0.500  -0.205713  9.042718  11.108083  6.929847
  19172.935  19172.910  0.500  -0.205970  9.032917  11.098890  6.944293
  19175.631  19175.590  0.500  -0.206737  9.026733  11.099805  6.974506
  19178.311  19178.290  0.500  -0.207341  9.018154  11.095956  7.010571
  19181.088  19181.010  0.500  -0.208823  9.014895  11.108398  7.055702
  19183.770  19183.750  0.500  -0.209604  8.996463  11.094345  7.076037
  19186.516  19186.500  0.500  -0.210579  8.991734  11.099334  7.097879
  19189.296  19189.280  0.500  -0.211075  8.998026  11.112610  7.114119
  19192.142  19192.070  0.500  -0.211864  8.990076  11.111547  7.107781
  19194.956  19194.890  0.500  -0.212573  8.989887  11.119199  7.107691
  19197.771  19197.720  0.500  -0.213382  8.975807  11.110764  7.097566
  19200.635  19200.570  0.500  -0.214125  8.966111  11.107018  7.092103
  19203.467  19203.450  0.500  -0.214943  8.962212  11.111272  7.087491
  19206.349  19206.340  0.500  -0.214994  8.956579  11.104859  7.076875
  19209.281  19209.250  0.500  -0.215601  8.947042  11.099764  7.061388
  19212.246  19212.170  0.500  -0.216052  8.951458  11.110256  7.052166
  19215.195  19215.120  0.500  -0.216453  8.941161  11.101930  7.031615
  19218.130  19218.090  0.500  -0.216745  8.922598  11.082109  7.007144
  19221.113  19221.070  0.500  -0.216572  8.917599  11.073988  6.991028
  19224.098  19224.080  0.500  -0.216659  8.902415  11.056091  6.972387
