# XDI/1.0 BlueSky/1.10.0 BMM/2023-1.0-py310-tiled
# Beamline.name: BMM (06BM) -- Beamline for Materials Measurement (NIST)
# Beamline.xray_source: NSLS-II three-pole wiggler
# Beamline.collimation: paraboloid mirror, 5 nm Rh on 30 nm Pt
# Beamline.focusing: not in use
# Beamline.harmonic_rejection: flat mirror, Pt stripe, pitch = 7.0 mrad relative to beam
# Beamline.software: Bluesky 1.10.0, Ophyd 1.7.0, DataBroker 2.0.0b13, Python 3.10.8, 2023-1.0-py310-tiled
# Detector.I0: 10 cm N2
# Detector.I1: 25 cm N2
# Detector.I2: 25 cm N2
# Element.symbol: Ni
# Element.edge: K
# Element.reference: Ni
# Element.reference_material: Ni foil
# Facility.name: NSLS-II
# Facility.energy: 3.0
# Facility.current: 400.7
# Facility.mode: top-off
# Facility.GUP: 301027
# Facility.SAF: 310583
# Facility.cycle: 2023-2
# Mono.name: Si(111)
# Mono.d_spacing: 3.1351860
# Mono.encoder_resolution: 0.0000050 deg/ct
# Mono.angle_offset: 16.0754326 deg
# Mono.scan_mode: pseudo channel cut
# Mono.scan_type: step
# Mono.direction: forward in energy
# Sample.name: NiAl2O4
# Sample.prep: powder on tape
# Sample.x: 117.785 mm
# Sample.y: 114.695 mm
# Sample.SDD_position: 205.000 mm
# Scan.experimenters: Bruce Ravel
# Scan.edge_energy: 8332.8
# Scan.start_time: 2023-06-23T15:50:44
# Scan.end_time: 2023-06-23T15:58:56
# Scan.transient_id: 84860
# Scan.uid: 2fdff45e-b7cc-42c2-baab-dea45c8b2b27
# Scan.plot_hint: ln(I0/It)  --  ln($5/$6)
# Column.1: energy eV
# Column.2: requested_energy eV
# Column.3: measurement_time seconds
# Column.4: xmu 
# Column.5: I0 nA
# Column.6: It nA
# Column.7: Ir nA
# ///////////
# BMM standards collection
# -----------
# energy  requested_energy  measurement_time  xmu  I0  It  Ir
  8132.807  8132.800  0.500  0.418079  134.549567  88.575350  34.055951
  8142.815  8142.800  0.500  0.414119  134.264052  88.738126  34.236119
  8152.825  8152.800  0.500  0.410069  134.089127  88.982183  34.451657
  8162.884  8162.800  0.500  0.406175  133.819215  89.149466  34.634564
  8172.857  8172.800  0.500  0.402353  133.609569  89.350726  34.831279
  8182.815  8182.800  0.500  0.398407  133.369272  89.542625  35.025762
  8192.850  8192.800  0.500  0.394462  133.187685  89.774146  35.233359
  8202.864  8202.800  0.500  0.390697  132.961435  89.959691  35.427805
  8212.814  8212.800  0.500  0.386830  132.732643  90.152913  35.620784
  8222.824  8222.800  0.500  0.383000  132.507271  90.345153  35.813423
  8232.818  8232.800  0.500  0.379251  132.313731  90.552017  36.013623
  8242.837  8242.800  0.500  0.375532  132.086188  90.733129  36.203912
  8252.820  8252.800  0.500  0.371807  131.841342  90.902960  36.388573
  8262.825  8262.800  0.500  0.368095  131.559517  91.045951  36.554807
  8272.817  8272.800  0.500  0.364471  131.362154  91.239430  36.743732
  8282.822  8282.800  0.500  0.360743  131.090580  91.390909  36.911305
  8292.808  8292.800  0.500  0.357216  130.871867  91.560780  37.077137
  8302.813  8302.800  0.500  0.353652  130.665675  91.742892  37.230681
  8304.796  8304.800  0.500  0.352976  130.600993  91.759486  37.248513
  8306.792  8306.800  0.500  0.352355  130.502847  91.747469  37.255399
  8308.795  8308.800  0.500  0.351696  130.500167  91.806058  37.286025
  8310.784  8310.800  0.500  0.351002  130.439273  91.826933  37.300155
  8312.792  8312.800  0.500  0.350325  130.395002  91.857951  37.314041
  8314.789  8314.800  0.500  0.349728  130.368383  91.894040  37.325806
  8316.790  8316.800  0.500  0.349215  130.312812  91.901992  37.325262
  8318.798  8318.800  0.500  0.348616  130.194358  91.873457  37.289047
  8320.798  8320.800  0.500  0.348100  130.167030  91.901634  37.274347
  8322.793  8322.800  0.500  0.347593  130.143094  91.931301  37.237367
  8323.075  8323.100  0.500  0.347487  130.127740  91.930211  37.226381
  8323.375  8323.400  0.500  0.347350  130.118757  91.936429  37.221305
  8323.672  8323.700  0.500  0.347353  130.101358  91.923905  37.206792
  8323.975  8324.000  0.500  0.347295  130.096001  91.925428  37.192895
  8324.275  8324.300  0.500  0.347050  130.122256  91.966541  37.196158
  8324.572  8324.600  0.500  0.347073  130.086836  91.939339  37.172521
  8324.872  8324.900  0.500  0.346964  130.058065  91.929035  37.151750
  8325.175  8325.200  0.500  0.346972  130.053562  91.925082  37.132721
  8325.475  8325.500  0.500  0.346792  130.057395  91.944427  37.123157
  8325.778  8325.800  0.500  0.346694  130.033503  91.936488  37.100579
  8326.082  8326.100  0.500  0.346861  129.986999  91.888316  37.061080
  8326.379  8326.400  0.500  0.346772  129.995836  91.902734  37.042931
  8326.691  8326.700  0.500  0.346621  129.979354  91.904917  37.015241
  8326.988  8327.000  0.500  0.346571  129.964212  91.898845  36.983420
  8327.288  8327.300  0.500  0.346567  129.950982  91.889830  36.947534
  8327.589  8327.600  0.500  0.346528  129.917022  91.869415  36.899519
  8327.886  8327.900  0.500  0.346584  129.906626  91.856889  36.857534
  8328.195  8328.200  0.500  0.346623  129.948381  91.882856  36.820323
  8328.487  8328.500  0.500  0.346568  129.913513  91.863214  36.762848
  8328.793  8328.800  0.500  0.346598  129.952317  91.887930  36.711615
  8329.093  8329.100  0.500  0.346603  129.961653  91.894025  36.636465
  8329.379  8329.400  0.500  0.346595  129.925206  91.869064  36.546175
  8329.688  8329.700  0.500  0.346591  129.900832  91.852178  36.436679
  8329.986  8330.000  0.500  0.346657  129.880952  91.832058  36.295883
  8330.280  8330.300  0.500  0.346826  129.890897  91.823561  36.133854
  8330.590  8330.600  0.500  0.346886  129.896147  91.821713  35.910728
  8330.884  8330.900  0.500  0.346998  129.876159  91.797355  35.619660
  8331.185  8331.200  0.500  0.347257  129.884574  91.779548  35.217357
  8331.488  8331.500  0.500  0.347682  129.846483  91.713579  34.658778
  8331.801  8331.800  0.500  0.348309  129.827653  91.642794  33.927989
  8332.098  8332.100  0.500  0.349150  129.801098  91.547070  33.059733
  8332.396  8332.400  0.500  0.350009  129.806486  91.472219  32.112112
  8332.697  8332.700  0.500  0.350711  129.772013  91.383756  31.147112
  8332.997  8333.000  0.500  0.351036  129.759012  91.344937  30.214933
  8333.298  8333.300  0.500  0.350767  129.717179  91.340042  29.375539
  8333.587  8333.600  0.500  0.350124  129.698730  91.385775  28.642365
  8333.885  8333.900  0.500  0.349392  129.666517  91.430043  27.982594
  8334.188  8334.200  0.500  0.348834  129.629502  91.454928  27.399255
  8334.483  8334.500  0.500  0.348360  129.600612  91.477916  26.880196
  8334.793  8334.800  0.500  0.347921  129.584243  91.506492  26.429585
  8335.091  8335.100  0.500  0.347843  129.555148  91.493082  26.049026
  8335.401  8335.400  0.500  0.347987  129.511635  91.449226  25.719541
  8335.699  8335.700  0.500  0.348359  129.538055  91.433852  25.465031
  8335.999  8336.000  0.500  0.348664  129.522194  91.394792  25.244281
  8336.294  8336.300  0.500  0.349032  129.499874  91.345353  25.057951
  8336.598  8336.600  0.500  0.349369  129.478492  91.299543  24.889560
  8336.893  8336.900  0.500  0.349947  129.529407  91.282694  24.740942
  8337.188  8337.200  0.500  0.350498  129.512950  91.220797  24.568087
  8337.492  8337.500  0.500  0.351283  129.504858  91.143512  24.368635
  8337.790  8337.800  0.500  0.352206  129.508299  91.061814  24.131236
  8338.094  8338.100  0.500  0.353271  129.468815  90.937223  23.847875
  8338.398  8338.400  0.500  0.354749  129.436060  90.779892  23.519629
  8338.697  8338.700  0.500  0.356629  129.439972  90.612187  23.179801
  8339.004  8339.000  0.500  0.358943  129.416619  90.386355  22.827020
  8339.299  8339.300  0.500  0.361768  129.418223  90.132528  22.494329
  8339.603  8339.600  0.500  0.365351  129.413998  89.807206  22.165402
  8339.907  8339.900  0.500  0.369695  129.372240  89.389144  21.841342
  8340.199  8340.200  0.500  0.374740  129.367648  88.936160  21.529416
  8340.492  8340.500  0.500  0.380985  129.340045  88.363588  21.189672
  8340.787  8340.800  0.500  0.388270  129.354393  87.731938  20.833897
  8341.094  8341.100  0.500  0.396611  129.344222  86.996379  20.444510
  8341.399  8341.400  0.500  0.405778  129.345402  86.203278  20.025459
  8341.697  8341.700  0.500  0.415059  129.285484  85.367353  19.581989
  8341.998  8342.000  0.500  0.424813  129.255312  84.518986  19.112414
  8342.306  8342.300  0.500  0.434452  129.284765  83.727322  18.636607
  8342.601  8342.600  0.500  0.443424  129.220112  82.938022  18.160333
  8342.902  8342.900  0.500  0.452449  129.247853  82.210465  17.673558
  8343.204  8343.200  0.500  0.460638  129.218511  81.521472  17.185350
  8343.502  8343.500  0.500  0.468138  129.220531  80.913680  16.712069
  8343.801  8343.800  0.500  0.475287  129.198072  80.323308  16.228663
  8344.096  8344.100  0.500  0.482294  129.130074  79.720441  15.741587
  8344.398  8344.400  0.500  0.490053  129.194058  79.143481  15.254077
  8344.702  8344.700  0.500  0.498929  129.161947  78.424614  14.739476
  8345.004  8345.000  0.500  0.509036  129.157653  77.633440  14.227451
  8345.303  8345.300  0.500  0.519725  129.152059  76.804660  13.729164
  8345.601  8345.600  0.500  0.530763  129.142887  75.956164  13.247031
  8345.912  8345.900  0.500  0.542094  129.119104  75.086510  12.770534
  8346.201  8346.200  0.500  0.552428  129.128061  74.319711  12.347552
  8346.506  8346.500  0.500  0.562663  129.124071  73.560682  11.933472
  8346.796  8346.800  0.500  0.571705  129.109149  72.890151  11.564075
  8347.101  8347.100  0.500  0.580256  129.082257  72.254462  11.216373
  8347.393  8347.400  0.500  0.587207  129.049362  71.735685  10.922006
  8347.695  8347.700  0.500  0.592945  129.048819  71.324936  10.676346
  8347.997  8348.000  0.500  0.597287  129.035252  71.008453  10.480790
  8348.299  8348.300  0.500  0.600773  129.027398  70.757033  10.330552
  8348.598  8348.600  0.500  0.604217  129.003546  70.500733  10.206802
  8348.902  8348.900  0.500  0.608352  128.987302  70.200991  10.105407
  8349.201  8349.200  0.500  0.614036  128.968088  69.792670  10.010076
  8349.506  8349.500  0.500  0.621408  128.885669  69.235782  9.907757
  8349.796  8349.800  0.500  0.630673  128.911335  68.610959  9.814196
  8350.092  8350.100  0.500  0.641790  128.892193  67.842349  9.712899
  8350.400  8350.400  0.500  0.654299  128.827975  66.965626  9.605094
  8350.687  8350.700  0.500  0.666928  128.816384  66.119277  9.509718
  8350.992  8351.000  0.500  0.679680  128.789779  65.267961  9.422806
  8351.297  8351.300  0.500  0.690457  128.751064  64.548935  9.356303
  8351.602  8351.600  0.500  0.698078  128.913592  64.139727  9.338090
  8351.901  8351.900  0.500  0.701406  128.939618  63.939582  9.350737
  8352.206  8352.200  0.500  0.699853  128.911324  64.024849  9.402382
  8352.497  8352.500  0.500  0.693388  128.827497  64.398222  9.493149
  8352.799  8352.800  0.500  0.682111  128.805701  65.117545  9.631236
  8353.104  8353.100  0.500  0.667273  128.811932  66.094159  9.799344
  8353.391  8353.400  0.500  0.651191  128.798654  67.158767  9.969041
  8353.690  8353.700  0.500  0.635182  128.790682  68.238360  10.129699
  8353.999  8354.000  0.500  0.619613  128.770868  69.298373  10.270375
  8354.298  8354.300  0.500  0.606655  128.804003  70.220248  10.377064
  8354.597  8354.600  0.500  0.595767  128.769596  70.970014  10.439615
  8354.893  8354.900  0.500  0.586940  128.745987  71.586102  10.467267
  8355.199  8355.200  0.500  0.579802  128.761432  72.107597  10.465529
  8355.501  8355.500  0.500  0.574180  128.774047  72.521194  10.440952
  8355.807  8355.800  0.500  0.569865  128.763048  72.828643  10.389982
  8356.103  8356.100  0.500  0.566450  128.744814  73.067422  10.328998
  8356.399  8356.400  0.500  0.563753  128.722690  73.252118  10.265967
  8356.702  8356.700  0.500  0.561386  128.688791  73.406403  10.205505
  8357.001  8357.000  0.500  0.559131  128.744139  73.603749  10.163690
  8357.301  8357.300  0.500  0.556837  128.731641  73.765625  10.134734
  8357.597  8357.600  0.500  0.554168  128.715077  73.953273  10.126291
  8357.792  8357.800  0.500  0.552217  128.697942  74.087834  10.131216
  8358.778  8358.790  0.500  0.538060  128.666205  75.125591  10.303027
  8359.781  8359.790  0.500  0.520001  128.673194  76.498810  10.632461
  8360.806  8360.810  0.500  0.506368  128.648476  77.533904  10.934474
  8361.886  8361.860  0.500  0.499394  128.626983  78.063525  11.138658
  8362.941  8362.920  0.500  0.498850  128.593531  78.085650  11.273704
  8364.000  8364.000  0.500  0.503624  128.554256  77.690047  11.394171
  8365.170  8365.100  0.500  0.512187  128.570240  77.037209  11.518256
  8366.200  8366.220  0.500  0.517484  128.540032  76.612218  11.570023
  8367.458  8367.360  0.500  0.521739  128.458475  76.238508  11.592642
  8368.557  8368.510  0.500  0.520445  128.467856  76.342803  11.654002
  8369.701  8369.690  0.500  0.513858  128.401967  76.807954  11.752403
  8370.867  8370.880  0.500  0.504809  128.387222  77.497237  11.837515
  8372.084  8372.100  0.500  0.495999  128.374975  78.175509  11.849005
  8373.314  8373.330  0.500  0.489503  128.334189  78.659976  11.767995
  8374.568  8374.580  0.500  0.484867  128.264637  78.982669  11.603720
  8375.834  8375.850  0.500  0.481809  128.268761  79.227111  11.396811
  8377.137  8377.140  0.500  0.481020  128.253154  79.280032  11.144542
  8378.440  8378.450  0.500  0.483014  128.251797  79.121212  10.850725
  8379.771  8379.780  0.500  0.487384  128.187808  78.736939  10.553490
  8381.124  8381.130  0.500  0.493189  128.158461  78.263261  10.313891
  8382.501  8382.500  0.500  0.498858  128.122928  77.799314  10.195056
  8383.878  8383.880  0.500  0.504351  128.063673  77.337340  10.194961
  8385.286  8385.290  0.500  0.510058  128.027546  76.875531  10.296919
  8386.710  8386.710  0.500  0.515756  127.957151  76.396691  10.487803
  8388.149  8388.150  0.500  0.520916  127.920878  75.981942  10.724808
  8389.601  8389.610  0.500  0.526254  127.857075  75.539735  10.939322
  8391.087  8391.090  0.500  0.531892  127.841653  75.106022  11.118567
  8392.585  8392.590  0.500  0.536757  127.781481  74.706329  11.265323
  8394.114  8394.110  0.500  0.540298  127.725641  74.409746  11.369391
  8395.640  8395.650  0.500  0.542747  127.708360  74.217653  11.414482
  8397.204  8397.210  0.500  0.543740  127.660945  74.116510  11.406702
  8398.780  8398.780  0.500  0.541999  127.609709  74.215848  11.414964
  8400.384  8400.380  0.500  0.537440  127.531368  74.509147  11.481970
  8401.982  8401.990  0.500  0.531714  127.514962  74.927420  11.595093
  8403.627  8403.630  0.500  0.526790  127.460119  75.264874  11.683293
  8405.284  8405.280  0.500  0.524280  127.432333  75.437566  11.701090
  8406.951  8406.950  0.500  0.523722  127.394130  75.457085  11.640022
  8408.637  8408.640  0.500  0.523491  127.372664  75.461780  11.544954
  8410.354  8410.350  0.500  0.522534  127.333874  75.510985  11.477965
  8412.087  8412.080  0.500  0.521106  127.265184  75.578137  11.429210
  8413.836  8413.830  0.500  0.519273  127.220392  75.690111  11.366338
  8415.601  8415.590  0.500  0.516878  127.178864  75.846866  11.266964
  8417.385  8417.380  0.500  0.513777  127.146625  76.063176  11.154301
  8419.185  8419.180  0.500  0.510384  127.040882  76.258223  11.053952
  8421.009  8421.010  0.500  0.506833  127.067695  76.545618  10.967933
  8422.863  8422.850  0.500  0.503703  127.022699  76.758432  10.857796
  8424.707  8424.710  0.500  0.501314  126.959760  76.903895  10.713863
  8426.593  8426.590  0.500  0.499801  126.877905  76.970620  10.536534
  8428.494  8428.490  0.500  0.498856  126.833357  77.016384  10.377303
  8430.418  8430.410  0.500  0.498020  126.824000  77.075138  10.267024
  8432.360  8432.350  0.500  0.497115  126.793279  77.126214  10.245585
  8434.322  8434.310  0.500  0.496072  126.714191  77.158502  10.319525
  8436.279  8436.280  0.500  0.495003  126.679672  77.220014  10.488714
  8438.289  8438.280  0.500  0.494288  126.630287  77.245101  10.703145
  8440.300  8440.290  0.500  0.494237  126.597204  77.228848  10.929733
  8442.330  8442.320  0.500  0.495108  126.531986  77.121886  11.164391
  8444.385  8444.380  0.500  0.496416  126.486979  76.993702  11.380009
  8446.445  8446.450  0.500  0.497522  126.434370  76.876565  11.534476
  8448.558  8448.540  0.500  0.497606  126.360729  76.825376  11.672107
  8450.647  8450.650  0.500  0.496457  126.290447  76.870864  11.868741
  8452.793  8452.780  0.500  0.494638  126.224432  76.970628  12.139065
  8454.924  8454.920  0.500  0.492565  126.189050  77.108674  12.424880
  8457.093  8457.090  0.500  0.490364  126.048283  77.192409  12.648979
  8459.288  8459.280  0.500  0.488233  126.089448  77.382336  12.778246
  8461.494  8461.480  0.500  0.486603  125.988137  77.446273  12.774588
  8463.712  8463.700  0.500  0.485760  125.904548  77.460166  12.668398
  8465.966  8465.950  0.500  0.485565  125.887898  77.465064  12.495386
  8468.218  8468.210  0.500  0.485765  125.842801  77.421802  12.288505
  8470.515  8470.490  0.500  0.485981  125.753849  77.350367  12.076716
  8472.800  8472.790  0.500  0.486581  125.674387  77.255098  11.911420
  8475.130  8475.110  0.500  0.487546  125.636602  77.157395  11.832542
  8477.449  8477.450  0.500  0.488983  125.594013  77.020463  11.835589
  8479.818  8479.800  0.500  0.490954  125.535868  76.833259  11.878016
  8482.195  8482.180  0.500  0.493119  125.463894  76.623114  11.882684
  8484.586  8484.570  0.500  0.494669  125.396624  76.463410  11.766183
  8487.002  8486.990  0.500  0.495035  125.337012  76.399128  11.496405
  8489.436  8489.420  0.500  0.493910  125.279720  76.450135  11.142085
  8491.890  8491.870  0.500  0.491448  125.214744  76.598836  10.838085
  8494.367  8494.350  0.500  0.488198  125.152210  76.809816  10.661044
  8496.861  8496.840  0.500  0.484631  125.102948  77.053966  10.603364
  8499.371  8499.350  0.500  0.481305  125.002475  77.248611  10.603585
  8501.890  8501.870  0.500  0.478234  124.927573  77.439721  10.652841
  8504.429  8504.420  0.500  0.475595  124.850775  77.596616  10.780095
  8507.009  8506.990  0.500  0.473150  124.784854  77.745566  11.014463
  8509.582  8509.570  0.500  0.470940  124.690518  77.858653  11.344075
  8512.200  8512.180  0.500  0.468869  124.611235  77.970459  11.761072
  8514.820  8514.800  0.500  0.467126  124.526045  78.053053  12.254343
  8517.463  8517.450  0.500  0.465695  124.449027  78.116481  12.778981
  8520.130  8520.110  0.500  0.464722  124.314110  78.107755  13.247213
  8522.811  8522.790  0.500  0.464139  124.170440  78.063029  13.548999
  8525.509  8525.490  0.500  0.463704  123.857504  77.900100  13.606478
  8528.225  8528.210  0.500  0.463281  123.119898  77.468986  13.400288
  8530.964  8530.950  0.500  0.462576  108.824766  68.522542  11.620043
  8533.721  8533.700  0.500  0.461679  123.856866  78.057658  12.922683
  8536.492  8536.480  0.500  0.460677  124.259139  78.389638  12.704965
  8539.287  8539.270  0.500  0.459504  124.176978  78.429812  12.499241
  8542.105  8542.090  0.500  0.458498  124.049992  78.428458  12.375000
  8544.939  8544.920  0.500  0.457756  123.933585  78.413000  12.343356
  8547.783  8547.770  0.500  0.457182  123.870152  78.417857  12.379358
  8550.677  8550.650  0.500  0.456770  123.768065  78.385530  12.438348
  8553.559  8553.540  0.500  0.456242  123.708437  78.389161  12.508185
  8556.470  8556.450  0.500  0.455514  123.605491  78.380942  12.597228
  8559.385  8559.370  0.500  0.454507  123.534111  78.414596  12.724225
  8562.346  8562.320  0.500  0.453194  123.454270  78.466880  12.834464
  8565.313  8565.290  0.500  0.451880  123.368883  78.515745  12.840088
  8568.297  8568.270  0.500  0.450645  123.256416  78.541053  12.688377
  8571.297  8571.280  0.500  0.449718  123.186348  78.569239  12.450433
  8574.320  8574.300  0.500  0.448774  123.106749  78.592586  12.236678
  8577.359  8577.350  0.500  0.447497  123.030490  78.644268  12.098516
