# XDI/1.0 BlueSky/1.10.0 BMM/2023-1.0-py310-tiled
# Beamline.name: BMM (06BM) -- Beamline for Materials Measurement (NIST)
# Beamline.xray_source: NSLS-II three-pole wiggler
# Beamline.collimation: paraboloid mirror, 5 nm Rh on 30 nm Pt
# Beamline.focusing: not in use
# Beamline.harmonic_rejection: flat mirror, Pt stripe, pitch = 7.0 mrad relative to beam
# Beamline.software: Bluesky 1.10.0, Ophyd 1.7.0, DataBroker 2.0.0b13, Python 3.10.8, 2023-1.0-py310-tiled
# Detector.I0: 10 cm N2
# Detector.I1: 25 cm N2
# Detector.I2: 25 cm N2
# Element.symbol: Ni
# Element.edge: K
# Element.reference: Ni
# Element.reference_material: Ni foil
# Facility.name: NSLS-II
# Facility.energy: 3.0
# Facility.current: 400.0
# Facility.mode: top-off
# Facility.GUP: 301027
# Facility.SAF: 310583
# Facility.cycle: 2023-2
# Mono.name: Si(111)
# Mono.d_spacing: 3.1351860
# Mono.encoder_resolution: 0.0000050 deg/ct
# Mono.angle_offset: 16.0754326 deg
# Mono.scan_mode: pseudo channel cut
# Mono.scan_type: step
# Mono.direction: forward in energy
# Sample.name: NiO
# Sample.prep: powder in PEG pellet
# Sample.x: 117.785 mm
# Sample.y: 114.695 mm
# Sample.SDD_position: 205.000 mm
# Scan.experimenters: Bruce Ravel
# Scan.edge_energy: 8332.8
# Scan.start_time: 2023-06-23T15:24:28
# Scan.end_time: 2023-06-23T15:32:29
# Scan.transient_id: 84845
# Scan.uid: 4ad14882-a8fb-43f3-9eb1-149c876869b4
# Scan.plot_hint: ln(I0/It)  --  ln($5/$6)
# Column.1: energy eV
# Column.2: requested_energy eV
# Column.3: measurement_time seconds
# Column.4: xmu 
# Column.5: I0 nA
# Column.6: It nA
# Column.7: Ir nA
# ///////////
# sample courtesy Martin Stennett, University of Sheffield
# -----------
# energy  requested_energy  measurement_time  xmu  I0  It  Ir
  8132.832  8132.800  0.500  1.502842  135.876211  30.232039  11.612105
  8142.886  8142.800  0.500  1.494990  135.640677  30.417542  11.722578
  8152.862  8152.800  0.500  1.487150  135.393266  30.601029  11.834667
  8162.850  8162.800  0.500  1.479443  135.213163  30.796765  11.950772
  8172.832  8172.800  0.500  1.471891  135.013391  30.984365  12.067027
  8182.815  8182.800  0.500  1.464163  134.808583  31.177395  12.182685
  8192.824  8192.800  0.500  1.456591  134.598017  31.365278  12.297752
  8202.813  8202.800  0.500  1.449046  134.394706  31.555090  12.413191
  8212.817  8212.800  0.500  1.441696  134.183251  31.737871  12.528348
  8222.780  8222.800  0.500  1.434325  133.990645  31.926765  12.644809
  8232.795  8232.800  0.500  1.427082  132.419472  31.781755  12.628623
  8242.799  8242.800  0.500  1.419850  132.107641  31.937047  12.730829
  8252.800  8252.800  0.500  1.413028  131.904134  32.106135  12.838470
  8262.790  8262.800  0.500  1.406114  131.645111  32.265425  12.942470
  8272.799  8272.800  0.500  1.399873  131.432059  32.414876  13.042565
  8282.801  8282.800  0.500  1.394062  131.209676  32.548603  13.134969
  8292.802  8292.800  0.500  1.389070  130.977806  32.653685  13.212050
  8302.789  8302.800  0.500  1.385499  130.746056  32.712517  13.263741
  8304.784  8304.800  0.500  1.385227  130.647160  32.696676  13.262104
  8306.783  8306.800  0.500  1.385002  130.599288  32.692030  13.262961
  8308.780  8308.800  0.500  1.384994  130.505411  32.668818  13.257777
  8310.781  8310.800  0.500  1.385163  130.457581  32.651330  13.252908
  8312.786  8312.800  0.500  1.385624  130.476092  32.640907  13.249868
  8314.786  8314.800  0.500  1.386336  130.342230  32.584207  13.225373
  8316.781  8316.800  0.500  1.387576  130.315136  32.537042  13.203181
  8318.786  8318.800  0.500  1.389278  130.286595  32.474607  13.170515
  8320.786  8320.800  0.500  1.391713  130.222508  32.379695  13.123665
  8322.781  8322.800  0.500  1.395009  130.166489  32.259261  13.058219
  8323.078  8323.100  0.500  1.395683  130.111255  32.223852  13.040817
  8323.375  8323.400  0.500  1.396366  130.131518  32.206855  13.028603
  8323.675  8323.700  0.500  1.396921  130.072917  32.174491  13.012434
  8323.975  8324.000  0.500  1.397662  130.042158  32.143065  12.994934
  8324.275  8324.300  0.500  1.398459  130.047152  32.118679  12.979761
  8324.572  8324.600  0.500  1.399207  130.020005  32.087977  12.962272
  8324.869  8324.900  0.500  1.399979  130.015334  32.062052  12.946385
  8325.172  8325.200  0.500  1.400821  130.000123  32.031337  12.927631
  8325.475  8325.500  0.500  1.401749  129.948741  31.988957  12.907737
  8325.775  8325.800  0.500  1.402664  129.988636  31.969509  12.888327
  8326.079  8326.100  0.500  1.403766  129.945718  31.923770  12.863099
  8326.379  8326.400  0.500  1.404927  129.867320  31.867483  12.834133
  8326.688  8326.700  0.500  1.406184  129.906230  31.836990  12.811460
  8326.982  8327.000  0.500  1.407427  129.888189  31.793029  12.783682
  8327.285  8327.300  0.500  1.408789  129.847989  31.739934  12.748875
  8327.586  8327.600  0.500  1.410157  129.899123  31.709015  12.724588
  8327.892  8327.900  0.500  1.411678  129.811312  31.639418  12.681167
  8328.192  8328.200  0.500  1.413208  129.832065  31.596116  12.649817
  8328.478  8328.500  0.500  1.414868  129.830435  31.543286  12.611679
  8328.799  8328.800  0.500  1.416883  129.818849  31.477011  12.561418
  8329.087  8329.100  0.500  1.418870  129.809802  31.412318  12.509978
  8329.394  8329.400  0.500  1.421146  129.782295  31.334270  12.448758
  8329.694  8329.700  0.500  1.423722  129.753098  31.246612  12.377534
  8329.992  8330.000  0.500  1.426596  129.765049  31.159834  12.296199
  8330.295  8330.300  0.500  1.429964  129.743385  31.049879  12.193237
  8330.581  8330.600  0.500  1.433688  129.758408  30.938026  12.074905
  8330.890  8330.900  0.500  1.438603  129.676282  30.766875  11.903515
  8331.188  8331.200  0.500  1.444891  129.735982  30.588091  11.695209
  8331.488  8331.500  0.500  1.453024  129.604834  30.309663  11.404616
  8331.792  8331.800  0.500  1.464981  129.674387  29.965476  11.036488
  8332.092  8332.100  0.500  1.480396  129.706196  29.514324  10.601393
  8332.387  8332.400  0.500  1.497454  129.623965  28.996751  10.129321
  8332.700  8332.700  0.500  1.513132  129.615093  28.543714  9.661508
  8332.997  8333.000  0.500  1.520807  129.580538  28.317933  9.304138
  8333.292  8333.300  0.500  1.519400  129.558645  28.353012  9.056588
  8333.602  8333.600  0.500  1.512297  129.503918  28.543061  8.878770
  8333.906  8333.900  0.500  1.505334  129.529227  28.748122  8.738720
  8334.197  8334.200  0.500  1.501757  129.513121  28.847556  8.589793
  8334.501  8334.500  0.500  1.502413  129.380284  28.799070  8.417208
  8334.796  8334.800  0.500  1.507056  129.418581  28.674162  8.249732
  8335.094  8335.100  0.500  1.515196  129.393415  28.436160  8.069082
  8335.395  8335.400  0.500  1.527850  129.395797  28.079120  7.878167
  8335.696  8335.700  0.500  1.544862  129.386776  27.603552  7.672607
  8335.990  8336.000  0.500  1.567337  129.388218  26.990383  7.443369
  8336.291  8336.300  0.500  1.594530  129.347568  26.258073  7.192036
  8336.595  8336.600  0.500  1.624696  129.341583  25.476611  6.934962
  8336.887  8336.900  0.500  1.654190  129.341324  24.736118  6.692990
  8337.197  8337.200  0.500  1.683221  129.332862  24.026774  6.458400
  8337.507  8337.500  0.500  1.712848  129.334873  23.325721  6.221276
  8337.799  8337.800  0.500  1.742568  129.254041  22.628535  5.981993
  8338.100  8338.100  0.500  1.776626  129.314575  21.881083  5.723462
  8338.401  8338.400  0.500  1.818868  129.268142  20.968487  5.419531
  8338.706  8338.700  0.500  1.871416  129.286488  19.897905  5.078304
  8339.004  8339.000  0.500  1.935040  129.283297  18.670901  4.707614
  8339.293  8339.300  0.500  2.010927  129.283025  17.306406  4.315038
  8339.603  8339.600  0.500  2.106430  129.252907  15.726407  3.877699
  8339.895  8339.900  0.500  2.212076  129.251747  14.149596  3.455662
  8340.188  8340.200  0.500  2.324160  129.144544  12.638810  3.058220
  8340.498  8340.500  0.500  2.449302  129.121129  11.150111  2.671777
  8340.799  8340.800  0.500  2.569470  129.184547  9.892455  2.346600
  8341.088  8341.100  0.500  2.683323  129.195869  8.828689  2.072083
  8341.399  8341.400  0.500  2.794966  129.187929  7.895574  1.831053
  8341.697  8341.700  0.500  2.902302  129.186645  7.091918  1.623099
  8341.998  8342.000  0.500  3.008244  129.139776  6.376702  1.438962
  8342.294  8342.300  0.500  3.110469  129.103564  5.755443  1.278476
  8342.604  8342.600  0.500  3.214599  129.114395  5.186713  1.132003
  8342.905  8342.900  0.500  3.318781  129.113366  4.673510  1.001542
  8343.201  8343.200  0.500  3.425068  129.057855  4.200455  0.882648
  8343.502  8343.500  0.500  3.544265  129.090620  3.729410  0.767999
  8343.801  8343.800  0.500  3.683694  129.555114  3.255718  0.656213
  8344.102  8344.100  0.500  3.846402  129.543359  2.766584  0.545190
  8344.401  8344.400  0.500  4.040880  129.514429  2.277123  0.438541
  8344.693  8344.700  0.500  4.257117  129.526048  1.834487  0.344931
  8344.995  8345.000  0.500  4.488512  129.508243  1.455329  0.266131
  8345.297  8345.300  0.500  4.704137  129.508397  1.173052  0.208539
  8345.592  8345.600  0.500  4.891478  129.503297  0.972610  0.168475
  8345.891  8345.900  0.500  5.051997  129.508312  0.828406  0.139209
  8346.207  8346.200  0.500  5.190626  129.478408  0.721003  0.117984
  8346.500  8346.500  0.500  5.309346  129.454248  0.640172  0.102018
  8346.802  8346.800  0.500  5.422989  129.412518  0.571218  0.088723
  8347.104  8347.100  0.500  5.536824  129.422262  0.509796  0.077143
  8347.402  8347.400  0.500  5.649056  129.399476  0.455595  0.067556
  8347.698  8347.700  0.500  5.766064  129.457568  0.405469  0.058961
  8348.006  8348.000  0.500  5.890066  129.378716  0.357964  0.051006
  8348.311  8348.300  0.500  6.022913  129.342219  0.313345  0.044021
  8348.607  8348.600  0.500  6.159267  129.343921  0.273407  0.037712
  8348.893  8348.900  0.500  6.296244  129.320000  0.238365  0.032651
  8349.198  8349.200  0.500  6.429737  129.342929  0.208614  0.028254
  8349.500  8349.500  0.500  6.540769  129.285217  0.186607  0.025017
  8349.793  8349.800  0.500  6.609446  129.228920  0.174146  0.023139
  8350.092  8350.100  0.500  6.632474  129.199835  0.170143  0.022689
  8350.397  8350.400  0.500  6.607315  129.193363  0.174470  0.023263
  8350.702  8350.700  0.500  6.546800  129.097285  0.185216  0.024994
  8350.998  8351.000  0.500  6.460460  129.144813  0.201992  0.027350
  8351.297  8351.300  0.500  6.360944  129.131228  0.223105  0.030766
  8351.605  8351.600  0.500  6.245530  129.098170  0.250335  0.034723
  8351.907  8351.900  0.500  6.126691  129.075859  0.281875  0.039603
  8352.203  8352.200  0.500  6.007399  129.031438  0.317479  0.044839
  8352.506  8352.500  0.500  5.882589  129.001612  0.359600  0.051355
  8352.814  8352.800  0.500  5.757737  128.979302  0.407349  0.058574
  8353.104  8353.100  0.500  5.640393  128.963302  0.458009  0.066284
  8353.400  8353.400  0.500  5.528607  128.906755  0.511955  0.074207
  8353.696  8353.700  0.500  5.428319  128.962978  0.566208  0.082276
  8354.002  8354.000  0.500  5.337163  128.940436  0.620139  0.089797
  8354.298  8354.300  0.500  5.263420  128.925816  0.667522  0.096542
  8354.597  8354.600  0.500  5.200196  128.853231  0.710688  0.102490
  8354.896  8354.900  0.500  5.146416  128.889791  0.750168  0.107754
  8355.208  8355.200  0.500  5.097451  128.897456  0.787861  0.112324
  8355.501  8355.500  0.500  5.053411  128.912029  0.823427  0.116235
  8355.798  8355.800  0.500  5.008816  128.879786  0.860763  0.120645
  8356.103  8356.100  0.500  4.959080  128.887084  0.904708  0.125768
  8356.405  8356.400  0.500  4.903522  128.884536  0.956375  0.131790
  8356.702  8356.700  0.500  4.841924  128.876874  1.017078  0.139474
  8357.001  8357.000  0.500  4.771569  128.878858  1.091228  0.148728
  8357.307  8357.300  0.500  4.697686  128.889301  1.175000  0.159547
  8357.603  8357.600  0.500  4.622327  128.864894  1.266728  0.171441
  8357.807  8357.800  0.500  4.572968  128.854493  1.330714  0.180258
  8358.796  8358.790  0.500  4.338946  128.860153  1.681661  0.229390
  8359.796  8359.790  0.500  4.164909  128.831881  2.000905  0.276939
  8360.836  8360.810  0.500  4.080010  128.816870  2.177946  0.306156
  8361.877  8361.860  0.500  4.092814  128.796432  2.149894  0.305329
  8362.929  8362.920  0.500  4.201883  128.780383  1.927504  0.276686
  8364.012  8364.000  0.500  4.375107  128.752611  1.620582  0.236184
  8365.119  8365.100  0.500  4.526187  128.725849  1.393054  0.206386
  8366.239  8366.220  0.500  4.579299  128.700567  1.320737  0.197836
  8367.370  8367.360  0.500  4.541087  128.662320  1.371773  0.206806
  8368.527  8368.510  0.500  4.453396  128.644808  1.497294  0.226827
  8369.713  8369.690  0.500  4.371624  128.614987  1.624498  0.246885
  8370.894  8370.880  0.500  4.320579  128.561228  1.708859  0.258993
  8372.117  8372.100  0.500  4.274207  128.542812  1.789713  0.269185
  8373.341  8373.330  0.500  4.216826  128.577992  1.895931  0.281085
  8374.595  8374.580  0.500  4.154457  128.527023  2.017143  0.293907
  8375.858  8375.850  0.500  4.108317  128.506437  2.112056  0.301362
  8377.152  8377.140  0.500  4.093129  128.466966  2.143721  0.299428
  8378.471  8378.450  0.500  4.113722  128.477533  2.100198  0.285773
  8379.786  8379.780  0.500  4.168521  128.452274  1.987816  0.264565
  8381.142  8381.130  0.500  4.243136  128.414065  1.844344  0.241258
  8382.510  8382.500  0.500  4.314400  128.362485  1.716793  0.223519
  8383.887  8383.880  0.500  4.372750  128.294596  1.618629  0.212047
  8385.304  8385.290  0.500  4.412758  128.277719  1.554944  0.206983
  8386.716  8386.710  0.500  4.452730  128.204955  1.493168  0.203733
  8388.155  8388.150  0.500  4.529255  128.089069  1.381915  0.193720
  8389.622  8389.610  0.500  4.653977  128.064247  1.219639  0.175193
  8391.099  8391.090  0.500  4.799994  128.065256  1.053951  0.154396
  8392.606  8392.590  0.500  4.935350  128.016770  0.920177  0.137202
  8394.138  8394.110  0.500  5.035281  127.960704  0.832304  0.125282
  8395.661  8395.650  0.500  5.101833  127.900784  0.778351  0.117866
  8397.231  8397.210  0.500  5.151815  127.872447  0.740239  0.111995
  8398.795  8398.780  0.500  5.190359  127.875168  0.712266  0.107581
  8400.390  8400.380  0.500  5.202597  127.795949  0.703166  0.106409
  8402.006  8401.990  0.500  5.158350  127.743555  0.734677  0.111585
  8403.639  8403.630  0.500  5.067405  127.699549  0.804347  0.122837
  8405.299  8405.280  0.500  4.962502  127.651590  0.892974  0.136307
  8406.954  8406.950  0.500  4.861844  127.605271  0.987181  0.150054
  8408.655  8408.640  0.500  4.753473  127.588726  1.100032  0.166224
  8410.360  8410.350  0.500  4.655872  127.533528  1.212285  0.182566
  8412.090  8412.080  0.500  4.572365  127.485780  1.317374  0.197173
  8413.842  8413.830  0.500  4.492565  127.423246  1.426108  0.212037
  8415.592  8415.590  0.500  4.417544  127.393205  1.536849  0.226503
  8417.391  8417.380  0.500  4.357870  127.348639  1.630780  0.237175
  8419.181  8419.180  0.500  4.321301  127.273036  1.690516  0.242969
  8421.037  8421.010  0.500  4.303388  127.290983  1.721314  0.244653
  8422.856  8422.850  0.500  4.309889  127.221658  1.709229  0.239834
  8424.729  8424.710  0.500  4.341911  127.166138  1.654640  0.228484
  8426.593  8426.590  0.500  4.392049  127.130122  1.573279  0.213445
  8428.494  8428.490  0.500  4.446782  127.076361  1.488854  0.198686
  8430.421  8430.410  0.500  4.489390  127.030361  1.426232  0.188446
  8432.354  8432.350  0.500  4.507582  126.993832  1.400117  0.184079
  8434.319  8434.310  0.500  4.511738  126.917705  1.393475  0.184764
  8436.285  8436.280  0.500  4.517143  126.892795  1.385691  0.186664
  8438.292  8438.280  0.500  4.525207  126.812564  1.373693  0.188858
  8440.291  8440.290  0.500  4.538997  126.758987  1.354308  0.189946
  8442.339  8442.320  0.500  4.571717  126.736400  1.310479  0.187920
  8444.388  8444.380  0.500  4.626799  126.660467  1.239503  0.181406
  8446.466  8446.450  0.500  4.692448  126.602845  1.160217  0.172042
  8448.552  8448.540  0.500  4.741294  126.543914  1.104393  0.165957
  8450.662  8450.650  0.500  4.753031  126.498204  1.091111  0.166509
  8452.786  8452.780  0.500  4.731331  126.454541  1.114663  0.173667
  8454.936  8454.920  0.500  4.686196  126.312968  1.164820  0.185468
  8457.099  8457.090  0.500  4.617194  126.286148  1.247769  0.202262
  8459.288  8459.280  0.500  4.533478  126.279192  1.356649  0.221813
  8461.497  8461.480  0.500  4.445769  126.217258  1.480287  0.241809
  8463.703  8463.700  0.500  4.362588  126.091773  1.607085  0.260410
  8465.960  8465.950  0.500  4.305902  126.035308  1.700054  0.271846
  8468.228  8468.210  0.500  4.302873  125.998717  1.704716  0.268234
  8470.502  8470.490  0.500  4.359309  125.907908  1.610011  0.249174
  8472.800  8472.790  0.500  4.458177  125.897099  1.458325  0.222660
  8475.136  8475.110  0.500  4.564921  125.819495  1.309870  0.198695
  8477.455  8477.450  0.500  4.644661  125.786118  1.209156  0.183773
  8479.821  8479.800  0.500  4.675675  125.722529  1.171637  0.179092
  8482.186  8482.180  0.500  4.655123  125.636411  1.195147  0.183118
  8484.601  8484.570  0.500  4.605049  125.570112  1.255853  0.190912
  8486.999  8486.990  0.500  4.556450  125.519104  1.317858  0.195908
  8489.442  8489.420  0.500  4.528510  125.401399  1.353928  0.194906
  8491.881  8491.870  0.500  4.534840  125.408454  1.345461  0.188279
  8494.373  8494.350  0.500  4.563599  125.312550  1.306317  0.179301
  8496.845  8496.840  0.500  4.593895  125.265400  1.266858  0.172459
  8499.368  8499.350  0.500  4.623916  125.158711  1.228344  0.166816
  8501.878  8501.870  0.500  4.646974  125.086621  1.199654  0.163267
  8504.447  8504.420  0.500  4.653070  125.026311  1.191787  0.163487
  8507.009  8506.990  0.500  4.640910  125.007628  1.206187  0.168971
  8509.592  8509.570  0.500  4.610739  124.875413  1.241819  0.178969
  8512.200  8512.180  0.500  4.562560  124.768595  1.301999  0.194631
  8514.823  8514.800  0.500  4.497362  124.702549  1.388979  0.216156
  8517.467  8517.450  0.500  4.418171  124.591068  1.502102  0.243820
  8520.133  8520.110  0.500  4.329887  124.469954  1.639149  0.275607
  8522.811  8522.790  0.500  4.246100  124.334372  1.780465  0.306812
  8525.522  8525.490  0.500  4.179991  124.055845  1.897887  0.328812
  8528.237  8528.210  0.500  4.145747  123.301207  1.952057  0.335215
  8530.977  8530.950  0.500  4.151788  108.594656  1.708874  0.287558
  8533.724  8533.700  0.500  4.200362  124.006935  1.858882  0.305046
  8536.498  8536.480  0.500  4.277986  124.393783  1.725413  0.277164
  8539.299  8539.270  0.500  4.363778  124.321746  1.582640  0.249890
  8542.109  8542.090  0.500  4.438592  124.252074  1.467736  0.229189
  8544.954  8544.920  0.500  4.496683  124.147870  1.383741  0.215416
  8547.774  8547.770  0.500  4.531849  124.065706  1.335042  0.208535
  8550.677  8550.650  0.500  4.545111  123.962729  1.316359  0.206555
  8553.569  8553.540  0.500  4.537921  123.888940  1.325069  0.209189
  8556.473  8556.450  0.500  4.520385  123.766994  1.347183  0.214386
  8559.391  8559.370  0.500  4.499342  123.639999  1.374420  0.220870
  8562.340  8562.320  0.500  4.476733  123.614432  1.405558  0.227641
  8565.310  8565.290  0.500  4.452527  123.553158  1.439282  0.232656
  8568.291  8568.270  0.500  4.433271  123.449123  1.466030  0.234274
  8571.300  8571.280  0.500  4.420787  123.367510  1.483465  0.232504
  8574.326  8574.300  0.500  4.409392  123.311878  1.499789  0.231115
  8577.368  8577.350  0.500  4.391566  123.207254  1.525468  0.232330
  8580.437  8580.410  0.500  4.370975  123.099114  1.555839  0.235305
  8583.502  8583.490  0.500  4.350888  122.954403  1.585541  0.239623
  8586.617  8586.590  0.500  4.335533  122.926472  1.609709  0.244696
  8589.731  8589.710  0.500  4.332201  122.695850  1.612051  0.248317
