# XDI/1.0 BlueSky/1.10.0 BMM/2023-1.0-py310-tiled
# Beamline.name: BMM (06BM) -- Beamline for Materials Measurement (NIST)
# Beamline.xray_source: NSLS-II three-pole wiggler
# Beamline.collimation: paraboloid mirror, 5 nm Rh on 30 nm Pt
# Beamline.focusing: not in use
# Beamline.harmonic_rejection: flat mirror, Pt stripe, pitch = 7.0 mrad relative to beam
# Beamline.software: Bluesky 1.10.0, Ophyd 1.7.0, DataBroker 2.0.0b13, Python 3.10.8, 2023-1.0-py310-tiled
# Detector.I0: 10 cm N2
# Detector.I1: 25 cm N2
# Detector.I2: 25 cm N2
# Element.symbol: Ni
# Element.edge: K
# Element.reference: Ni
# Element.reference_material: Ni foil
# Facility.name: NSLS-II
# Facility.energy: 3.0
# Facility.current: 399.3
# Facility.mode: top-off
# Facility.GUP: 301027
# Facility.SAF: 310583
# Facility.cycle: 2023-2
# Mono.name: Si(111)
# Mono.d_spacing: 3.1351860
# Mono.encoder_resolution: 0.0000050 deg/ct
# Mono.angle_offset: 16.0754326 deg
# Mono.scan_mode: pseudo channel cut
# Mono.scan_type: step
# Mono.direction: forward in energy
# Sample.name: LaNiO3
# Sample.prep: powder in PEG pellet
# Sample.x: 117.785 mm
# Sample.y: 114.695 mm
# Sample.SDD_position: 205.000 mm
# Scan.experimenters: Bruce Ravel
# Scan.edge_energy: 8332.8
# Scan.start_time: 2023-06-23T15:59:34
# Scan.end_time: 2023-06-23T16:07:39
# Scan.transient_id: 84865
# Scan.uid: a5c76479-fe3d-4e72-b753-0f6f0e10d5c9
# Scan.plot_hint: ln(I0/It)  --  ln($5/$6)
# Column.1: energy eV
# Column.2: requested_energy eV
# Column.3: measurement_time seconds
# Column.4: xmu 
# Column.5: I0 nA
# Column.6: It nA
# Column.7: Ir nA
# ///////////
# sample courtesy Martin Stennett, University of Sheffield
# -----------
# energy  requested_energy  measurement_time  xmu  I0  It  Ir
  8132.801  8132.800  0.500  2.854355  133.790474  7.705392  2.956697
  8142.820  8142.800  0.500  2.843217  133.589742  7.780003  2.995137
  8152.828  8152.800  0.500  2.832036  133.353081  7.853544  3.033407
  8162.870  8162.800  0.500  2.821128  133.154470  7.927849  3.073300
  8172.860  8172.800  0.500  2.809969  132.861498  7.999175  3.110911
  8182.833  8182.800  0.500  2.799230  132.680108  8.074505  3.151511
  8192.853  8192.800  0.500  2.788407  132.447019  8.148023  3.191705
  8202.859  8202.800  0.500  2.777586  132.263219  8.225243  3.232335
  8212.855  8212.800  0.500  2.766810  132.034234  8.299963  3.272021
  8222.821  8222.800  0.500  2.756324  131.833325  8.374689  3.313647
  8232.827  8232.800  0.500  2.745757  131.572508  8.446914  3.353062
  8242.817  8242.800  0.500  2.735286  131.382050  8.523473  3.394608
  8252.823  8252.800  0.500  2.724755  131.130040  8.597180  3.434326
  8262.822  8262.800  0.500  2.714430  131.292620  8.697175  3.485542
  8272.826  8272.800  0.500  2.704101  131.072831  8.772764  3.525849
  8282.822  8282.800  0.500  2.693902  130.774521  8.842530  3.564676
  8292.823  8292.800  0.500  2.683822  130.611284  8.920958  3.605607
  8302.821  8302.800  0.500  2.673952  130.392997  8.994392  3.641910
  8304.796  8304.800  0.500  2.672179  130.259302  9.001109  3.646012
  8306.795  8306.800  0.500  2.670383  130.251350  9.016744  3.654922
  8308.798  8308.800  0.500  2.668406  130.192114  9.030476  3.660573
  8310.790  8310.800  0.500  2.666613  130.171330  9.045237  3.667405
  8312.798  8312.800  0.500  2.664991  130.092875  9.054460  3.671736
  8314.795  8314.800  0.500  2.663303  130.084842  9.069203  3.677517
  8316.790  8316.800  0.500  2.661578  130.010396  9.079657  3.680151
  8318.792  8318.800  0.500  2.659849  129.985923  9.093658  3.684095
  8320.795  8320.800  0.500  2.658383  129.925660  9.102776  3.684936
  8322.790  8322.800  0.500  2.657054  129.874863  9.111316  3.683698
  8323.078  8323.100  0.500  2.656879  129.872940  9.112781  3.682925
  8323.375  8323.400  0.500  2.656813  129.836054  9.110789  3.681912
  8323.672  8323.700  0.500  2.656588  129.801367  9.110411  3.679832
  8323.975  8324.000  0.500  2.656557  129.853560  9.114353  3.681137
  8324.275  8324.300  0.500  2.656359  129.838990  9.115135  3.679863
  8324.581  8324.600  0.500  2.656171  129.834750  9.116553  3.679090
  8324.878  8324.900  0.500  2.655909  129.820042  9.117911  3.677754
  8325.184  8325.200  0.500  2.655853  129.797916  9.116860  3.676248
  8325.478  8325.500  0.500  2.655691  129.781118  9.117161  3.674603
  8325.781  8325.800  0.500  2.655708  129.778551  9.116826  3.672397
  8326.079  8326.100  0.500  2.655449  129.761971  9.118022  3.670746
  8326.373  8326.400  0.500  2.655451  129.756464  9.117620  3.668404
  8326.682  8326.700  0.500  2.655240  129.728000  9.117540  3.665273
  8326.973  8327.000  0.500  2.655042  129.766396  9.122041  3.664132
  8327.279  8327.300  0.500  2.655074  129.709809  9.117774  3.659183
  8327.583  8327.600  0.500  2.654899  129.752868  9.122394  3.657577
  8327.880  8327.900  0.500  2.655072  129.709834  9.117792  3.651418
  8328.183  8328.200  0.500  2.655075  129.704407  9.117389  3.646571
  8328.484  8328.500  0.500  2.655010  129.670960  9.115626  3.641228
  8328.790  8328.800  0.500  2.655293  129.673325  9.113214  3.634408
  8329.090  8329.100  0.500  2.655272  129.674093  9.113455  3.626922
  8329.388  8329.400  0.500  2.655593  129.681239  9.111039  3.618117
  8329.697  8329.700  0.500  2.655800  129.655490  9.107343  3.604729
  8329.992  8330.000  0.500  2.655934  129.619071  9.103561  3.591521
  8330.292  8330.300  0.500  2.656265  129.627444  9.101138  3.573949
  8330.596  8330.600  0.500  2.656757  129.624018  9.096424  3.549822
  8330.890  8330.900  0.500  2.657630  129.621823  9.088332  3.519039
  8331.191  8331.200  0.500  2.658657  129.588351  9.076655  3.475109
  8331.488  8331.500  0.500  2.660283  129.611574  9.063538  3.417432
  8331.789  8331.800  0.500  2.662355  129.579520  9.042541  3.342860
  8332.087  8332.100  0.500  2.665627  129.572097  9.012482  3.251455
  8332.381  8332.400  0.500  2.670237  129.555869  8.969903  3.147063
  8332.691  8332.700  0.500  2.676543  129.533040  8.911946  3.034662
  8332.994  8333.000  0.500  2.683501  129.496089  8.847626  2.923394
  8333.301  8333.300  0.500  2.689993  129.488916  8.789890  2.820538
  8333.605  8333.600  0.500  2.694850  129.461798  8.745471  2.733611
  8333.897  8333.900  0.500  2.697570  129.393248  8.717092  2.662378
  8334.203  8334.200  0.500  2.698445  129.379714  8.708562  2.602095
  8334.495  8334.500  0.500  2.697706  129.414102  8.717313  2.554175
  8334.799  8334.800  0.500  2.695681  129.359920  8.731331  2.515686
  8335.091  8335.100  0.500  2.693374  129.354997  8.751160  2.486500
  8335.395  8335.400  0.500  2.690948  129.289613  8.767984  2.462068
  8335.690  8335.700  0.500  2.689091  129.323197  8.786567  2.442703
  8335.993  8336.000  0.500  2.687558  129.327951  8.800366  2.426179
  8336.294  8336.300  0.500  2.686924  129.303052  8.804253  2.410951
  8336.595  8336.600  0.500  2.686673  129.304577  8.806566  2.396199
  8336.899  8336.900  0.500  2.686845  129.283637  8.803622  2.381244
  8337.203  8337.200  0.500  2.687599  129.247788  8.794548  2.363248
  8337.498  8337.500  0.500  2.688847  129.280373  8.785793  2.343566
  8337.802  8337.800  0.500  2.690549  129.227103  8.767240  2.317950
  8338.097  8338.100  0.500  2.692831  129.253159  8.749021  2.289539
  8338.404  8338.400  0.500  2.695999  129.246275  8.720888  2.254529
  8338.691  8338.700  0.500  2.699944  129.165955  8.681148  2.216804
  8338.992  8339.000  0.500  2.704938  129.244689  8.643166  2.179163
  8339.299  8339.300  0.500  2.710395  129.219729  8.594472  2.140629
  8339.600  8339.600  0.500  2.716249  129.179821  8.541668  2.104484
  8339.904  8339.900  0.500  2.722492  129.198587  8.489744  2.070487
  8340.199  8340.200  0.500  2.728771  129.142808  8.432962  2.037200
  8340.501  8340.500  0.500  2.735254  129.104314  8.375971  2.004446
  8340.805  8340.800  0.500  2.741897  129.090563  8.319627  1.971597
  8341.100  8341.100  0.500  2.748305  129.150937  8.270348  1.939279
  8341.402  8341.400  0.500  2.754567  129.107570  8.215965  1.903814
  8341.694  8341.700  0.500  2.760591  129.131601  8.168141  1.869938
  8342.001  8342.000  0.500  2.766849  129.109666  8.115799  1.831582
  8342.297  8342.300  0.500  2.773480  129.076977  8.060123  1.790996
  8342.601  8342.600  0.500  2.781166  129.066846  7.997787  1.747447
  8342.896  8342.900  0.500  2.790363  129.038992  7.922855  1.700091
  8343.204  8343.200  0.500  2.801994  129.019192  7.830039  1.647255
  8343.502  8343.500  0.500  2.815617  129.011941  7.723656  1.591239
  8343.804  8343.800  0.500  2.832398  128.987530  7.593688  1.530150
  8344.096  8344.100  0.500  2.852057  128.974062  7.445089  1.466978
  8344.404  8344.400  0.500  2.875752  128.946576  7.269197  1.398059
  8344.696  8344.700  0.500  2.902278  128.948326  7.079007  1.329144
  8344.995  8345.000  0.500  2.933052  128.939724  6.864020  1.257467
  8345.294  8345.300  0.500  2.966494  128.928344  6.637680  1.187134
  8345.589  8345.600  0.500  3.003866  128.915100  6.393538  1.115379
  8345.891  8345.900  0.500  3.044410  128.901267  6.138845  1.044909
  8346.201  8346.200  0.500  3.089341  128.886064  5.868433  0.975214
  8346.500  8346.500  0.500  3.138641  128.863165  5.585146  0.906376
  8346.802  8346.800  0.500  3.193428  128.869357  5.287636  0.838810
  8347.101  8347.100  0.500  3.254695  128.860035  4.973043  0.772142
  8347.408  8347.400  0.500  3.322383  128.800016  4.645404  0.706721
  8347.704  8347.700  0.500  3.393936  128.841061  4.326000  0.647237
  8348.006  8348.000  0.500  3.466512  128.796348  4.021764  0.593113
  8348.302  8348.300  0.500  3.534570  128.737684  3.755446  0.547328
  8348.598  8348.600  0.500  3.598443  128.762045  3.523740  0.509251
  8348.896  8348.900  0.500  3.650932  128.687762  3.341625  0.480214
  8349.198  8349.200  0.500  3.692214  128.725021  3.207412  0.458915
  8349.494  8349.500  0.500  3.717775  128.702288  3.125915  0.446191
  8349.799  8349.800  0.500  3.728787  128.674425  3.091012  0.441226
  8350.098  8350.100  0.500  3.724740  128.658974  3.103173  0.442925
  8350.406  8350.400  0.500  3.710051  128.614761  3.148009  0.450416
  8350.699  8350.700  0.500  3.687530  128.608886  3.219564  0.462055
  8351.004  8351.000  0.500  3.660408  128.587509  3.307531  0.476888
  8351.300  8351.300  0.500  3.632788  128.552947  3.399242  0.491545
  8351.599  8351.600  0.500  3.605460  128.512651  3.492325  0.507525
  8351.892  8351.900  0.500  3.580715  128.476710  3.578818  0.522281
  8352.197  8352.200  0.500  3.557616  128.453212  3.661776  0.536706
  8352.491  8352.500  0.500  3.536623  128.401582  3.737959  0.549798
  8352.799  8352.800  0.500  3.517234  128.392050  3.810858  0.562490
  8353.098  8353.100  0.500  3.500309  128.353406  3.874740  0.573465
  8353.406  8353.400  0.500  3.485273  128.310689  3.932131  0.582412
  8353.705  8353.700  0.500  3.472929  128.306845  3.980849  0.589506
  8354.008  8354.000  0.500  3.462936  128.300511  4.020632  0.594796
  8354.307  8354.300  0.500  3.455479  128.296467  4.050597  0.597251
  8354.603  8354.600  0.500  3.450331  128.313463  4.072044  0.597418
  8354.896  8354.900  0.500  3.446774  128.296814  4.086026  0.596200
  8355.199  8355.200  0.500  3.444795  128.290679  4.093924  0.593113
  8355.489  8355.500  0.500  3.443876  128.255191  4.096555  0.588442
  8355.795  8355.800  0.500  3.443244  128.271031  4.099650  0.583873
  8356.097  8356.100  0.500  3.442764  128.296575  4.102433  0.578665
  8356.399  8356.400  0.500  3.442332  128.294331  4.104137  0.573802
  8356.699  8356.700  0.500  3.441226  128.239631  4.106924  0.569653
  8357.004  8357.000  0.500  3.439367  128.264304  4.115360  0.567078
  8357.295  8357.300  0.500  3.436872  128.248177  4.125121  0.565488
  8357.603  8357.600  0.500  3.433943  128.210617  4.136010  0.564944
  8357.801  8357.800  0.500  3.432331  128.257300  4.144190  0.565426
  8358.766  8358.790  0.500  3.419804  128.157837  4.193179  0.574098
  8359.778  8359.790  0.500  3.408670  128.218694  4.242139  0.588296
  8360.815  8360.810  0.500  3.403679  128.179768  4.262067  0.599828
  8361.868  8361.860  0.500  3.401891  128.147306  4.268617  0.607618
  8362.941  8362.920  0.500  3.400744  128.075128  4.271105  0.615317
  8364.018  8364.000  0.500  3.399030  128.112099  4.279671  0.626471
  8365.107  8365.100  0.500  3.394318  128.080020  4.298807  0.639940
  8366.215  8366.220  0.500  3.383532  128.016811  4.343280  0.654609
  8367.364  8367.360  0.500  3.366910  128.060816  4.417594  0.670147
  8368.536  8368.510  0.500  3.345138  128.038201  4.514030  0.687268
  8369.668  8369.690  0.500  3.322145  127.912011  4.614473  0.704375
  8371.014  8370.880  0.500  3.293341  127.883060  4.748244  0.723391
  8372.147  8372.100  0.500  3.264933  127.908760  4.886052  0.738569
  8373.326  8373.330  0.500  3.237533  127.866325  5.020111  0.749201
  8374.562  8374.580  0.500  3.210324  127.818547  5.156655  0.755756
  8375.831  8375.850  0.500  3.185760  127.861972  5.286684  0.758563
  8377.125  8377.140  0.500  3.164573  127.779512  5.396409  0.756915
  8378.431  8378.450  0.500  3.147385  127.744435  5.488456  0.751422
  8379.768  8379.780  0.500  3.134942  127.716240  5.555945  0.742914
  8381.124  8381.130  0.500  3.127216  127.711789  5.598846  0.736046
  8382.489  8382.500  0.500  3.123915  127.613538  5.613037  0.733879
  8383.875  8383.880  0.500  3.127527  127.606749  5.592499  0.735554
  8385.274  8385.290  0.500  3.138276  127.554782  5.530454  0.739379
  8386.704  8386.710  0.500  3.155340  127.994410  5.455622  0.747510
  8388.155  8388.150  0.500  3.176102  127.938690  5.341195  0.752703
  8389.607  8389.610  0.500  3.198027  127.844553  5.221517  0.754669
  8391.081  8391.090  0.500  3.220640  127.851235  5.105036  0.754156
  8392.588  8392.590  0.500  3.243409  127.817328  4.988788  0.750795
  8394.111  8394.110  0.500  3.264811  127.804335  4.882659  0.744132
  8395.646  8395.650  0.500  3.283108  127.739515  4.791702  0.735024
  8397.198  8397.210  0.500  3.296979  127.675162  4.723314  0.725172
  8398.780  8398.780  0.500  3.307684  127.643630  4.671863  0.716369
  8400.381  8400.380  0.500  3.315742  127.579703  4.632050  0.711935
  8401.994  8401.990  0.500  3.320961  127.515788  4.605629  0.711193
  8403.624  8403.630  0.500  3.322110  127.533008  4.600960  0.712420
  8405.281  8405.280  0.500  3.319672  127.486638  4.610516  0.713380
  8406.942  8406.950  0.500  3.314087  127.432680  4.634374  0.713252
  8408.631  8408.640  0.500  3.306623  127.357987  4.666356  0.712404
  8410.348  8410.350  0.500  3.298728  127.353007  4.703159  0.713248
  8412.087  8412.080  0.500  3.289684  127.325753  4.744875  0.715785
  8413.827  8413.830  0.500  3.279678  127.243947  4.789509  0.718129
  8415.586  8415.590  0.500  3.271808  127.212127  4.826146  0.715210
  8417.388  8417.380  0.500  3.268325  127.112440  4.839187  0.708159
  8419.185  8419.180  0.500  3.268446  127.146084  4.839884  0.699783
  8421.012  8421.010  0.500  3.270398  127.067551  4.827460  0.690248
  8422.859  8422.850  0.500  3.272953  127.007389  4.812862  0.679369
  8424.710  8424.710  0.500  3.274989  127.046317  4.804547  0.667856
  8426.590  8426.590  0.500  3.274794  126.950621  4.801866  0.655879
  8428.494  8428.490  0.500  3.270489  126.914319  4.821203  0.648286
  8430.415  8430.410  0.500  3.261832  126.873542  4.861559  0.646135
  8432.351  8432.350  0.500  3.250639  126.799621  4.913416  0.651143
  8434.316  8434.310  0.500  3.240221  126.760075  4.963322  0.662236
  8436.279  8436.280  0.500  3.232821  126.726153  4.998846  0.677643
  8438.274  8438.280  0.500  3.227024  126.677195  5.025967  0.694871
  8440.294  8440.290  0.500  3.220895  126.610323  5.054196  0.713652
  8442.321  8442.320  0.500  3.214047  126.561995  5.086982  0.734245
  8444.391  8444.380  0.500  3.206597  126.490122  5.122114  0.755501
  8446.451  8446.450  0.500  3.198374  126.403136  5.160854  0.772710
  8448.552  8448.540  0.500  3.188641  126.389468  5.210765  0.789662
  8450.656  8450.650  0.500  3.179058  126.337154  5.258766  0.810462
  8452.783  8452.780  0.500  3.169864  126.234880  5.303040  0.834434
  8454.930  8454.920  0.500  3.161583  126.236304  5.347200  0.859972
  8457.093  8457.090  0.500  3.155195  126.120396  5.376525  0.878807
  8459.285  8459.280  0.500  3.151692  126.034610  5.391720  0.888094
  8461.487  8461.480  0.500  3.152049  126.063083  5.391012  0.886965
  8463.712  8463.700  0.500  3.154767  126.003035  5.373821  0.877005
  8465.957  8465.950  0.500  3.159145  125.874774  5.344898  0.860130
  8468.215  8468.210  0.500  3.164543  125.795380  5.312769  0.841698
  8470.509  8470.490  0.500  3.170286  125.731344  5.279661  0.822372
  8472.797  8472.790  0.500  3.175285  125.678666  5.251132  0.808151
  8475.121  8475.110  0.500  3.179403  125.691727  5.230092  0.800247
  8477.467  8477.450  0.500  3.183730  125.539696  5.201213  0.797487
  8479.803  8479.800  0.500  3.187180  125.563067  5.184265  0.799503
  8482.195  8482.180  0.500  3.189143  125.475994  5.170512  0.800022
  8484.576  8484.570  0.500  3.189115  125.420974  5.168391  0.793770
  8487.009  8486.990  0.500  3.188309  125.365038  5.170250  0.776377
  8489.433  8489.420  0.500  3.186840  125.283758  5.174494  0.752288
  8491.890  8491.870  0.500  3.184520  125.238319  5.184628  0.732007
  8494.364  8494.350  0.500  3.180924  125.149131  5.199603  0.720075
  8496.861  8496.840  0.500  3.176145  125.070318  5.221219  0.716897
  8499.371  8499.350  0.500  3.169719  125.013157  5.252476  0.719510
  8501.884  8501.870  0.500  3.162337  124.943304  5.288440  0.725694
  8504.438  8504.420  0.500  3.154392  124.858818  5.327019  0.738369
  8506.997  8506.990  0.500  3.147633  124.788546  5.360125  0.757871
  8509.585  8509.570  0.500  3.141837  124.675411  5.386398  0.782979
  8512.194  8512.180  0.500  3.138724  124.582597  5.399170  0.812743
  8514.820  8514.800  0.500  3.138335  124.514772  5.398326  0.845681
  8517.463  8517.450  0.500  3.140005  124.404180  5.384535  0.878966
  8520.127  8520.110  0.500  3.141540  124.264460  5.370235  0.908360
  8522.805  8522.790  0.500  3.140688  124.140693  5.369464  0.929834
  8525.503  8525.490  0.500  3.136405  123.880199  5.381194  0.937729
  8528.222  8528.210  0.500  3.130916  123.103827  5.376900  0.927956
  8530.961  8530.950  0.500  3.127597  108.887650  4.771783  0.807309
  8533.712  8533.700  0.500  3.123827  123.807690  5.446114  0.899595
  8536.498  8536.480  0.500  3.119399  124.240604  5.489409  0.887517
  8539.284  8539.270  0.500  3.112119  124.118786  5.524100  0.878852
  8542.102  8542.090  0.500  3.102305  124.025414  5.574383  0.877510
  8544.935  8544.920  0.500  3.091861  123.894317  5.626951  0.884258
  8547.789  8547.770  0.500  3.081801  123.839777  5.681341  0.894900
  8550.658  8550.650  0.500  3.074124  123.749477  5.720950  0.905787
  8553.556  8553.540  0.500  3.068879  123.603216  5.744238  0.914363
  8556.470  8556.450  0.500  3.067119  123.573186  5.752961  0.922227
  8559.391  8559.370  0.500  3.067493  123.430859  5.744184  0.930143
  8562.330  8562.320  0.500  3.067629  123.402682  5.742092  0.936864
  8565.307  8565.290  0.500  3.066521  123.303520  5.743837  0.936498
  8568.285  8568.270  0.500  3.064268  123.237026  5.753689  0.927537
  8571.297  8571.280  0.500  3.061237  123.130267  5.766156  0.911867
  8574.320  8574.300  0.500  3.058932  123.060533  5.776192  0.897386
  8577.368  8577.350  0.500  3.057697  122.971973  5.779168  0.887093
  8580.434  8580.410  0.500  3.057321  122.889751  5.777474  0.880504
  8583.505  8583.490  0.500  3.056597  122.778022  5.776400  0.879237
  8586.614  8586.590  0.500  3.055326  122.606307  5.775662  0.883699
  8589.727  8589.710  0.500  3.054498  122.477119  5.774353  0.895116
  8592.872  8592.850  0.500  3.055446  113.643284  5.352791  0.846645
  8596.029  8596.000  0.500  3.052783  120.584709  5.694889  0.922597
