# XDI/1.0 BlueSky/1.10.0 BMM/2023-1.0-py310-tiled
# Beamline.name: BMM (06BM) -- Beamline for Materials Measurement (NIST)
# Beamline.xray_source: NSLS-II three-pole wiggler
# Beamline.collimation: paraboloid mirror, 5 nm Rh on 30 nm Pt
# Beamline.focusing: not in use
# Beamline.harmonic_rejection: flat mirror, Pt stripe, pitch = 7.0 mrad relative to beam
# Beamline.software: Bluesky 1.10.0, Ophyd 1.7.0, DataBroker 2.0.0b13, Python 3.10.8, 2023-1.0-py310-tiled
# Detector.I0: 10 cm N2
# Detector.I1: 25 cm N2
# Detector.I2: 25 cm N2
# Element.symbol: Ni
# Element.edge: K
# Element.reference: Ni
# Element.reference_material: Ni foil
# Facility.name: NSLS-II
# Facility.energy: 3.0
# Facility.current: 400.8
# Facility.mode: top-off
# Facility.GUP: 301027
# Facility.SAF: 310583
# Facility.cycle: 2023-2
# Mono.name: Si(111)
# Mono.d_spacing: 3.1351860
# Mono.encoder_resolution: 0.0000050 deg/ct
# Mono.angle_offset: 16.0754326 deg
# Mono.scan_mode: pseudo channel cut
# Mono.scan_type: step
# Mono.direction: forward in energy
# Sample.name: NiFe2O4
# Sample.prep: PEG pellet
# Sample.x: 119.711 mm
# Sample.y: 114.376 mm
# Sample.SDD_position: 205.000 mm
# Scan.experimenters: Bruce Ravel
# Scan.edge_energy: 8332.8
# Scan.start_time: 2023-06-27T09:40:27
# Scan.end_time: 2023-06-27T09:48:28
# Scan.transient_id: 85109
# Scan.uid: 5737853b-b599-442c-984f-e4d3f50aa928
# Scan.plot_hint: ln(I0/It)  --  ln($5/$6)
# Column.1: energy eV
# Column.2: requested_energy eV
# Column.3: measurement_time seconds
# Column.4: xmu 
# Column.5: I0 nA
# Column.6: It nA
# Column.7: Ir nA
# ///////////
# courtesy Martin Stennett, University of Sheffield
# -----------
# energy  requested_energy  measurement_time  xmu  I0  It  Ir
  8132.812  8132.800  0.500  2.701235  130.659736  8.770214  3.574449
  8142.820  8142.800  0.500  2.689983  130.722470  8.873715  3.627921
  8152.828  8152.800  0.500  2.678897  130.722028  8.972607  3.680302
  8162.836  8162.800  0.500  2.667872  130.664465  9.068085  3.731266
  8172.772  8172.800  0.500  2.656915  130.637865  9.166118  3.783150
  8182.787  8182.800  0.500  2.646018  130.648885  9.267336  3.839167
  8192.888  8192.800  0.500  2.634909  130.609313  9.368015  3.891930
  8202.784  8202.800  0.500  2.624277  130.618600  9.468826  3.947433
  8212.771  8212.800  0.500  2.613359  130.561285  9.568573  4.000682
  8222.786  8222.800  0.500  2.602668  130.546310  9.670309  4.055783
  8232.792  8232.800  0.500  2.591742  130.519068  9.774502  4.111777
  8242.796  8242.800  0.500  2.581227  130.488462  9.875511  4.167373
  8252.811  8252.800  0.500  2.570662  130.442576  9.976889  4.223179
  8262.816  8262.800  0.500  2.560112  130.379013  10.077790  4.277201
  8272.820  8272.800  0.500  2.549629  130.314384  10.178939  4.332737
  8282.825  8282.800  0.500  2.539471  130.197747  10.273659  4.385279
  8292.817  8292.800  0.500  2.529515  130.154267  10.372993  4.438136
  8302.813  8302.800  0.500  2.519845  130.090096  10.468625  4.488270
  8304.814  8304.800  0.500  2.518101  130.059229  10.484408  4.495781
  8306.801  8306.800  0.500  2.516294  130.057808  10.503249  4.505903
  8308.798  8308.800  0.500  2.514456  130.021149  10.519614  4.513779
  8310.802  8310.800  0.500  2.512854  130.031559  10.537316  4.522396
  8312.804  8312.800  0.500  2.510972  129.991483  10.553913  4.529180
  8314.792  8314.800  0.500  2.509446  130.018474  10.572228  4.537628
  8316.802  8316.800  0.500  2.507786  129.998864  10.588191  4.542470
  8318.798  8318.800  0.500  2.506290  129.937655  10.599056  4.545259
  8320.792  8320.800  0.500  2.505028  129.918097  10.610839  4.547153
  8322.799  8322.800  0.500  2.503791  129.914844  10.623708  4.546732
  8323.081  8323.100  0.500  2.503742  129.921753  10.624795  4.545996
  8323.378  8323.400  0.500  2.503615  129.905829  10.624836  4.545259
  8323.675  8323.700  0.500  2.503502  129.877443  10.623719  4.543099
  8323.978  8324.000  0.500  2.503214  129.890528  10.627850  4.543808
  8324.278  8324.300  0.500  2.503126  129.892096  10.628914  4.541974
  8324.575  8324.600  0.500  2.502956  129.908163  10.632036  4.541424
  8324.878  8324.900  0.500  2.502938  129.876165  10.629607  4.539646
  8325.181  8325.200  0.500  2.502676  129.865472  10.631518  4.537814
  8325.478  8325.500  0.500  2.502593  129.887662  10.634214  4.537237
  8325.781  8325.800  0.500  2.502573  129.853583  10.631640  4.534468
  8326.088  8326.100  0.500  2.502533  129.837943  10.630790  4.531555
  8326.382  8326.400  0.500  2.502443  129.845857  10.632394  4.529219
  8326.688  8326.700  0.500  2.502356  129.858739  10.634367  4.526568
  8326.982  8327.000  0.500  2.502362  129.809536  10.630278  4.522435
  8327.291  8327.300  0.500  2.502311  129.835405  10.632939  4.519055
  8327.592  8327.600  0.500  2.502497  129.875748  10.634261  4.517337
  8327.889  8327.900  0.500  2.502364  129.805366  10.629917  4.509234
  8328.189  8328.200  0.500  2.502299  129.789432  10.629304  4.503905
  8328.487  8328.500  0.500  2.502527  129.788729  10.626817  4.498342
  8328.790  8328.800  0.500  2.502688  129.784805  10.624788  4.490308
  8329.087  8329.100  0.500  2.502554  129.792858  10.626867  4.483301
  8329.385  8329.400  0.500  2.502859  129.786994  10.623152  4.472566
  8329.685  8329.700  0.500  2.502954  129.775071  10.621168  4.461313
  8329.983  8330.000  0.500  2.503166  129.754833  10.617253  4.446572
  8330.286  8330.300  0.500  2.503595  129.744440  10.611851  4.427711
  8330.590  8330.600  0.500  2.504035  129.763929  10.608782  4.406463
  8330.887  8330.900  0.500  2.504575  129.739061  10.601021  4.374237
  8331.191  8331.200  0.500  2.505480  129.741039  10.591593  4.334534
  8331.494  8331.500  0.500  2.506529  129.766399  10.582560  4.279376
  8331.798  8331.800  0.500  2.508244  129.735058  10.561869  4.202887
  8332.092  8332.100  0.500  2.510347  129.715846  10.538116  4.106775
  8332.399  8332.400  0.500  2.513543  129.711629  10.504157  3.988929
  8332.697  8332.700  0.500  2.517230  129.702447  10.464751  3.864079
  8333.000  8333.000  0.500  2.520268  129.692755  10.432231  3.737292
  8333.298  8333.300  0.500  2.521741  129.629441  10.411789  3.623258
  8333.602  8333.600  0.500  2.521631  129.608585  10.411257  3.523576
  8333.900  8333.900  0.500  2.520143  129.586095  10.424954  3.440500
  8334.197  8334.200  0.500  2.518735  129.584975  10.439551  3.367078
  8334.498  8334.500  0.500  2.518179  129.566128  10.443845  3.297580
  8334.796  8334.800  0.500  2.518753  129.551286  10.436657  3.234468
  8335.100  8335.100  0.500  2.520674  129.511347  10.413409  3.174354
  8335.392  8335.400  0.500  2.523053  129.518357  10.389224  3.123818
  8335.693  8335.700  0.500  2.526029  129.491745  10.356231  3.078554
  8335.990  8336.000  0.500  2.528686  129.496045  10.329091  3.040050
  8336.291  8336.300  0.500  2.531606  129.512734  10.300297  3.009091
  8336.598  8336.600  0.500  2.534275  129.462094  10.268833  2.979040
  8336.896  8336.900  0.500  2.537322  129.456821  10.237173  2.952061
  8337.191  8337.200  0.500  2.540376  129.480486  10.207821  2.926471
  8337.504  8337.500  0.500  2.543445  129.409014  10.170927  2.896523
  8337.799  8337.800  0.500  2.546939  129.430216  10.137106  2.864888
  8338.103  8338.100  0.500  2.551397  129.421927  10.091373  2.825469
  8338.410  8338.400  0.500  2.557063  129.408865  10.033342  2.779240
  8338.703  8338.700  0.500  2.563907  129.450154  9.968093  2.728267
  8339.004  8339.000  0.500  2.572670  129.430727  9.879642  2.670687
  8339.302  8339.300  0.500  2.583291  129.392798  9.772398  2.608558
  8339.600  8339.600  0.500  2.596348  129.402822  9.646378  2.545999
  8339.904  8339.900  0.500  2.611978  129.377742  9.494931  2.479323
  8340.196  8340.200  0.500  2.630021  129.364620  9.324208  2.411580
  8340.501  8340.500  0.500  2.651797  129.358255  9.122910  2.336663
  8340.796  8340.800  0.500  2.676338  129.332352  8.899963  2.258753
  8341.094  8341.100  0.500  2.704266  129.358760  8.656617  2.175289
  8341.396  8341.400  0.500  2.734696  129.334541  8.395589  2.087245
  8341.697  8341.700  0.500  2.766278  129.357885  8.136048  2.000265
  8341.998  8342.000  0.500  2.798196  129.331185  7.878840  1.912194
  8342.306  8342.300  0.500  2.830333  129.307325  7.628254  1.825598
  8342.601  8342.600  0.500  2.860429  129.291672  7.401198  1.743699
  8342.902  8342.900  0.500  2.890006  129.239250  7.182584  1.664105
  8343.204  8343.200  0.500  2.918969  129.247455  6.977986  1.587508
  8343.505  8343.500  0.500  2.948480  129.246122  6.774995  1.511448
  8343.804  8343.800  0.500  2.979518  129.234478  6.567352  1.434200
  8344.102  8344.100  0.500  3.014598  129.230611  6.340770  1.354907
  8344.401  8344.400  0.500  3.054559  129.258622  6.093705  1.272587
  8344.705  8344.700  0.500  3.100872  129.238919  5.817038  1.186527
  8345.004  8345.000  0.500  3.151845  129.208585  5.526656  1.100843
  8345.297  8345.300  0.500  3.205876  129.189127  5.235181  1.017781
  8345.595  8345.600  0.500  3.262875  129.182168  4.944861  0.938729
  8345.894  8345.900  0.500  3.319801  129.185451  4.671348  0.865587
  8346.198  8346.200  0.500  3.374240  129.191023  4.424035  0.799557
  8346.497  8346.500  0.500  3.424849  129.160468  4.204717  0.742104
  8346.805  8346.800  0.500  3.470491  129.146303  4.016678  0.691587
  8347.104  8347.100  0.500  3.509400  129.137674  3.863137  0.650133
  8347.399  8347.400  0.500  3.542783  129.125907  3.735960  0.615072
  8347.701  8347.700  0.500  3.571616  129.125610  3.629771  0.585979
  8348.003  8348.000  0.500  3.596525  129.093495  3.539594  0.562205
  8348.299  8348.300  0.500  3.620387  129.077623  3.455707  0.541617
  8348.604  8348.600  0.500  3.645796  129.077091  3.368994  0.522885
  8348.896  8348.900  0.500  3.673138  129.043253  3.277268  0.504581
  8349.195  8349.200  0.500  3.703925  129.052072  3.178125  0.486447
  8349.500  8349.500  0.500  3.739558  129.003684  3.065723  0.467573
  8349.793  8349.800  0.500  3.776367  128.953758  2.953783  0.449625
  8350.101  8350.100  0.500  3.814488  128.958020  2.843395  0.432737
  8350.400  8350.400  0.500  3.848310  128.923096  2.748091  0.418595
  8350.705  8350.700  0.500  3.874838  128.901329  2.675695  0.408113
  8351.007  8351.000  0.500  3.891090  128.894096  2.632413  0.402911
  8351.312  8351.300  0.500  3.895174  128.848426  2.620756  0.402699
  8351.605  8351.600  0.500  3.886318  128.809733  2.643274  0.407688
  8351.904  8351.900  0.500  3.865515  128.787043  2.698363  0.417762
  8352.200  8352.200  0.500  3.834670  128.771554  2.782557  0.432856
  8352.497  8352.500  0.500  3.795346  128.743450  2.893524  0.451897
  8352.799  8352.800  0.500  3.750265  128.715541  3.026297  0.474408
  8353.098  8353.100  0.500  3.702573  128.687936  3.173443  0.498992
  8353.397  8353.400  0.500  3.654814  128.685268  3.328612  0.524355
  8353.705  8353.700  0.500  3.608531  128.654879  3.485467  0.549662
  8354.005  8354.000  0.500  3.566111  128.676969  3.637128  0.573262
  8354.301  8354.300  0.500  3.528492  128.604935  3.774444  0.593961
  8354.603  8354.600  0.500  3.495927  128.619447  3.899822  0.611645
  8354.902  8354.900  0.500  3.468164  128.621229  4.009665  0.625869
  8355.199  8355.200  0.500  3.444206  128.623044  4.106947  0.636894
  8355.495  8355.500  0.500  3.423939  128.595289  4.190126  0.645183
  8355.792  8355.800  0.500  3.406736  128.600946  4.263021  0.650883
  8356.097  8356.100  0.500  3.391729  128.583923  4.326907  0.654892
  8356.393  8356.400  0.500  3.378325  128.594210  4.385644  0.657562
  8356.696  8356.700  0.500  3.365548  128.602088  4.442313  0.660393
  8357.004  8357.000  0.500  3.352656  128.613326  4.500347  0.663681
  8357.304  8357.300  0.500  3.339128  128.596378  4.561041  0.668388
  8357.606  8357.600  0.500  3.324715  128.595844  4.627235  0.674604
  8357.807  8357.800  0.500  3.314796  128.593139  4.673262  0.680044
  8358.793  8358.790  0.500  3.259102  128.565573  4.939860  0.718249
  8359.787  8359.790  0.500  3.202913  128.552046  5.224824  0.768809
  8360.827  8360.810  0.500  3.161520  128.589628  5.447222  0.813272
  8361.874  8361.860  0.500  3.141668  128.553219  5.554869  0.839437
  8362.941  8362.920  0.500  3.145389  128.536651  5.533523  0.845811
  8364.024  8364.000  0.500  3.170692  128.540327  5.395424  0.836764
  8365.116  8365.100  0.500  3.205859  128.539065  5.208928  0.822066
  8366.230  8366.220  0.500  3.231622  128.518755  5.075642  0.811909
  8367.379  8367.360  0.500  3.235234  128.542111  5.058260  0.815334
  8368.521  8368.510  0.500  3.220104  128.528274  5.134820  0.831459
  8369.704  8369.690  0.500  3.195756  128.525201  5.261250  0.854060
  8370.903  8370.880  0.500  3.172660  128.832744  5.397065  0.875288
  8372.111  8372.100  0.500  3.154042  128.916181  5.502048  0.886754
  8373.344  8373.330  0.500  3.139058  128.904631  5.584609  0.889166
  8374.598  8374.580  0.500  3.123850  128.881510  5.669176  0.887234
  8375.864  8375.850  0.500  3.110887  128.877067  5.742942  0.880237
  8377.158  8377.140  0.500  3.102936  128.860087  5.788025  0.867546
  8378.465  8378.450  0.500  3.102199  128.854332  5.792036  0.847271
  8379.789  8379.780  0.500  3.109199  128.830230  5.750558  0.821675
  8381.145  8381.130  0.500  3.124432  128.832286  5.663714  0.794218
  8382.522  8382.500  0.500  3.143509  128.804460  5.555491  0.772843
  8383.890  8383.880  0.500  3.162925  128.782247  5.447725  0.761700
  8385.307  8385.290  0.500  3.180278  128.756166  5.352922  0.758571
  8386.722  8386.710  0.500  3.197435  128.687985  5.259078  0.762643
  8388.158  8388.150  0.500  3.217428  128.650784  5.153486  0.768481
  8389.628  8389.610  0.500  3.242052  128.619404  5.026911  0.769572
  8391.102  8391.090  0.500  3.269834  128.597813  4.888356  0.765526
  8392.606  8392.590  0.500  3.296996  128.560305  4.755976  0.758902
  8394.129  8394.110  0.500  3.319188  128.540641  4.650884  0.752425
  8395.665  8395.650  0.500  3.334254  128.505053  4.580068  0.746635
  8397.237  8397.210  0.500  3.344904  128.489200  4.530990  0.739694
  8398.792  8398.780  0.500  3.352429  128.466062  4.496214  0.733716
  8400.396  8400.380  0.500  3.356440  128.442636  4.477401  0.731333
  8402.000  8401.990  0.500  3.354942  128.381042  4.481959  0.735150
  8403.642  8403.630  0.500  3.345260  128.401690  4.526294  0.744914
  8405.296  8405.280  0.500  3.328102  128.361667  4.603192  0.757590
  8406.963  8406.950  0.500  3.308454  128.346242  4.693964  0.768954
  8408.655  8408.640  0.500  3.285707  128.366952  4.802735  0.780007
  8410.369  8410.350  0.500  3.261166  128.306709  4.919749  0.793683
  8412.096  8412.080  0.500  3.237298  128.249042  5.036323  0.808654
  8413.851  8413.830  0.500  3.214624  128.223370  5.150791  0.821403
  8415.610  8415.590  0.500  3.194770  128.213637  5.253678  0.829438
  8417.394  8417.380  0.500  3.178023  128.206803  5.342115  0.832366
  8419.203  8419.180  0.500  3.166418  128.162967  5.402623  0.832269
  8421.028  8421.010  0.500  3.158096  128.122814  5.446062  0.828949
  8422.869  8422.850  0.500  3.153127  128.111515  5.472712  0.823417
  8424.735  8424.710  0.500  3.151037  128.089169  5.483202  0.812000
  8426.611  8426.590  0.500  3.151017  128.045402  5.481440  0.798084
  8428.512  8428.490  0.500  3.151891  128.019198  5.475533  0.783939
  8430.427  8430.410  0.500  3.154475  128.007500  5.460899  0.772689
  8432.376  8432.350  0.500  3.157066  127.974855  5.445380  0.767155
  8434.322  8434.310  0.500  3.159701  127.952570  5.430107  0.768972
  8436.301  8436.280  0.500  3.162181  127.905324  5.414657  0.778344
  8438.307  8438.280  0.500  3.165569  127.880681  5.395301  0.791516
  8440.972  8440.290  0.500  3.171523  127.866935  5.362695  0.806083
  8442.841  8442.320  0.500  3.177871  127.789747  5.325544  0.817182
  8444.453  8444.380  0.500  3.184735  127.804781  5.289739  0.826960
  8446.779  8446.450  0.500  3.193088  127.727429  5.242564  0.833101
  8448.579  8448.540  0.500  3.197712  127.705448  5.217479  0.838730
  8450.678  8450.650  0.500  3.197938  127.652109  5.214120  0.851140
  8452.799  8452.780  0.500  3.193396  127.620673  5.236569  0.872762
  8454.927  8454.920  0.500  3.184909  127.587006  5.279805  0.899192
  8457.102  8457.090  0.500  3.173445  127.562854  5.339672  0.925204
  8459.300  8459.280  0.500  3.159402  127.514990  5.413153  0.945916
  8461.484  8461.480  0.500  3.144631  127.458820  5.491285  0.959849
  8463.722  8463.700  0.500  3.130608  127.429568  5.567555  0.966011
  8465.960  8465.950  0.500  3.120044  127.412285  5.625916  0.963232
  8468.224  8468.210  0.500  3.115919  127.372025  5.647388  0.951093
  8470.512  8470.490  0.500  3.118803  127.334532  5.629467  0.932853
  8472.815  8472.790  0.500  3.127913  127.287884  5.576374  0.911698
  8475.121  8475.110  0.500  3.140028  127.230545  5.506738  0.894952
  8477.467  8477.450  0.500  3.152105  127.217918  5.440093  0.885291
  8479.815  8479.800  0.500  3.160533  127.183143  5.392965  0.882681
  8482.192  8482.180  0.500  3.164111  127.154024  5.372471  0.882390
  8484.579  8484.570  0.500  3.163085  127.093986  5.375445  0.877446
  8486.993  8486.990  0.500  3.159842  127.062860  5.391586  0.862082
  8489.436  8489.420  0.500  3.155407  127.022077  5.413816  0.838605
  8491.874  8491.870  0.500  3.151329  127.014115  5.435596  0.817261
  8494.361  8494.350  0.500  3.148024  126.928887  5.449931  0.802660
  8496.851  8496.840  0.500  3.144883  126.915241  5.466490  0.797239
  8499.362  8499.350  0.500  3.141171  126.843574  5.483722  0.797592
  8501.884  8501.870  0.500  3.136763  126.829089  5.507315  0.802025
  8504.426  8504.420  0.500  3.131490  126.758772  5.533364  0.813569
  8507.006  8506.990  0.500  3.124342  126.738137  5.572152  0.834072
  8509.579  8509.570  0.500  3.114915  126.677217  5.622224  0.864469
  8512.188  8512.180  0.500  3.103610  126.597743  5.682579  0.903738
  8514.817  8514.800  0.500  3.091599  126.573273  5.750131  0.951487
  8517.463  8517.450  0.500  3.078896  126.497365  5.820148  1.003381
  8520.130  8520.110  0.500  3.066709  126.456349  5.889602  1.053268
  8522.805  8522.790  0.500  3.055389  126.419835  5.954931  1.090933
  8525.509  8525.490  0.500  3.046448  126.270349  6.001307  1.108611
  8528.225  8528.210  0.500  3.039821  125.877815  6.022431  1.103452
  8530.967  8530.950  0.500  3.034106  112.825792  5.428912  0.975861
  8533.708  8533.700  0.500  3.038848  124.773524  5.975406  1.048462
  8536.495  8536.480  0.500  3.043536  125.906013  6.001443  1.030600
  8539.284  8539.270  0.500  3.050655  126.005571  5.963580  1.006927
  8542.109  8542.090  0.500  3.057994  125.994628  5.919459  0.988234
  8544.929  8544.920  0.500  3.064235  125.949479  5.880525  0.978788
  8547.783  8547.770  0.500  3.068172  125.929321  5.856478  0.977902
  8550.658  8550.650  0.500  3.069073  125.857325  5.847860  0.980646
  8553.556  8553.540  0.500  3.067178  125.824051  5.857407  0.987808
  8556.460  8556.450  0.500  3.062810  125.773334  5.880672  0.998468
  8559.394  8559.370  0.500  3.057236  125.719094  5.910995  1.013388
  8562.340  8562.320  0.500  3.051240  125.652836  5.943408  1.026968
  8565.307  8565.290  0.500  3.045853  125.577111  5.971914  1.032864
  8568.285  8568.270  0.500  3.040688  125.518412  6.000031  1.026159
  8571.297  8571.280  0.500  3.035681  125.441281  6.026440  1.011337
  8574.317  8574.300  0.500  3.030480  125.375434  6.054689  0.997850
  8577.362  8577.350  0.500  3.025071  125.292541  6.083498  0.989729
  8580.437  8580.410  0.500  3.019216  125.227566  6.116051  0.987797
  8583.499  8583.490  0.500  3.013142  125.136927  6.148859  0.991697
  8586.617  8586.590  0.500  3.007830  124.948538  6.172302  0.999958
  8589.727  8589.710  0.500  3.003608  124.624029  6.182320  1.014025
  8592.875  8592.850  0.500  2.996749  117.563790  5.872214  0.982437
  8596.019  8596.000  0.500  2.996546  123.678837  6.178912  1.057957
