# XDI/1.0 BlueSky/1.5.3
# Beamline.name: 6BM
# Beamline.xray_source: NSLS-II three-pole wiggler
# Beamline.collimation: paraboloid mirror, 5 nm Rh on 30 nm Pt
# Beamline.focusing: not in use
# Beamline.harmonic_rejection: flat mirror, Pt stripe, pitch = 7.0 mrad relative to beam
# Detector.i0: 10 cm N2
# Detector.i1: 25 cm N2
# Detector.i2: 25 cm N2
# Element.symbol: As
# Element.edge: K
# Facility.name: NSLS-II
# Facility.energy: 3.0
# Facility.current: 400.0
# Facility.mode: top-off
# Facility.gup: 301027
# Facility.saf: 304793
# Mono.name: Si(111)
# Mono.d_spacing: 3.1353241
# Mono.encoder_resolution: 0.0000050 deg/ct
# Mono.angle_offset: 16.0581090 deg
# Mono.scan_mode: pseudo channel cut
# Mono.scan_type: step
# Mono.direction: forward in energy
# Sample.name: As2S3
# Sample.prep: Powder in polyethylene glycol pellet
# Sample.x_position: -54.942 mm
# Sample.y_position: 110.034 mm
# Sample.wheel_position: -150.484 mm
# Scan.experimenters: Bruce Ravel
# Scan.edge_energy: 11867.0
# Scan.start_time: 2019-10-19T09:48:11
# Scan.end_time: 2019-10-19T10:23:41
# Scan.transient_id: 15434
# Scan.uid: 8a00cd32-dea6-44c2-8355-135f13b4f384
# Scan.plot_hint: ln(I0/It)  --  ln($5/$6)
# Scan.sequence: merge of 3 scans
# Column.1: energy eV
# Column.2: requested_energy eV
# Column.3: measurement_time seconds
# Column.4: mutrans
# Column.5: i0
# Column.6: itrans
# Column.7: irefer
# /////
#  prepped by Sarah, 1/2 degree away from previous run for better alignment
# -----
# energy   requested_energy   measurement_time   mutrans   i0   itrans   irefer
11666.991000 11667.000000 1.000000 -0.291505 91.043414 121.856217 80.711036
11677.077000 11677.000000 1.000000 -0.292406 90.680083 121.479316 80.547438
11687.080000 11687.000000 1.000000 -0.293331 90.629186 121.523514 80.648711
11697.082000 11697.000000 1.000000 -0.294270 90.237939 121.112531 80.450677
11707.054000 11707.000000 1.000000 -0.295148 89.992592 120.889162 80.377973
11717.050000 11717.000000 1.000000 -0.296069 89.639362 120.525727 80.206549
11727.038000 11727.000000 1.000000 -0.296900 89.276344 120.137425 80.028896
11737.026000 11737.000000 1.000000 -0.297854 89.000731 119.880747 79.921570
11747.020000 11747.000000 1.000000 -0.298721 88.612787 119.461699 79.712746
11757.024000 11757.000000 1.000000 -0.299573 88.327371 119.178545 79.590184
11767.022000 11767.000000 1.000000 -0.300432 87.879593 118.676309 79.319026
11777.019000 11777.000000 1.000000 -0.301269 87.791772 118.656847 79.360567
11787.033000 11787.000000 1.000000 -0.302162 87.416669 118.255696 79.135806
11797.034000 11797.000000 1.000000 -0.302998 87.135331 117.973543 78.984655
11807.034000 11807.000000 1.000000 -0.303700 86.800080 117.602279 78.762400
11817.009000 11817.000000 1.000000 -0.304419 86.443185 117.202747 78.484951
11827.019000 11827.000000 1.000000 -0.305110 85.656304 116.216354 77.747587
11836.998000 11837.000000 1.000000 -0.305504 85.799584 116.456563 77.724935
11838.980000 11839.000000 1.000000 -0.305550 85.730069 116.367621 77.594873
11840.987000 11841.000000 1.000000 -0.305529 85.657064 116.265988 77.447331
11842.976000 11843.000000 1.000000 -0.305516 85.624610 116.220334 77.318515
11844.967000 11845.000000 1.000000 -0.305394 85.362592 115.850638 76.947735
11846.963000 11847.000000 1.000000 -0.305242 85.330801 115.790091 76.761050
11848.967000 11849.000000 1.000000 -0.305048 85.369040 115.819396 76.585094
11850.990000 11851.000000 1.000000 -0.304695 85.303719 115.689584 76.243214
11852.989000 11853.000000 1.000000 -0.304155 85.124410 115.384122 75.713964
11854.982000 11855.000000 1.000000 -0.303345 85.008510 115.134158 75.099206
11856.976000 11857.000000 1.000000 -0.301986 84.788767 114.681062 74.152948
11857.252000 11857.300000 1.000000 -0.301744 84.669566 114.491627 73.921892
11857.558000 11857.600000 1.000000 -0.301507 84.677474 114.474307 73.770487
11857.857000 11857.900000 1.000000 -0.301110 84.585085 114.304512 73.534181
11858.163000 11858.200000 1.000000 -0.300787 84.625120 114.320883 73.393445
11858.469000 11858.500000 1.000000 -0.300465 84.567370 114.205990 73.164707
11858.757000 11858.800000 1.000000 -0.300083 84.643483 114.266807 73.053178
11859.081000 11859.100000 1.000000 -0.299674 84.792843 114.418925 72.969925
11859.381000 11859.400000 1.000000 -0.299148 84.857435 114.447031 72.810175
11859.687000 11859.700000 1.000000 -0.298720 84.882568 114.429557 72.591186
11859.987000 11860.000000 1.000000 -0.298150 84.809702 114.268454 72.278791
11860.293000 11860.300000 1.000000 -0.297422 84.793777 114.162452 71.975734
11860.575000 11860.600000 1.000000 -0.296775 84.920408 114.262309 71.796178
11860.893000 11860.900000 1.000000 -0.296018 84.981664 114.255506 71.505382
11861.199000 11861.200000 1.000000 -0.295123 85.034971 114.222280 71.182107
11861.493000 11861.500000 1.000000 -0.294139 85.031371 114.109361 70.796037
11861.787000 11861.800000 1.000000 -0.293022 85.130605 114.116858 70.447277
11862.093000 11862.100000 1.000000 -0.291736 84.974654 113.762903 69.844348
11862.381000 11862.400000 1.000000 -0.290348 84.992006 113.628526 69.346168
11862.681000 11862.700000 1.000000 -0.288658 85.047950 113.515595 68.816612
11863.000000 11863.000000 1.000000 -0.286616 84.993175 113.206315 68.089970
11863.294000 11863.300000 1.000000 -0.284384 84.903568 112.833519 67.303938
11863.588000 11863.600000 1.000000 -0.281721 84.987644 112.649194 66.581295
11863.894000 11863.900000 1.000000 -0.278618 84.995712 112.307375 65.679833
11864.176000 11864.200000 1.000000 -0.275059 84.991775 111.917340 64.720301
11864.494000 11864.500000 1.000000 -0.270417 84.875863 111.226727 63.431093
11864.788000 11864.800000 1.000000 -0.265070 84.924196 110.699661 62.198418
11865.088000 11865.100000 1.000000 -0.258371 84.930999 109.970244 60.754146
11865.382000 11865.400000 1.000000 -0.250171 84.859819 108.987692 59.068983
11865.683000 11865.700000 1.000000 -0.239709 84.838083 107.833990 57.154874
11865.989000 11866.000000 1.000000 -0.226831 84.821086 106.383738 54.928008
11866.302000 11866.300000 1.000000 -0.209740 84.827062 104.577795 52.309525
11866.596000 11866.600000 1.000000 -0.189863 84.818166 102.501687 49.516177
11866.890000 11866.900000 1.000000 -0.166012 84.747394 100.082948 46.422942
11867.202000 11867.200000 1.000000 -0.138977 84.772788 97.376367 42.909930
11867.484000 11867.500000 1.000000 -0.111206 84.757630 94.805385 39.504174
11867.803000 11867.800000 1.000000 -0.084443 84.640948 92.101513 35.735254
11868.103000 11868.100000 1.000000 -0.062280 84.625503 90.092205 32.257886
11868.404000 11868.400000 1.000000 -0.048266 84.504860 88.700404 29.069395
11868.710000 11868.700000 1.000000 -0.043042 84.457535 88.174227 26.242484
11868.998000 11869.000000 1.000000 -0.046491 84.480941 88.494506 24.074410
11869.305000 11869.300000 1.000000 -0.056753 84.524257 89.468329 22.330047
11869.605000 11869.600000 1.000000 -0.071285 84.545669 90.791632 21.178720
11869.906000 11869.900000 1.000000 -0.087117 84.636920 92.340639 20.587319
11870.212000 11870.200000 1.000000 -0.103497 84.656526 93.906967 20.445863
11870.501000 11870.500000 1.000000 -0.118263 84.711300 95.375273 20.715239
11870.807000 11870.800000 1.000000 -0.133300 84.688750 96.773228 21.306367
11871.108000 11871.100000 1.000000 -0.146522 84.677584 98.081500 22.140503
11871.396000 11871.400000 1.000000 -0.158862 84.673586 99.252164 23.075960
11871.703000 11871.700000 1.000000 -0.170346 84.643514 100.378146 24.127340
11871.997000 11872.000000 1.000000 -0.180375 84.632766 101.379901 25.137766
11872.304000 11872.300000 1.000000 -0.189544 84.570944 102.235340 26.105750
11872.592000 11872.600000 1.000000 -0.196620 84.573607 102.953503 26.932032
11872.893000 11872.900000 1.000000 -0.202111 84.598358 103.532205 27.664957
11873.193000 11873.200000 1.000000 -0.205466 84.619681 103.919153 28.296809
11873.482000 11873.500000 1.000000 -0.206953 84.557941 103.991832 28.802430
11873.801000 11873.800000 1.000000 -0.206834 84.503007 103.919849 29.309118
11874.083000 11874.100000 1.000000 -0.205254 84.510115 103.773508 29.793832
11874.396000 11874.400000 1.000000 -0.202840 84.608148 103.641116 30.372210
11874.691000 11874.700000 1.000000 -0.200004 84.556410 103.287540 30.888945
11874.991000 11875.000000 1.000000 -0.196970 84.458848 102.859102 31.440306
11875.298000 11875.300000 1.000000 -0.194217 84.428889 102.528987 32.040733
11875.599000 11875.600000 1.000000 -0.191566 84.453423 102.290495 32.658444
11875.900000 11875.900000 1.000000 -0.189511 84.416565 102.028347 33.233607
11876.194000 11876.200000 1.000000 -0.187894 84.404237 101.855568 33.760785
11876.513000 11876.500000 1.000000 -0.186709 84.357388 101.671221 34.262129
11876.814000 11876.800000 1.000000 -0.185921 84.396599 101.639975 34.697003
11877.109000 11877.100000 1.000000 -0.185626 84.399388 101.614713 35.029579
11877.397000 11877.400000 1.000000 -0.185759 84.309655 101.520371 35.227091
11877.698000 11877.700000 1.000000 -0.186141 84.260482 101.499797 35.348983
11878.011000 11878.000000 1.000000 -0.186786 84.327290 101.650162 35.406783
11878.306000 11878.300000 1.000000 -0.187596 84.372575 101.784220 35.329692
11878.607000 11878.600000 1.000000 -0.188491 84.296969 101.787033 35.073966
11878.890000 11878.900000 1.000000 -0.189487 84.279975 101.860522 34.746844
11879.203000 11879.200000 1.000000 -0.190469 84.227514 101.899695 34.280244
11879.498000 11879.500000 1.000000 -0.191356 84.181332 101.932316 33.773728
11879.792000 11879.800000 1.000000 -0.192315 84.235348 102.095395 33.296329
11880.081000 11880.100000 1.000000 -0.193202 84.207009 102.147436 32.846816
11880.394000 11880.400000 1.000000 -0.193999 84.067677 102.062912 32.395596
11880.695000 11880.700000 1.000000 -0.194677 83.962449 102.004657 32.080323
11880.996000 11881.000000 1.000000 -0.195249 83.815832 101.885383 31.859031
11881.291000 11881.300000 1.000000 -0.195759 83.644635 101.729867 31.735228
11881.598000 11881.600000 1.000000 -0.196109 83.413755 101.484964 31.684867
11881.906000 11881.900000 1.000000 -0.196440 83.242988 101.312070 31.744165
11882.201000 11882.200000 1.000000 -0.196746 83.238211 101.336433 31.916250
11882.502000 11882.500000 1.000000 -0.196932 83.205789 101.316515 32.118650
11882.797000 11882.800000 1.000000 -0.197131 83.307710 101.460361 32.381203
11883.104000 11883.100000 1.000000 -0.197193 83.518150 101.723396 32.697455
11883.405000 11883.400000 1.000000 -0.197283 83.743872 102.007316 32.989473
11883.712000 11883.700000 1.000000 -0.197378 83.795316 102.080398 33.191335
11884.007000 11884.000000 1.000000 -0.197476 83.949789 102.277876 33.396007
11884.308000 11884.300000 1.000000 -0.197532 84.028059 102.379803 33.551989
11884.604000 11884.600000 1.000000 -0.197698 84.130845 102.521452 33.693438
11884.911000 11884.900000 1.000000 -0.197833 84.109745 102.509870 33.777099
11885.218000 11885.200000 1.000000 -0.197954 84.099495 102.509796 33.851255
11885.507000 11885.500000 1.000000 -0.198108 84.116435 102.546428 33.931268
11885.815000 11885.800000 1.000000 -0.198246 84.112917 102.555676 34.010486
11886.097000 11886.100000 1.000000 -0.198406 84.159034 102.628232 34.113228
11886.411000 11886.400000 1.000000 -0.198603 84.204297 102.703615 34.237073
11886.694000 11886.700000 1.000000 -0.198790 84.172790 102.684176 34.343178
11887.001000 11887.000000 1.000000 -0.198995 84.128532 102.651160 34.470308
11887.297000 11887.300000 1.000000 -0.199214 84.107940 102.648217 34.630597
11887.598000 11887.600000 1.000000 -0.199547 84.130333 102.709232 34.828669
11887.899000 11887.900000 1.000000 -0.199753 84.275816 102.908881 35.084802
11888.195000 11888.200000 1.000000 -0.200083 84.250856 102.912385 35.268175
11888.496000 11888.500000 1.000000 -0.200363 84.247512 102.936402 35.441360
11888.791000 11888.800000 1.000000 -0.200696 84.176159 102.883918 35.572836
11889.093000 11889.100000 1.000000 -0.201000 84.214352 102.962031 35.722685
11889.400000 11889.400000 1.000000 -0.201427 84.182092 102.967259 35.825531
11889.708000 11889.700000 1.000000 -0.201677 84.163860 102.971178 35.924873
11889.997000 11890.000000 1.000000 -0.202054 84.081108 102.908164 35.989264
11890.311000 11890.300000 1.000000 -0.202371 84.070828 102.929190 36.099100
11890.594000 11890.600000 1.000000 -0.202666 84.194339 103.109634 36.281253
11890.920000 11890.900000 1.000000 -0.202981 84.083919 103.008469 36.401309
11891.203000 11891.200000 1.000000 -0.203341 84.060702 103.016583 36.575789
11891.511000 11891.500000 1.000000 -0.203664 84.046914 103.032735 36.785562
11891.806000 11891.800000 1.000000 -0.203960 83.977251 102.977355 36.980018
11892.114000 11892.100000 1.000000 -0.204180 84.056256 103.097271 37.251472
11892.409000 11892.400000 1.000000 -0.204484 84.085295 103.163657 37.483239
11892.705000 11892.700000 1.000000 -0.204729 83.988536 103.069957 37.641109
11893.000000 11893.000000 1.000000 -0.205055 83.883497 102.974199 37.769321
11893.296000 11893.300000 1.000000 -0.205310 83.890540 103.008728 37.913389
11893.604000 11893.600000 1.000000 -0.205548 84.051857 103.231853 38.100744
11893.899000 11893.900000 1.000000 -0.205828 83.930169 103.111229 38.125140
11894.207000 11894.200000 1.000000 -0.206139 83.888130 103.091792 38.158684
11894.490000 11894.500000 1.000000 -0.206365 83.951804 103.192819 38.220411
11894.798000 11894.800000 1.000000 -0.206685 83.898797 103.160993 38.218852
11895.094000 11895.100000 1.000000 -0.206958 83.764765 103.024336 38.163899
11895.395000 11895.400000 1.000000 -0.207203 83.812508 103.108291 38.194419
11895.673000 11895.700000 1.000000 -0.207451 83.884248 103.220919 38.232121
11895.993000 11896.000000 1.000000 -0.207753 83.851766 103.213324 38.229359
11896.301000 11896.300000 1.000000 -0.208020 83.815120 103.196519 38.226367
11896.603000 11896.600000 1.000000 -0.208274 83.802194 103.206976 38.239421
11896.904000 11896.900000 1.000000 -0.208550 83.771660 103.197941 38.250855
11896.984000 11897.000000 1.000000 -0.208620 83.807849 103.249204 38.272364
11898.112000 11898.080000 1.000000 -0.209631 83.726564 103.253731 38.346348
11899.215000 11899.180000 1.000000 -0.210435 83.531746 103.095817 38.369697
11900.324000 11900.290000 1.000000 -0.211334 82.845848 102.341665 38.191745
11901.458000 11901.430000 1.000000 -0.211988 82.797570 102.348888 38.331937
11902.605000 11902.580000 1.000000 -0.212423 83.381091 103.115142 38.807859
11903.789000 11903.760000 1.000000 -0.212606 83.494811 103.274478 39.034665
11904.986000 11904.950000 1.000000 -0.212754 83.446449 103.229709 39.132846
11906.189000 11906.160000 1.000000 -0.212647 83.448109 103.220886 39.242604
11907.404000 11907.390000 1.000000 -0.212327 83.446759 103.186334 39.311345
11908.639000 11908.640000 1.000000 -0.211776 83.359100 103.021478 39.200626
11909.929000 11909.910000 1.000000 -0.210897 83.310282 102.869686 38.945165
11911.225000 11911.200000 1.000000 -0.209575 83.247701 102.656661 38.556446
11912.541000 11912.510000 1.000000 -0.208138 83.101928 102.329699 38.088388
11913.856000 11913.830000 1.000000 -0.206597 82.440582 101.359035 37.426391
11915.197000 11915.180000 1.000000 -0.205213 82.554997 101.359221 37.187524
11916.557000 11916.540000 1.000000 -0.204128 82.914732 101.690385 37.164408
11917.960000 11917.930000 1.000000 -0.203165 83.036479 101.741922 37.086959
11919.351000 11919.330000 1.000000 -0.202468 82.971892 101.592980 36.951312
11920.773000 11920.750000 1.000000 -0.201932 82.881230 101.427182 36.761311
11922.184000 11922.190000 1.000000 -0.201525 82.908686 101.419629 36.556221
11923.663000 11923.650000 1.000000 -0.201331 82.893663 101.381183 36.285408
11925.167000 11925.130000 1.000000 -0.201126 82.817510 101.267349 35.985618
11926.658000 11926.630000 1.000000 -0.201119 82.715097 101.141435 35.726932
11928.145000 11928.140000 1.000000 -0.201113 82.747936 101.180997 35.591007
11929.699000 11929.680000 1.000000 -0.201293 82.723482 101.169284 35.507753
11931.260000 11931.240000 1.000000 -0.201482 82.469356 100.877866 35.319325
11932.822000 11932.810000 1.000000 -0.201912 81.678897 99.953496 34.888974
11934.409000 11934.400000 1.000000 -0.202633 82.354330 100.852428 35.139256
11936.021000 11936.010000 1.000000 -0.203382 82.603979 101.234271 35.274678
11937.664000 11937.650000 1.000000 -0.204178 82.536494 101.233008 35.267830
11939.327000 11939.300000 1.000000 -0.205113 82.457374 101.230422 35.224062
11940.984000 11940.970000 1.000000 -0.206162 82.470287 101.351763 35.188936
11942.660000 11942.650000 1.000000 -0.207155 82.321908 101.269894 35.091024
11944.367000 11944.360000 1.000000 -0.208156 82.390473 101.456263 35.115991
11946.100000 11946.090000 1.000000 -0.209190 82.360049 101.523126 35.154348
11947.865000 11947.830000 1.000000 -0.210159 82.264594 101.504545 35.230802
11949.611000 11949.600000 1.000000 -0.211097 82.256869 101.589546 35.414201
11951.370000 11951.380000 1.000000 -0.211926 82.104573 101.485049 35.542347
11953.204000 11953.180000 1.000000 -0.212571 82.109778 101.558156 35.701291
11955.027000 11955.000000 1.000000 -0.213108 82.179826 101.698899 35.841392
11956.856000 11956.840000 1.000000 -0.213541 81.998634 101.518669 35.851194
11958.686000 11958.700000 1.000000 -0.213840 81.905116 101.433032 35.908412
11960.591000 11960.580000 1.000000 -0.213929 81.818437 101.334838 35.982518
11962.510000 11962.480000 1.000000 -0.213941 81.876824 101.408456 36.110372
11964.416000 11964.400000 1.000000 -0.213797 81.829017 101.334705 36.159764
11966.335000 11966.330000 1.000000 -0.213605 81.738508 101.203156 36.171200
11968.293000 11968.290000 1.000000 -0.213269 81.632497 101.037982 36.183686
11970.301000 11970.260000 1.000000 -0.212893 81.678191 101.056205 36.265000
11972.285000 11972.260000 1.000000 -0.212471 81.709148 101.052090 36.327486
11974.276000 11974.270000 1.000000 -0.212029 81.618321 100.895267 36.331990
11976.311000 11976.300000 1.000000 -0.211678 81.505942 100.720925 36.331107
11978.371000 11978.350000 1.000000 -0.211288 81.513016 100.690448 36.398950
11980.445000 11980.420000 1.000000 -0.210969 81.426853 100.551831 36.447241
11982.520000 11982.510000 1.000000 -0.210658 81.534454 100.653550 36.595438
11984.633000 11984.610000 1.000000 -0.210329 81.439467 100.503044 36.639401
11986.759000 11986.740000 1.000000 -0.210011 81.351399 100.362475 36.663210
11988.899000 11988.890000 1.000000 -0.209713 81.286936 100.253171 36.667643
11991.045000 11991.050000 1.000000 -0.209546 81.263822 100.207897 36.678063
11993.261000 11993.230000 1.000000 -0.209449 81.163038 100.073876 36.651155
11995.460000 11995.440000 1.000000 -0.209538 81.189144 100.114994 36.674837
11997.659000 11997.660000 1.000000 -0.209785 81.140526 100.079589 36.640831
11999.928000 11999.900000 1.000000 -0.210238 81.024402 99.981893 36.556377
12002.216000 12002.160000 1.000000 -0.210920 80.888240 99.882476 36.449782
12004.462000 12004.440000 1.000000 -0.211677 80.869707 99.934763 36.392025
12006.752000 12006.740000 1.000000 -0.212485 80.748783 99.865574 36.279286
12009.081000 12009.050000 1.000000 -0.213402 80.654950 99.841267 36.175398
12011.423000 12011.390000 1.000000 -0.214223 80.729348 100.015612 36.152875
12013.766000 12013.740000 1.000000 -0.215073 80.533024 99.857320 36.029940
12016.129000 12016.120000 1.000000 -0.215846 80.403044 99.772420 35.947956
12018.524000 12018.510000 1.000000 -0.216636 80.395321 99.841716 35.926413
12020.946000 12020.920000 1.000000 -0.217269 80.383228 99.890106 35.900768
12023.362000 12023.350000 1.000000 -0.217926 80.260362 99.802980 35.830548
12025.817000 12025.800000 1.000000 -0.218449 80.128160 99.690600 35.763059
12028.298000 12028.270000 1.000000 -0.218745 80.033832 99.603000 35.712437
12030.768000 12030.760000 1.000000 -0.219004 80.018964 99.610314 35.693091
12033.321000 12033.270000 1.000000 -0.219290 79.866984 99.449761 35.618324
12035.817000 12035.790000 1.000000 -0.219358 79.840381 99.423322 35.621787
12038.372000 12038.340000 1.000000 -0.219418 79.680298 99.229902 35.587261
12040.934000 12040.900000 1.000000 -0.219413 79.656539 99.199810 35.612200
12043.529000 12043.490000 1.000000 -0.219511 79.286697 98.748323 35.511155
12046.132000 12046.090000 1.000000 -0.219398 77.394544 96.381447 34.697228
