# XDI/1.0 BlueSky/1.10.0 BMM/2023-1.0-py310-tiled
# Beamline.name: BMM (06BM) -- Beamline for Materials Measurement (NIST)
# Beamline.xray_source: NSLS-II three-pole wiggler
# Beamline.collimation: paraboloid mirror, 5 nm Rh on 30 nm Pt
# Beamline.focusing: not in use
# Beamline.harmonic_rejection: flat mirror, Pt stripe, pitch = 7.0 mrad relative to beam
# Beamline.software: Bluesky 1.10.0, Ophyd 1.7.0, DataBroker 2.0.0b13, Python 3.10.8, 2023-1.0-py310-tiled
# Detector.I0: 10 cm N2
# Detector.I1: 25 cm N2
# Detector.I2: 25 cm N2
# Element.symbol: As
# Element.edge: K
# Element.reference: As
# Element.reference_material: As2O3
# Facility.name: NSLS-II
# Facility.energy: 3.0
# Facility.current: 400.1
# Facility.mode: top-off
# Facility.GUP: 301027
# Facility.SAF: 310583
# Facility.cycle: 2023-2
# Mono.name: Si(111)
# Mono.d_spacing: 3.1351860
# Mono.encoder_resolution: 0.0000050 deg/ct
# Mono.angle_offset: 16.0754326 deg
# Mono.scan_mode: pseudo channel cut
# Mono.scan_type: step
# Mono.direction: forward in energy
# Sample.name: K3AsO4.12H2O
# Sample.prep: powder in PEG pellet
# Sample.x: 115.008 mm
# Sample.y: 114.461 mm
# Sample.SDD_position: 170.000 mm
# Scan.experimenters: Bruce Ravel
# Scan.edge_energy: 11866.7
# Scan.start_time: 2023-07-10T16:03:00
# Scan.end_time: 2023-07-10T16:11:01
# Scan.transient_id: 90271
# Scan.uid: 07f5fce9-94da-4d0c-afa2-77c2b7fbf873
# Scan.plot_hint: ln(I0/It)  --  ln($5/$6)
# Column.1: energy eV
# Column.2: requested_energy eV
# Column.3: measurement_time seconds
# Column.4: xmu 
# Column.5: I0 nA
# Column.6: It nA
# Column.7: Ir nA
# ///////////
# sample courtesy Evan Jahrman, NIST
# -----------
# energy  requested_energy  measurement_time  xmu  I0  It  Ir
  11666.695  11666.700  0.500  0.300908  65.113744  48.193684  32.745938
  11676.751  11676.700  0.500  0.298609  65.007056  48.225469  32.801949
  11686.753  11686.700  0.500  0.296192  64.869590  48.239910  32.838213
  11696.772  11696.700  0.500  0.293864  64.735374  48.252325  32.873834
  11706.737  11706.700  0.500  0.291643  64.606572  48.263365  32.911210
  11716.767  11716.700  0.500  0.289270  64.488493  48.289635  32.959815
  11726.689  11726.700  0.500  0.287146  64.316827  48.263463  32.969679
  11736.718  11736.700  0.500  0.284819  64.022652  48.154673  32.925105
  11746.722  11746.700  0.500  0.282595  63.822421  48.110958  32.918776
  11756.732  11756.700  0.500  0.280547  63.792837  48.187204  32.998693
  11766.741  11766.700  0.500  0.278517  63.775577  48.272066  33.085719
  11776.731  11776.700  0.500  0.276311  63.446814  48.129285  33.007335
  11786.726  11786.700  0.500  0.274513  63.517660  48.269724  33.126314
  11796.744  11796.700  0.500  0.272613  63.376486  48.254035  33.130791
  11806.725  11806.700  0.500  0.270865  63.000469  48.051684  33.003875
  11816.772  11816.700  0.500  0.269586  63.046246  48.148135  33.076188
  11826.684  11826.700  0.500  0.268916  62.913450  48.078941  33.020210
  11836.662  11836.700  0.500  0.269299  62.803431  47.976452  32.909090
  11838.655  11838.700  0.500  0.269564  62.782087  47.947469  32.873828
  11840.644  11840.700  0.500  0.269909  62.766350  47.918892  32.836229
  11842.645  11842.700  0.500  0.270531  62.735520  47.865572  32.781041
  11844.654  11844.700  0.500  0.271125  62.700705  47.810607  32.712835
  11846.644  11846.700  0.500  0.272018  62.666009  47.741529  32.629044
  11848.635  11848.700  0.500  0.273337  62.462499  47.523753  32.439066
  11850.646  11850.700  0.500  0.274800  62.611495  47.567444  32.416057
  11852.644  11852.700  0.500  0.276863  62.589749  47.452958  32.265498
  11854.656  11854.700  0.500  0.279508  62.527744  47.280715  32.059303
  11856.650  11856.700  0.500  0.283147  62.374794  46.993736  31.740359
  11856.937  11857.000  0.500  0.283685  62.402897  46.989604  31.718595
  11857.243  11857.300  0.500  0.284349  62.452814  46.995968  31.702517
  11857.549  11857.600  0.500  0.285062  62.472732  46.977463  31.664416
  11857.837  11857.900  0.500  0.285800  62.488448  46.954627  31.626544
  11858.143  11858.200  0.500  0.286493  62.483463  46.918347  31.571068
  11858.455  11858.500  0.500  0.287436  62.461154  46.857388  31.507308
  11858.736  11858.800  0.500  0.288305  62.405852  46.775250  31.422026
  11859.048  11859.100  0.500  0.289198  62.323014  46.671457  31.321477
  11859.354  11859.400  0.500  0.290109  62.239805  46.566706  31.213885
  11859.667  11859.700  0.500  0.291234  62.180112  46.469749  31.114867
  11859.954  11860.000  0.500  0.292228  62.149420  46.400642  31.031231
  11860.254  11860.300  0.500  0.293393  62.125089  46.328473  30.942422
  11860.579  11860.600  0.500  0.294680  62.141207  46.280914  30.865938
  11860.854  11860.900  0.500  0.295792  62.190851  46.266390  30.808802
  11861.160  11861.200  0.500  0.297236  62.243911  46.239049  30.741343
  11861.472  11861.500  0.500  0.298676  62.301444  46.215205  30.674081
  11861.772  11861.800  0.500  0.300248  62.333227  46.166127  30.583549
  11862.072  11862.100  0.500  0.301840  62.308122  46.074132  30.472360
  11862.373  11862.400  0.500  0.303519  62.269615  45.968424  30.337354
  11862.679  11862.700  0.500  0.305336  62.236431  45.860500  30.195894
  11862.979  11863.000  0.500  0.307197  62.212818  45.757863  30.058659
  11863.273  11863.300  0.500  0.309138  62.214288  45.670234  29.924301
  11863.579  11863.600  0.500  0.311600  62.231657  45.570641  29.778914
  11863.891  11863.900  0.500  0.313898  62.266651  45.491626  29.635247
  11864.185  11864.200  0.500  0.316423  62.311522  45.409608  29.485705
  11864.479  11864.500  0.500  0.319193  62.333879  45.300232  29.310869
  11864.792  11864.800  0.500  0.322419  62.362127  45.174784  29.110275
  11865.080  11865.100  0.500  0.325579  62.363700  45.033409  28.897151
  11865.386  11865.400  0.500  0.329073  62.365744  44.877817  28.652211
  11865.699  11865.700  0.500  0.333266  62.368372  44.691904  28.375513
  11865.999  11866.000  0.500  0.337737  62.352800  44.481437  28.068572
  11866.293  11866.300  0.500  0.342261  62.337759  44.269967  27.751009
  11866.599  11866.600  0.500  0.347814  62.341295  44.027296  27.387006
  11866.893  11866.900  0.500  0.353967  62.325097  43.745884  26.977687
  11867.188  11867.200  0.500  0.360255  62.316764  43.465857  26.561201
  11867.488  11867.500  0.500  0.367624  62.317054  43.146902  26.080080
  11867.800  11867.800  0.500  0.376150  62.306434  42.773332  25.528701
  11868.101  11868.100  0.500  0.385538  62.295199  42.366017  24.924630
  11868.389  11868.400  0.500  0.395891  62.292607  41.927921  24.288798
  11868.695  11868.700  0.500  0.408065  62.285915  41.416105  23.559081
  11868.990  11869.000  0.500  0.422309  62.274543  40.822937  22.742324
  11869.284  11869.300  0.500  0.438534  62.267414  40.161304  21.852869
  11869.590  11869.600  0.500  0.458645  62.257633  39.355528  20.819225
  11869.885  11869.900  0.500  0.483025  62.244619  38.399602  19.671032
  11870.185  11870.200  0.500  0.512998  62.214465  37.247666  18.389552
  11870.480  11870.500  0.500  0.548811  62.175717  35.914959  17.039834
  11870.774  11870.800  0.500  0.593998  62.122939  34.299029  15.573345
  11871.087  11871.100  0.500  0.652581  62.066155  32.317859  13.961227
  11871.381  11871.400  0.500  0.720851  62.054265  30.179375  12.408730
  11871.675  11871.700  0.500  0.804805  62.070674  27.756466  10.830227
  11871.982  11872.000  0.500  0.901797  62.107432  25.205669  9.333110
  11872.289  11872.300  0.500  1.005087  62.134412  22.741996  8.024740
  11872.589  11872.600  0.500  1.104289  62.175919  20.607992  6.992331
  11872.884  11872.900  0.500  1.201368  62.189536  18.705527  6.161033
  11873.203  11873.200  0.500  1.291282  62.202333  17.100542  5.539703
  11873.485  11873.500  0.500  1.369175  62.208536  15.820674  5.115409
  11873.798  11873.800  0.500  1.451482  62.200553  14.568792  4.755095
  11874.099  11874.100  0.500  1.539246  62.254091  13.356173  4.432958
  11874.405  11874.400  0.500  1.643091  62.408929  12.068729  4.083740
  11874.700  11874.700  0.500  1.764351  62.401992  10.689333  3.687352
  11874.994  11875.000  0.500  1.912109  62.400016  9.220756  3.240676
  11875.301  11875.300  0.500  2.090014  62.392398  7.717027  2.757970
  11875.596  11875.600  0.500  2.267705  62.396865  6.461170  2.339224
  11875.903  11875.900  0.500  2.452769  62.394034  5.369318  1.964453
  11876.210  11876.200  0.500  2.609923  62.380505  4.587476  1.692361
  11876.510  11876.500  0.500  2.704933  62.374992  4.171314  1.549754
  11876.799  11876.800  0.500  2.722027  62.369084  4.100230  1.536180
  11877.118  11877.100  0.500  2.662365  62.362198  4.351820  1.649465
  11877.407  11877.400  0.500  2.548264  62.367587  4.878224  1.875077
  11877.695  11877.700  0.500  2.408940  62.347582  5.605704  2.187932
  11877.996  11878.000  0.500  2.258347  62.343615  6.516349  2.583406
  11878.309  11878.300  0.500  2.108408  62.329971  7.568800  3.049559
  11878.604  11878.600  0.500  1.986339  62.331565  8.551687  3.492847
  11878.893  11878.900  0.500  1.876493  62.323856  9.543414  3.948897
  11879.193  11879.200  0.500  1.784230  62.316223  10.464531  4.379405
  11879.500  11879.500  0.500  1.711522  62.311441  11.252872  4.752527
  11879.783  11879.800  0.500  1.652446  62.311124  11.937608  5.080277
  11880.096  11880.100  0.500  1.603849  62.292298  12.528289  5.362599
  11880.379  11880.400  0.500  1.569682  62.288345  12.962912  5.566211
  11880.686  11880.700  0.500  1.542723  62.277490  13.314811  5.722837
  11880.993  11881.000  0.500  1.522216  62.276069  13.590366  5.832920
  11881.282  11881.300  0.500  1.508263  62.267156  13.779349  5.894968
  11881.595  11881.600  0.500  1.497090  62.259849  13.932529  5.923224
  11881.896  11881.900  0.500  1.488920  62.261013  14.047088  5.925086
  11882.185  11882.200  0.500  1.482837  62.248946  14.130063  5.907252
  11882.498  11882.500  0.500  1.477476  62.242416  14.204524  5.883633
  11882.793  11882.800  0.500  1.472916  62.238231  14.268490  5.857253
  11883.100  11883.100  0.500  1.468888  62.225260  14.323094  5.836564
  11883.414  11883.400  0.500  1.465678  62.206756  14.364868  5.819360
  11883.697  11883.700  0.500  1.463437  62.178004  14.390441  5.809477
  11884.004  11884.000  0.500  1.461752  62.114364  14.399964  5.805400
  11884.305  11884.300  0.500  1.460009  61.997986  14.398052  5.807629
  11884.606  11884.600  0.500  1.457283  61.846062  14.401973  5.819165
  11884.914  11884.900  0.500  1.452776  61.693938  14.431443  5.849150
  11885.209  11885.200  0.500  1.445322  61.573251  14.510974  5.900318
  11885.504  11885.500  0.500  1.435440  61.518476  14.642050  5.978266
  11885.823  11885.800  0.500  1.423322  61.514007  14.819491  6.077699
  11886.100  11886.100  0.500  1.411422  61.558706  15.007784  6.177479
  11886.414  11886.400  0.500  1.398289  61.639629  15.226174  6.286613
  11886.721  11886.700  0.500  1.386548  61.758813  15.435794  6.391949
  11886.998  11887.000  0.500  1.377191  61.870283  15.609019  6.477647
  11887.318  11887.300  0.500  1.369269  61.978492  15.760675  6.557036
  11887.613  11887.600  0.500  1.363327  62.041316  15.870683  6.612874
  11887.902  11887.900  0.500  1.358979  62.077496  15.949134  6.653784
  11888.209  11888.200  0.500  1.355327  62.094931  16.011988  6.690178
  11888.498  11888.500  0.500  1.352572  62.103297  16.058312  6.719587
  11888.800  11888.800  0.500  1.349759  62.097238  16.101986  6.747064
  11889.101  11889.100  0.500  1.347410  62.101788  16.141027  6.775238
  11889.390  11889.400  0.500  1.344970  62.104215  16.181106  6.805255
  11889.686  11889.700  0.500  1.342723  62.104314  16.217518  6.836187
  11890.006  11890.000  0.500  1.340367  62.093713  16.253001  6.870936
  11890.289  11890.300  0.500  1.339242  62.101016  16.273215  6.902083
  11890.590  11890.600  0.500  1.338525  62.093375  16.282886  6.929446
  11890.898  11890.900  0.500  1.338496  62.092466  16.283111  6.952669
  11891.187  11891.200  0.500  1.339188  62.088720  16.270868  6.969087
  11891.495  11891.500  0.500  1.340593  62.077742  16.245146  6.978481
  11891.704  11891.700  0.500  1.341447  62.073405  16.230146  6.981989
  11892.701  11892.690  0.500  1.345270  62.057493  16.164072  6.994875
  11893.711  11893.690  0.500  1.345199  62.051270  16.163609  7.049128
  11894.733  11894.710  0.500  1.348160  62.028351  16.109853  7.110820
  11895.786  11895.760  0.500  1.357120  62.012815  15.962156  7.127275
  11896.833  11896.820  0.500  1.356792  62.005704  15.965562  7.167113
  11897.911  11897.900  0.500  1.333935  61.977587  16.327283  7.335392
  11899.014  11899.000  0.500  1.297790  61.953030  16.921532  7.604009
  11900.123  11900.120  0.500  1.259141  61.912122  17.576707  7.908391
  11901.257  11901.260  0.500  1.220777  61.663042  18.190646  8.198542
  11902.434  11902.410  0.500  1.183153  61.251568  18.762046  8.472765
  11903.606  11903.590  0.500  1.146800  61.554594  19.552925  8.852083
  11904.802  11904.780  0.500  1.113199  61.845881  20.316760  9.233102
  11906.024  11906.000  0.500  1.083167  61.866833  20.943274  9.550843
  11907.239  11907.230  0.500  1.057898  61.850979  21.473723  9.820405
  11908.492  11908.480  0.500  1.036132  61.841096  21.942728  10.055556
  11909.757  11909.750  0.500  1.017769  61.820449  22.341937  10.259100
  11911.060  11911.040  0.500  1.003992  61.809113  22.647714  10.404317
  11912.369  11912.350  0.500  0.996903  61.787243  22.800762  10.446554
  11913.710  11913.680  0.500  0.997061  61.767836  22.790007  10.388179
  11915.050  11915.030  0.500  1.003322  61.728749  22.633414  10.259005
  11916.416  11916.400  0.500  1.014211  61.479333  22.297837  10.053315
  11917.794  11917.780  0.500  1.027594  61.053440  21.849008  9.804188
  11919.191  11919.190  0.500  1.041954  61.475637  21.686435  9.703987
  11920.620  11920.610  0.500  1.056356  61.672821  21.444908  9.577277
  11922.080  11922.050  0.500  1.071427  61.673995  21.124542  9.419584
  11923.534  11923.510  0.500  1.086863  61.647959  20.792175  9.246120
  11925.007  11924.990  0.500  1.102209  61.634078  20.470928  9.070167
  11926.498  11926.490  0.500  1.115389  61.610613  20.195213  8.906810
  11928.009  11928.010  0.500  1.126017  61.589832  19.974976  8.767997
  11929.557  11929.550  0.500  1.134681  61.571668  19.796813  8.654428
  11931.118  11931.110  0.500  1.142740  61.546367  19.629849  8.555850
  11932.686  11932.680  0.500  1.152143  61.517915  19.437138  8.462157
  11934.298  11934.280  0.500  1.163936  61.220776  19.116469  8.309471
  11935.897  11935.890  0.500  1.178463  60.857716  18.729055  8.121750
  11937.541  11937.530  0.500  1.193306  61.371319  18.608829  8.063973
  11939.191  11939.180  0.500  1.204787  61.415673  18.409698  7.975275
  11940.872  11940.850  0.500  1.210138  61.400094  18.306810  7.927277
  11942.573  11942.540  0.500  1.213905  61.383362  18.233016  7.885995
  11944.268  11944.250  0.500  1.218623  61.360248  18.140365  7.836798
  11945.994  11945.980  0.500  1.223683  61.335964  18.041656  7.784933
  11947.734  11947.730  0.500  1.228242  61.314320  17.953253  7.743477
  11949.511  11949.490  0.500  1.231867  61.290359  17.881296  7.716283
  11951.289  11951.280  0.500  1.233788  61.270029  17.841064  7.714647
  11953.086  11953.080  0.500  1.233571  61.243305  17.837147  7.737662
  11954.908  11954.910  0.500  1.231453  61.216666  17.867200  7.771591
  11956.750  11956.750  0.500  1.228996  61.193913  17.904491  7.804593
  11958.630  11958.610  0.500  1.226695  61.163610  17.936848  7.829886
  11960.510  11960.490  0.500  1.225988  61.143600  17.943668  7.844748
  11962.403  11962.390  0.500  1.226951  61.117141  17.918632  7.848639
  11964.315  11964.310  0.500  1.229266  61.091843  17.869796  7.842029
  11966.260  11966.250  0.500  1.231304  61.056190  17.823016  7.834922
  11968.217  11968.210  0.500  1.230196  61.036815  17.837107  7.849874
  11970.206  11970.180  0.500  1.225075  61.004342  17.919144  7.898725
  11972.196  11972.180  0.500  1.216839  60.974929  18.058634  7.969742
  11974.181  11974.190  0.500  1.207213  60.949071  18.225580  8.053693
  11976.222  11976.220  0.500  1.197217  60.917165  18.399023  8.141309
  11978.301  11978.280  0.500  1.187527  60.895601  18.571617  8.226517
  11980.369  11980.350  0.500  1.178914  60.859454  18.721145  8.305791
  11982.443  11982.440  0.500  1.170418  60.827294  18.870887  8.386366
  11984.556  11984.550  0.500  1.161369  60.797026  19.032956  8.475992
  11986.701  11986.680  0.500  1.152650  60.764709  19.189418  8.563340
  11988.840  11988.820  0.500  1.145162  60.738692  19.325372  8.634711
  11990.999  11990.990  0.500  1.139048  60.703207  19.432540  8.694674
  11993.190  11993.180  0.500  1.134593  60.675004  19.510223  8.734228
  11995.395  11995.380  0.500  1.131354  60.647149  19.564540  8.764947
  11997.619  11997.600  0.500  1.128563  60.616235  19.609227  8.786624
  11999.869  11999.850  0.500  1.126026  60.590742  19.650756  8.802815
  12002.113  12002.110  0.500  1.123495  60.559354  19.690365  8.815443
  12004.415  12004.390  0.500  1.121001  60.526410  19.728791  8.822486
  12006.718  12006.690  0.500  1.119172  60.493325  19.754103  8.821738
  12009.021  12009.010  0.500  1.118280  60.471245  19.764504  8.812699
  12011.363  12011.350  0.500  1.118533  60.437083  19.748341  8.791397
  12013.719  12013.700  0.500  1.119584  60.406888  19.717743  8.765951
  12016.107  12016.080  0.500  1.120738  60.376398  19.685065  8.740704
  12018.477  12018.470  0.500  1.121987  60.348789  19.651496  8.717566
  12020.898  12020.890  0.500  1.123545  60.315473  19.610084  8.692942
  12023.340  12023.320  0.500  1.125356  60.281247  19.563484  8.664620
  12025.788  12025.770  0.500  1.127773  60.251627  19.506671  8.636514
  12028.244  12028.250  0.500  1.130321  60.216531  19.445706  8.602035
  12030.764  12030.740  0.500  1.133236  60.184185  19.378679  8.568626
  12033.279  12033.250  0.500  1.135928  60.152040  19.316265  8.539764
  12035.763  12035.770  0.500  1.138255  60.108820  19.257525  8.509815
  12038.324  12038.320  0.500  1.139796  60.075853  19.217315  8.494403
  12040.917  12040.890  0.500  1.141588  60.033477  19.169377  8.478938
  12043.481  12043.470  0.500  1.143629  59.990684  19.116668  8.459316
  12046.089  12046.080  0.500  1.144498  59.811743  19.043091  8.435649
  12048.718  12048.700  0.500  1.145775  58.252650  18.523034  8.213920
  12051.379  12051.350  0.500  1.146521  59.775893  18.993211  8.431243
  12054.010  12054.010  0.500  1.146738  59.815405  19.001644  8.446635
  12056.712  12056.690  0.500  1.147272  59.791964  18.984052  8.449931
  12059.402  12059.390  0.500  1.147754  59.757575  18.963998  8.448104
  12062.113  12062.110  0.500  1.147909  59.725800  18.950972  8.449606
  12064.875  12064.850  0.500  1.147970  59.692853  18.939367  8.450082
  12067.607  12067.600  0.500  1.147188  59.654434  18.941978  8.454932
  12070.372  12070.380  0.500  1.145962  59.618227  18.953713  8.462240
  12073.176  12073.170  0.500  1.144333  59.579778  18.972362  8.472999
  12075.995  12075.990  0.500  1.142452  59.541317  18.995805  8.487117
  12078.821  12078.820  0.500  1.140318  59.507869  19.025703  8.506880
  12081.686  12081.670  0.500  1.137502  59.463855  19.065230  8.529086
  12084.553  12084.550  0.500  1.134542  59.423838  19.108882  8.556758
  12087.441  12087.440  0.500  1.131422  59.382764  19.155351  8.583808
  12090.368  12090.350  0.500  1.128256  59.333341  19.200104  8.609696
  12093.290  12093.270  0.500  1.125319  59.186546  19.208936  8.617784
  12096.232  12096.220  0.500  1.122652  59.277427  19.289810  8.660521
  12099.221  12099.190  0.500  1.120177  59.235112  19.323798  8.678589
  12102.192  12102.170  0.500  1.118159  59.203803  19.352592  8.695535
  12105.196  12105.180  0.500  1.115761  59.161292  19.385137  8.715529
