# XDI/1.0 BlueSky/1.10.0 BMM/2023-1.0-py310-tiled
# Beamline.name: BMM (06BM) -- Beamline for Materials Measurement (NIST)
# Beamline.xray_source: NSLS-II three-pole wiggler
# Beamline.collimation: paraboloid mirror, 5 nm Rh on 30 nm Pt
# Beamline.focusing: not in use
# Beamline.harmonic_rejection: flat mirror, Pt stripe, pitch = 7.0 mrad relative to beam
# Beamline.software: Bluesky 1.10.0, Ophyd 1.7.0, DataBroker 2.0.0b13, Python 3.10.8, 2023-1.0-py310-tiled
# Detector.I0: 10 cm N2
# Detector.I1: 25 cm N2
# Detector.I2: 25 cm N2
# Element.symbol: As
# Element.edge: K
# Element.reference: As
# Element.reference_material: As2O3
# Facility.name: NSLS-II
# Facility.energy: 3.0
# Facility.current: 400.8
# Facility.mode: top-off
# Facility.GUP: 301027
# Facility.SAF: 310583
# Facility.cycle: 2023-2
# Mono.name: Si(111)
# Mono.d_spacing: 3.1351860
# Mono.encoder_resolution: 0.0000050 deg/ct
# Mono.angle_offset: 16.0754326 deg
# Mono.scan_mode: pseudo channel cut
# Mono.scan_type: step
# Mono.direction: forward in energy
# Sample.name: AsS
# Sample.prep: powder in PEG pellet
# Sample.x: 115.008 mm
# Sample.y: 114.461 mm
# Sample.SDD_position: 170.000 mm
# Scan.experimenters: Bruce Ravel
# Scan.edge_energy: 11866.7
# Scan.start_time: 2023-07-10T16:45:17
# Scan.end_time: 2023-07-10T16:53:08
# Scan.transient_id: 90296
# Scan.uid: 20ff5c99-f1b9-46b5-9d06-99beffb16e1d
# Scan.plot_hint: ln(I0/It)  --  ln($5/$6)
# Column.1: energy eV
# Column.2: requested_energy eV
# Column.3: measurement_time seconds
# Column.4: xmu 
# Column.5: I0 nA
# Column.6: It nA
# Column.7: Ir nA
# ///////////
# Powder + BN in plastic frame, courtesy of Sarah Nicolas
# -----------
# energy  requested_energy  measurement_time  xmu  I0  It  Ir
  11666.678  11666.700  0.500  0.020471  65.006535  63.689289  43.356053
  11676.727  11676.700  0.500  0.018760  64.918006  63.711483  43.410533
  11686.741  11686.700  0.500  0.017185  64.758053  63.654679  43.411324
  11696.748  11696.700  0.500  0.015430  64.638142  63.648436  43.444081
  11706.731  11706.700  0.500  0.013907  64.520583  63.629493  43.471512
  11716.743  11716.700  0.500  0.012081  64.395153  63.621862  43.505050
  11726.755  11726.700  0.500  0.010380  64.240493  63.577107  43.507577
  11736.784  11736.700  0.500  0.008891  63.963602  63.397391  43.423449
  11746.710  11746.700  0.500  0.007034  63.747565  63.300728  43.392927
  11756.732  11756.700  0.500  0.005536  63.724750  63.372970  43.473116
  11766.729  11766.700  0.500  0.004114  63.688701  63.427204  43.546441
  11776.749  11776.700  0.500  0.002411  63.380185  63.227566  43.441436
  11786.744  11786.700  0.500  0.001036  63.428340  63.362664  43.558846
  11796.750  11796.700  0.500  -0.000774  63.301350  63.350377  43.573872
  11806.755  11806.700  0.500  -0.002238  62.926132  63.067124  43.397086
  11816.748  11816.700  0.500  -0.003775  63.003690  63.241988  43.523399
  11826.757  11826.700  0.500  -0.005120  62.866639  63.189311  43.476676
  11836.735  11836.700  0.500  -0.006219  62.751519  63.142969  43.391628
  11838.704  11838.700  0.500  -0.006434  62.727203  63.132103  43.365555
  11840.693  11840.700  0.500  -0.006573  62.699973  63.113488  43.331517
  11842.682  11842.700  0.500  -0.006734  62.680609  63.104125  43.291508
  11844.678  11844.700  0.500  -0.006900  62.658464  63.092279  43.248338
  11846.675  11846.700  0.500  -0.006853  62.617351  63.047927  43.177692
  11848.696  11848.700  0.500  -0.006759  62.422353  62.845685  42.983790
  11850.682  11850.700  0.500  -0.006639  62.566354  62.983131  43.008103
  11852.675  11852.700  0.500  -0.006504  62.551943  62.960087  42.904726
  11854.680  11854.700  0.500  -0.005983  62.496954  62.871978  42.727432
  11856.680  11856.700  0.500  -0.005188  62.318734  62.642860  42.413898
  11856.956  11857.000  0.500  -0.005033  62.358296  62.672929  42.405441
  11857.249  11857.300  0.500  -0.004795  62.393457  62.693348  42.390168
  11857.555  11857.600  0.500  -0.004765  62.427284  62.725490  42.382944
  11857.861  11857.900  0.500  -0.004634  62.436058  62.726035  42.349548
  11858.149  11858.200  0.500  -0.004440  62.445743  62.723594  42.315162
  11858.467  11858.500  0.500  -0.004258  62.427948  62.694317  42.260107
  11858.749  11858.800  0.500  -0.004119  62.372509  62.629928  42.178273
  11859.055  11859.100  0.500  -0.003799  62.295829  62.532920  42.074484
  11859.361  11859.400  0.500  -0.003508  62.219227  62.437874  41.962029
  11859.654  11859.700  0.500  -0.003230  62.149733  62.350784  41.860106
  11859.967  11860.000  0.500  -0.002811  62.120011  62.294894  41.770899
  11860.260  11860.300  0.500  -0.002486  62.095714  62.250274  41.689622
  11860.566  11860.600  0.500  -0.002112  62.101678  62.232994  41.622263
  11860.879  11860.900  0.500  -0.001556  62.132973  62.229721  41.559940
  11861.179  11861.200  0.500  -0.001046  62.193598  62.258702  41.520012
  11861.491  11861.500  0.500  -0.000555  62.253553  62.288106  41.467811
  11861.779  11861.800  0.500  -0.000179  62.287199  62.298341  41.407094
  11862.097  11862.100  0.500  0.000409  62.279940  62.254447  41.298905
  11862.391  11862.400  0.500  0.001093  62.254171  62.186162  41.175624
  11862.685  11862.700  0.500  0.001797  62.211921  62.100255  41.033617
  11862.985  11863.000  0.500  0.002622  62.185933  62.023082  40.890457
  11863.279  11863.300  0.500  0.003464  62.179301  61.964290  40.757904
  11863.603  11863.600  0.500  0.004498  62.197409  61.918253  40.616798
  11863.885  11863.900  0.500  0.005495  62.241324  61.900219  40.495244
  11864.192  11864.200  0.500  0.006759  62.269582  61.850115  40.330368
  11864.486  11864.500  0.500  0.008189  62.304203  61.796049  40.168067
  11864.798  11864.800  0.500  0.009799  62.327225  61.719476  39.967540
  11865.092  11865.100  0.500  0.011568  62.348390  61.631308  39.745256
  11865.380  11865.400  0.500  0.013693  62.346953  61.499033  39.488465
  11865.680  11865.700  0.500  0.016066  62.349476  61.355772  39.205437
  11865.980  11866.000  0.500  0.018849  62.345090  61.180945  38.872073
  11866.281  11866.300  0.500  0.022222  62.347781  60.977554  38.512753
  11866.581  11866.600  0.500  0.026158  62.335837  60.726425  38.086994
  11866.875  11866.900  0.500  0.030766  62.334505  60.445951  37.626776
  11867.194  11867.200  0.500  0.036684  62.328367  60.083357  37.060398
  11867.488  11867.500  0.500  0.043345  62.324632  59.680856  36.470086
  11867.788  11867.800  0.500  0.051752  62.320006  59.176856  35.772831
  11868.082  11868.100  0.500  0.061724  62.308172  58.578540  34.975600
  11868.401  11868.400  0.500  0.073813  62.307889  57.874380  34.079431
  11868.702  11868.700  0.500  0.087995  62.296709  57.049161  33.074386
  11868.990  11869.000  0.500  0.103861  62.305175  56.158812  31.993670
  11869.308  11869.300  0.500  0.122526  62.288082  55.105196  30.721171
  11869.603  11869.600  0.500  0.140626  62.283077  54.112402  29.477966
  11869.903  11869.900  0.500  0.158742  62.268857  53.128822  28.141375
  11870.210  11870.200  0.500  0.174981  62.248485  52.255899  26.762890
  11870.498  11870.500  0.500  0.187312  62.210464  51.583973  25.417111
  11870.792  11870.800  0.500  0.195261  62.148850  51.124888  24.097179
  11871.093  11871.100  0.500  0.198591  62.107178  50.920746  22.872884
  11871.399  11871.400  0.500  0.197601  62.073937  50.943896  21.668344
  11871.694  11871.700  0.500  0.193402  62.082246  51.165109  20.627660
  11871.976  11872.000  0.500  0.186984  62.107599  51.515568  19.732457
  11872.301  11872.300  0.500  0.178480  62.154443  51.994726  18.918351
  11872.577  11872.600  0.500  0.170561  62.190395  52.438448  18.415953
  11872.884  11872.900  0.500  0.161933  62.209632  52.909161  18.080853
  11873.197  11873.200  0.500  0.152838  62.222589  53.403711  17.990159
  11873.485  11873.500  0.500  0.144798  62.234330  53.844985  18.106337
  11873.810  11873.800  0.500  0.136088  62.223234  54.306308  18.406737
  11874.099  11874.100  0.500  0.128290  62.216545  54.725542  18.797107
  11874.405  11874.400  0.500  0.120803  62.217112  55.137311  19.263789
  11874.706  11874.700  0.500  0.114377  62.220578  55.495900  19.724038
  11874.994  11875.000  0.500  0.109342  62.195961  55.753943  20.113831
  11875.320  11875.300  0.500  0.105386  62.196390  55.975341  20.486188
  11875.602  11875.600  0.500  0.103173  62.203289  56.105553  20.749977
  11875.915  11875.900  0.500  0.102088  62.192496  56.156730  20.975331
  11876.191  11876.200  0.500  0.102212  62.184005  56.142112  21.146310
  11876.510  11876.500  0.500  0.103278  62.180374  56.079005  21.317623
  11876.799  11876.800  0.500  0.104775  62.174941  55.990211  21.490768
  11877.081  11877.100  0.500  0.106501  62.165770  55.885437  21.677282
  11877.394  11877.400  0.500  0.108429  62.163402  55.775637  21.923407
  11877.689  11877.700  0.500  0.110046  62.149667  55.673222  22.185824
  11877.996  11878.000  0.500  0.111409  62.144463  55.592767  22.483625
  11878.285  11878.300  0.500  0.112602  62.150919  55.532243  22.789192
  11878.604  11878.600  0.500  0.113433  62.142699  55.478786  23.121633
  11878.893  11878.900  0.500  0.113557  62.149545  55.478024  23.419959
  11879.193  11879.200  0.500  0.113512  62.139249  55.471287  23.711472
  11879.500  11879.500  0.500  0.113028  62.122621  55.483307  23.963892
  11879.801  11879.800  0.500  0.112433  62.116213  55.510603  24.174705
  11880.102  11880.100  0.500  0.111613  62.103558  55.544817  24.338580
  11880.397  11880.400  0.500  0.110710  62.103130  55.594613  24.454430
  11880.717  11880.700  0.500  0.109638  62.098893  55.650429  24.525900
  11880.999  11881.000  0.500  0.108697  62.099566  55.703448  24.541773
  11881.319  11881.300  0.500  0.107662  62.088371  55.751067  24.491388
  11881.595  11881.600  0.500  0.106880  62.087214  55.793663  24.397313
  11881.902  11881.900  0.500  0.106165  62.081182  55.828127  24.242589
  11882.197  11882.200  0.500  0.105642  62.072046  55.849127  24.061919
  11882.504  11882.500  0.500  0.105138  62.065800  55.871673  23.859150
  11882.793  11882.800  0.500  0.104909  62.061206  55.880284  23.662787
  11883.100  11883.100  0.500  0.104615  62.037803  55.875675  23.474514
  11883.389  11883.400  0.500  0.104482  62.037571  55.882875  23.333896
  11883.678  11883.700  0.500  0.104488  62.009737  55.857452  23.221493
  11883.998  11884.000  0.500  0.104236  61.959592  55.826350  23.145683
  11884.287  11884.300  0.500  0.104082  61.865728  55.750395  23.103309
  11884.606  11884.600  0.500  0.103970  61.710946  55.617160  23.077052
  11884.889  11884.900  0.500  0.103897  61.563592  55.488387  23.073104
  11885.209  11885.200  0.500  0.103935  61.420815  55.357618  23.101773
  11885.498  11885.500  0.500  0.104032  61.349952  55.288333  23.159224
  11885.811  11885.800  0.500  0.103907  61.330777  55.277995  23.254248
  11886.100  11886.100  0.500  0.103785  61.368681  55.318883  23.355840
  11886.408  11886.400  0.500  0.103638  61.446888  55.397518  23.471250
  11886.703  11886.700  0.500  0.103467  61.550861  55.500789  23.577576
  11887.004  11887.000  0.500  0.103150  61.664063  55.620482  23.682828
  11887.299  11887.300  0.500  0.102878  61.777384  55.737855  23.777447
  11887.619  11887.600  0.500  0.102496  61.849806  55.824523  23.856841
  11887.902  11887.900  0.500  0.102172  61.889382  55.878327  23.909134
  11888.216  11888.200  0.500  0.101857  61.917153  55.920990  23.959466
  11888.498  11888.500  0.500  0.101555  61.936364  55.955287  23.998370
  11888.806  11888.800  0.500  0.101246  61.924618  55.961927  24.036044
  11889.101  11889.100  0.500  0.100985  61.923954  55.975951  24.078108
  11889.390  11889.400  0.500  0.100767  61.925375  55.989450  24.124129
  11889.698  11889.700  0.500  0.100407  61.914874  56.000077  24.179835
  11889.993  11890.000  0.500  0.100218  61.918354  56.013837  24.248694
  11890.289  11890.300  0.500  0.099928  61.918046  56.029775  24.322150
  11890.584  11890.600  0.500  0.099708  61.911065  56.035790  24.399282
  11890.885  11890.900  0.500  0.099577  61.907277  56.039693  24.477831
  11891.187  11891.200  0.500  0.099325  61.903681  56.050563  24.557555
  11891.507  11891.500  0.500  0.098983  61.898615  56.065195  24.632711
  11891.704  11891.700  0.500  0.098958  61.897932  56.065954  24.669890
  11892.719  11892.690  0.500  0.098030  61.882051  56.103628  24.834338
  11893.711  11893.690  0.500  0.097281  61.870093  56.134818  25.009837
  11894.733  11894.710  0.500  0.096504  61.863273  56.172214  25.301861
  11895.767  11895.760  0.500  0.095481  61.836835  56.205720  25.599454
  11896.839  11896.820  0.500  0.094432  61.830940  56.259348  25.782267
  11897.923  11897.900  0.500  0.093718  61.800568  56.271855  25.825254
  11899.038  11899.000  0.500  0.092919  61.779201  56.297373  25.844499
  11900.147  11900.120  0.500  0.092485  61.738857  56.285009  25.868180
  11901.282  11901.260  0.500  0.091858  61.509072  56.110722  25.835961
  11902.410  11902.410  0.500  0.091922  61.084577  55.719890  25.698420
  11903.594  11903.590  0.500  0.092111  61.351331  55.952663  25.867338
  11904.796  11904.780  0.500  0.091705  61.669975  56.266115  26.104847
  11906.011  11906.000  0.500  0.091644  61.687250  56.285279  26.207905
  11907.245  11907.230  0.500  0.091695  61.685898  56.281198  26.274188
  11908.492  11908.480  0.500  0.091826  61.675419  56.264261  26.319823
  11909.757  11909.750  0.500  0.091921  61.652022  56.237586  26.363968
  11911.060  11911.040  0.500  0.091846  61.640650  56.231399  26.369212
  11912.375  11912.350  0.500  0.091728  61.618412  56.217744  26.302242
  11913.710  11913.680  0.500  0.091601  61.598692  56.206903  26.182740
  11915.056  11915.030  0.500  0.091250  61.555880  56.187578  26.025204
  11916.416  11916.400  0.500  0.090738  61.339289  56.018536  25.806731
  11917.800  11917.780  0.500  0.091034  60.878094  55.580900  25.496477
  11919.216  11919.190  0.500  0.091371  61.276975  55.926212  25.578712
  11920.639  11920.610  0.500  0.091302  61.497047  56.130932  25.626574
  11922.067  11922.050  0.500  0.091637  61.494127  56.109470  25.578906
  11923.521  11923.510  0.500  0.092056  61.481255  56.074252  25.504015
  11925.000  11924.990  0.500  0.092447  61.461258  56.034057  25.393904
  11926.498  11926.490  0.500  0.093083  61.446128  55.984689  25.264649
  11928.021  11928.010  0.500  0.093842  61.425333  55.923247  25.127990
  11929.564  11929.550  0.500  0.094374  61.403589  55.873753  25.005544
  11931.106  11931.110  0.500  0.094788  61.379875  55.829052  24.922431
  11932.680  11932.680  0.500  0.095161  61.346459  55.777813  24.863373
  11934.292  11934.280  0.500  0.094902  61.310026  55.759151  24.816940
  11935.910  11935.890  0.500  0.095340  60.878319  55.342272  24.578932
  11937.528  11937.530  0.500  0.094973  61.378897  55.817838  24.770678
  11939.178  11939.180  0.500  0.094267  61.444661  55.917068  24.810264
  11940.872  11940.850  0.500  0.093373  61.433043  55.956503  24.816983
  11942.561  11942.540  0.500  0.092368  61.406421  55.988490  24.804660
  11944.256  11944.250  0.500  0.091299  61.394881  56.037836  24.790621
  11945.976  11945.980  0.500  0.090127  61.364772  56.076044  24.779172
  11947.734  11947.730  0.500  0.088885  61.345658  56.128252  24.782987
  11949.505  11949.490  0.500  0.087810  61.323354  56.168189  24.814309
  11951.301  11951.280  0.500  0.086657  61.294220  56.206278  24.877010
  11953.080  11953.080  0.500  0.085892  61.275089  56.231730  24.956918
  11954.908  11954.910  0.500  0.084866  61.240718  56.257863  25.033122
  11956.756  11956.750  0.500  0.084339  61.220542  56.268976  25.087374
  11958.605  11958.610  0.500  0.083817  61.191774  56.271923  25.120439
  11960.485  11960.490  0.500  0.083484  61.169410  56.270116  25.154738
  11962.403  11962.390  0.500  0.083352  61.145199  56.255236  25.194438
  11964.322  11964.310  0.500  0.083099  61.118807  56.245172  25.233176
  11966.241  11966.250  0.500  0.083085  61.082789  56.212814  25.263674
  11968.211  11968.210  0.500  0.083057  61.062440  56.195661  25.290115
  11970.181  11970.180  0.500  0.082998  61.035102  56.173835  25.310786
  11972.153  11972.180  0.500  0.082900  61.011381  56.157520  25.336508
  11974.168  11974.190  0.500  0.082831  60.976170  56.128971  25.358143
  11976.178  11976.220  0.500  0.082725  60.952711  56.113313  25.378246
  11978.289  11978.280  0.500  0.082697  60.917068  56.082095  25.398510
  11980.406  11980.350  0.500  0.082549  60.876808  56.053303  25.421395
  11982.406  11982.440  0.500  0.082456  60.848389  56.032363  25.452848
  11984.525  11984.550  0.500  0.082355  60.825642  56.017064  25.498361
  11986.782  11986.680  0.500  0.082324  60.781574  55.978219  25.532895
  11988.903  11988.820  0.500  0.082283  60.748091  55.949655  25.557998
  11991.031  11990.990  0.500  0.082198  60.714787  55.923741  25.573488
  11993.178  11993.180  0.500  0.082231  60.683743  55.893310  25.577840
  11995.363  11995.380  0.500  0.082165  60.666963  55.881546  25.584118
  11997.581  11997.600  0.500  0.082141  60.633822  55.852359  25.580569
  11999.850  11999.850  0.500  0.081888  60.588251  55.824527  25.562725
  12002.119  12002.110  0.500  0.081814  60.564626  55.806878  25.542073
  12004.390  12004.390  0.500  0.081510  60.531841  55.793630  25.512262
  12006.680  12006.690  0.500  0.081091  60.503586  55.790948  25.479065
  12008.996  12009.010  0.500  0.080606  60.477740  55.794167  25.443413
  12011.351  12011.350  0.500  0.079957  60.445479  55.800628  25.404886
  12013.694  12013.700  0.500  0.079152  60.425468  55.827043  25.380908
  12016.076  12016.080  0.500  0.078270  60.390703  55.844149  25.357277
  12018.458  12018.470  0.500  0.077236  60.366577  55.879636  25.347343
  12020.886  12020.890  0.500  0.076286  60.333041  55.901645  25.336654
  12023.333  12023.320  0.500  0.075230  60.300208  55.930276  25.329081
  12025.769  12025.770  0.500  0.074395  60.269570  55.948520  25.318631
  12028.244  12028.250  0.500  0.073494  60.236238  55.968024  25.313063
  12030.733  12030.740  0.500  0.072855  60.196637  55.966967  25.303719
  12033.247  12033.250  0.500  0.072363  60.170139  55.969835  25.294215
  12035.757  12035.770  0.500  0.071900  60.127258  55.955848  25.284111
  12038.318  12038.320  0.500  0.071570  60.098074  55.947182  25.278643
  12040.911  12040.890  0.500  0.071202  60.053021  55.925812  25.282020
  12043.462  12043.470  0.500  0.070916  60.019328  55.910413  25.286086
  12046.076  12046.080  0.500  0.070803  59.855254  55.763893  25.253714
  12048.718  12048.700  0.500  0.071028  58.235161  54.242324  24.587088
  12051.354  12051.350  0.500  0.070904  59.790673  55.698072  25.277506
  12054.023  12054.010  0.500  0.070803  59.838444  55.748193  25.329488
  12056.686  12056.690  0.500  0.070655  59.812782  55.732554  25.352437
  12059.389  12059.390  0.500  0.070532  59.783018  55.711672  25.370399
  12062.113  12062.110  0.500  0.070172  59.745858  55.697060  25.381322
  12064.856  12064.850  0.500  0.070055  59.720699  55.680158  25.395125
  12067.607  12067.600  0.500  0.069580  59.678068  55.666833  25.397711
  12070.372  12070.380  0.500  0.069203  59.638905  55.651280  25.396027
  12073.189  12073.170  0.500  0.068663  59.605344  55.650036  25.403353
  12076.001  12075.990  0.500  0.068166  59.566620  55.641505  25.406309
  12078.821  12078.820  0.500  0.067576  59.528957  55.639128  25.419093
  12081.661  12081.670  0.500  0.067024  59.488800  55.632325  25.432904
  12084.553  12084.550  0.500  0.066407  59.449209  55.629611  25.452448
  12087.447  12087.440  0.500  0.065778  59.412664  55.630369  25.470291
  12090.336  12090.350  0.500  0.065192  59.360468  55.614107  25.479755
  12093.264  12093.270  0.500  0.064764  59.189968  55.478099  25.436177
  12096.226  12096.220  0.500  0.064086  59.298507  55.617502  25.513354
