# XDI/1.0 BlueSky/1.10.0 BMM/2023-1.0-py310-tiled
# Beamline.name: BMM (06BM) -- Beamline for Materials Measurement (NIST)
# Beamline.xray_source: NSLS-II three-pole wiggler
# Beamline.collimation: paraboloid mirror, 5 nm Rh on 30 nm Pt
# Beamline.focusing: not in use
# Beamline.harmonic_rejection: flat mirror, Pt stripe, pitch = 7.0 mrad relative to beam
# Beamline.software: Bluesky 1.10.0, Ophyd 1.7.0, DataBroker 2.0.0b13, Python 3.10.8, 2023-1.0-py310-tiled
# Detector.I0: 10 cm N2
# Detector.I1: 25 cm N2
# Detector.I2: 25 cm N2
# Element.symbol: As
# Element.edge: K
# Element.reference: As
# Element.reference_material: As2O3
# Facility.name: NSLS-II
# Facility.energy: 3.0
# Facility.current: 399.7
# Facility.mode: top-off
# Facility.GUP: 301027
# Facility.SAF: 310583
# Facility.cycle: 2023-2
# Mono.name: Si(111)
# Mono.d_spacing: 3.1351860
# Mono.encoder_resolution: 0.0000050 deg/ct
# Mono.angle_offset: 16.0754326 deg
# Mono.scan_mode: pseudo channel cut
# Mono.scan_type: step
# Mono.direction: forward in energy
# Sample.name: C4H12AsI
# Sample.prep: powder in PEG pellet
# Sample.x: 115.008 mm
# Sample.y: 114.461 mm
# Sample.SDD_position: 170.000 mm
# Scan.experimenters: Bruce Ravel
# Scan.edge_energy: 11866.7
# Scan.start_time: 2023-07-10T17:02:20
# Scan.end_time: 2023-07-10T17:10:10
# Scan.transient_id: 90306
# Scan.uid: f37bdedf-bfbd-4e35-8347-3f3cc45809e7
# Scan.plot_hint: ln(I0/It)  --  ln($5/$6)
# Column.1: energy eV
# Column.2: requested_energy eV
# Column.3: measurement_time seconds
# Column.4: xmu 
# Column.5: I0 nA
# Column.6: It nA
# Column.7: Ir nA
# ///////////
# sample courtesy Evan Jahrman, NIST
# -----------
# energy  requested_energy  measurement_time  xmu  I0  It  Ir
  11666.701  11666.700  0.500  0.398612  64.930611  43.584751  29.539850
  11676.721  11676.700  0.500  0.396272  64.831755  43.620327  29.586571
  11686.770  11686.700  0.500  0.393989  64.688900  43.623693  29.615869
  11696.754  11696.700  0.500  0.391879  64.558825  43.627954  29.649457
  11706.743  11706.700  0.500  0.389508  64.436147  43.648412  29.689855
  11716.731  11716.700  0.500  0.387158  64.306711  43.663211  29.724983
  11726.737  11726.700  0.500  0.384842  64.153967  43.660507  29.747749
  11736.778  11736.700  0.500  0.382986  63.858455  43.540129  29.692193
  11746.704  11746.700  0.500  0.380207  63.668368  43.531345  29.710932
  11756.738  11756.700  0.500  0.378146  63.638943  43.600989  29.782009
  11766.753  11766.700  0.500  0.376139  63.603486  43.664223  29.845836
  11776.749  11776.700  0.500  0.373599  63.283801  43.555246  29.795817
  11786.732  11786.700  0.500  0.371831  63.349540  43.677639  29.895634
  11796.768  11796.700  0.500  0.369805  63.216807  43.674535  29.913390
  11806.695  11806.700  0.500  0.368080  62.833836  43.484905  29.793382
  11816.705  11816.700  0.500  0.365869  62.913150  43.636177  29.903558
  11826.720  11826.700  0.500  0.364182  62.771553  43.611472  29.879034
  11836.704  11836.700  0.500  0.362875  62.669883  43.597778  29.827958
  11838.668  11838.700  0.500  0.362780  62.636114  43.578419  29.805794
  11840.662  11840.700  0.500  0.362610  62.611523  43.568702  29.779647
  11842.664  11842.700  0.500  0.362488  62.588072  43.557730  29.753430
  11844.666  11844.700  0.500  0.362461  62.562741  43.541238  29.716393
  11846.662  11846.700  0.500  0.362459  62.530302  43.518746  29.669240
  11848.660  11848.700  0.500  0.362479  62.335771  43.382510  29.540496
  11850.664  11850.700  0.500  0.363073  62.468920  43.449376  29.538286
  11852.669  11852.700  0.500  0.363376  62.452023  43.424444  29.456779
  11854.662  11854.700  0.500  0.364026  62.404018  43.362884  29.330707
  11856.668  11856.700  0.500  0.365110  62.223280  43.190431  29.104119
  11856.962  11857.000  0.500  0.365397  62.261452  43.204523  29.095010
  11857.243  11857.300  0.500  0.365597  62.290199  43.215841  29.082995
  11857.561  11857.600  0.500  0.365791  62.325965  43.232277  29.068696
  11857.849  11857.900  0.500  0.365918  62.345690  43.240463  29.053903
  11858.167  11858.200  0.500  0.366198  62.350831  43.231903  29.023750
  11858.455  11858.500  0.500  0.366208  62.326877  43.214860  28.984586
  11858.767  11858.800  0.500  0.366336  62.273811  43.172571  28.927817
  11859.061  11859.100  0.500  0.366617  62.241354  43.137948  28.881359
  11859.367  11859.400  0.500  0.366820  62.328359  43.189460  28.880003
  11859.660  11859.700  0.500  0.367311  62.258090  43.119605  28.801294
  11859.954  11860.000  0.500  0.367782  62.214381  43.069036  28.733317
  11860.266  11860.300  0.500  0.368313  62.188442  43.028229  28.666490
  11860.554  11860.600  0.500  0.368858  62.196620  43.010432  28.621444
  11860.866  11860.900  0.500  0.369390  62.239761  43.017384  28.578130
  11861.148  11861.200  0.500  0.369962  62.281303  43.021461  28.539361
  11861.460  11861.500  0.500  0.370515  62.339395  43.037800  28.500785
  11861.760  11861.800  0.500  0.371013  62.379132  43.043804  28.455550
  11862.054  11862.100  0.500  0.371374  62.383134  43.031014  28.395645
  11862.366  11862.400  0.500  0.371754  62.349054  42.991177  28.310461
  11862.660  11862.700  0.500  0.372407  62.306871  42.934041  28.218725
  11862.973  11863.000  0.500  0.373051  62.280310  42.888077  28.119272
  11863.273  11863.300  0.500  0.373965  62.272071  42.843240  28.023243
  11863.579  11863.600  0.500  0.375027  62.293776  42.812707  27.926560
  11863.879  11863.900  0.500  0.375931  62.328633  42.797933  27.833776
  11864.179  11864.200  0.500  0.377006  62.379275  42.786679  27.742056
  11864.498  11864.500  0.500  0.377974  62.406595  42.764010  27.622474
  11864.786  11864.800  0.500  0.379083  62.428322  42.731498  27.500859
  11865.086  11865.100  0.500  0.380489  62.449804  42.686114  27.357522
  11865.380  11865.400  0.500  0.381625  62.446978  42.635753  27.194423
  11865.699  11865.700  0.500  0.383273  62.456586  42.572076  27.005741
  11865.987  11866.000  0.500  0.384924  62.444811  42.493854  26.810344
  11866.293  11866.300  0.500  0.386969  62.435644  42.400819  26.577661
  11866.581  11866.600  0.500  0.388967  62.432520  42.314070  26.337059
  11866.893  11866.900  0.500  0.391495  62.434292  42.208414  26.052100
  11867.188  11867.200  0.500  0.394205  62.425948  42.088557  25.744611
  11867.470  11867.500  0.500  0.397141  62.416389  41.958730  25.410515
  11867.788  11867.800  0.500  0.400875  62.414454  41.801069  25.009413
  11868.070  11868.100  0.500  0.404548  62.402110  41.639594  24.603455
  11868.383  11868.400  0.500  0.409167  62.401287  41.447151  24.112939
  11868.671  11868.700  0.500  0.414212  62.395089  41.234485  23.593958
  11868.990  11869.000  0.500  0.420744  62.389151  40.962109  22.954424
  11869.290  11869.300  0.500  0.427753  62.384827  40.673179  22.276584
  11869.590  11869.600  0.500  0.436311  62.374293  40.319784  21.509547
  11869.891  11869.900  0.500  0.446848  62.359859  39.887926  20.617394
  11870.191  11870.200  0.500  0.459169  62.334365  39.383384  19.662247
  11870.498  11870.500  0.500  0.475475  62.294948  38.721883  18.536399
  11870.805  11870.800  0.500  0.494709  62.238189  37.949627  17.381663
  11871.105  11871.100  0.500  0.519589  62.190903  36.988964  16.125947
  11871.406  11871.400  0.500  0.552047  62.173473  35.797617  14.793148
  11871.700  11871.700  0.500  0.590078  62.176504  34.463441  13.530320
  11872.013  11872.000  0.500  0.641938  62.217705  32.743410  12.163069
  11872.301  11872.300  0.500  0.698254  62.252415  30.967643  10.978000
  11872.595  11872.600  0.500  0.762883  62.297503  29.050574  9.881393
  11872.896  11872.900  0.500  0.837225  62.306978  26.973330  8.858551
  11873.184  11873.200  0.500  0.907146  62.333241  25.162347  8.079343
  11873.491  11873.500  0.500  0.976112  62.337873  23.487239  7.447826
  11873.779  11873.800  0.500  1.025683  62.330295  22.348631  7.083903
  11874.086  11874.100  0.500  1.058635  62.328083  21.623426  6.921762
  11874.381  11874.400  0.500  1.066997  62.320344  21.440699  6.973846
  11874.688  11874.700  0.500  1.053858  62.316374  21.722891  7.200753
  11875.007  11875.000  0.500  1.021558  62.313000  22.434780  7.590980
  11875.283  11875.300  0.500  0.984752  62.305965  23.273264  8.000724
  11875.596  11875.600  0.500  0.939723  62.295502  24.341087  8.496241
  11875.897  11875.900  0.500  0.898508  62.304003  25.368745  8.964259
  11876.203  11876.200  0.500  0.861188  62.286941  26.326171  9.408081
  11876.510  11876.500  0.500  0.831357  62.286332  27.123076  9.795704
  11876.799  11876.800  0.500  0.808337  62.279082  27.751454  10.128889
  11877.112  11877.100  0.500  0.790241  62.269195  28.253729  10.442786
  11877.413  11877.400  0.500  0.779092  62.266581  28.569303  10.695869
  11877.714  11877.700  0.500  0.771416  62.259684  28.786268  10.934463
  11878.002  11878.000  0.500  0.766918  62.255888  28.914262  11.146902
  11878.303  11878.300  0.500  0.764618  62.251864  28.978966  11.348500
  11878.604  11878.600  0.500  0.763849  62.251027  29.000881  11.529177
  11878.880  11878.900  0.500  0.763870  62.243850  28.996930  11.687109
  11879.212  11879.200  0.500  0.764243  62.234795  28.981901  11.846228
  11879.476  11879.500  0.500  0.764593  62.232144  28.970524  11.969447
  11879.783  11879.800  0.500  0.764741  62.228141  28.964356  12.084148
  11880.090  11880.100  0.500  0.764771  62.222578  28.960900  12.170048
  11880.391  11880.400  0.500  0.765185  62.212257  28.944107  12.231759
  11880.692  11880.700  0.500  0.766005  62.216490  28.922370  12.256653
  11880.999  11881.000  0.500  0.767590  62.202614  28.870119  12.245173
  11881.306  11881.300  0.500  0.770472  62.199119  28.785420  12.186651
  11881.601  11881.600  0.500  0.774248  62.195216  28.675133  12.089764
  11881.908  11881.900  0.500  0.779147  62.185060  28.530327  11.952046
  11882.197  11882.200  0.500  0.784822  62.182259  28.367598  11.789604
  11882.517  11882.500  0.500  0.791544  62.166476  28.170392  11.594092
  11882.799  11882.800  0.500  0.797440  62.159981  28.001865  11.421410
  11883.107  11883.100  0.500  0.803536  62.146192  27.825506  11.244339
  11883.395  11883.400  0.500  0.808137  62.138094  27.694178  11.107066
  11883.709  11883.700  0.500  0.811820  62.108534  27.579247  10.990060
  11883.998  11884.000  0.500  0.813466  62.070397  27.516968  10.927238
  11884.305  11884.300  0.500  0.813124  61.970754  27.482208  10.893875
  11884.588  11884.600  0.500  0.811227  61.825745  27.469948  10.891671
  11884.907  11884.900  0.500  0.807992  61.659990  27.485079  10.919139
  11885.190  11885.200  0.500  0.804500  61.533152  27.524478  10.967225
  11885.485  11885.500  0.500  0.800468  61.449010  27.597907  11.042026
  11885.793  11885.800  0.500  0.796024  61.426962  27.710874  11.136436
  11886.094  11886.100  0.500  0.791454  61.466480  27.855712  11.243946
  11886.389  11886.400  0.500  0.786749  61.543726  28.022250  11.355975
  11886.684  11886.700  0.500  0.782277  61.643411  28.193445  11.464837
  11887.004  11887.000  0.500  0.777723  61.770479  28.380504  11.572522
  11887.293  11887.300  0.500  0.773079  61.882475  28.564303  11.677949
  11887.600  11887.600  0.500  0.768285  61.950179  28.732982  11.767107
  11887.896  11887.900  0.500  0.763847  61.997544  28.882836  11.848804
  11888.209  11888.200  0.500  0.759172  62.012450  29.025152  11.925863
  11888.511  11888.500  0.500  0.754789  62.020566  29.156474  11.996705
  11888.818  11888.800  0.500  0.750567  62.028232  29.283441  12.066271
  11889.101  11889.100  0.500  0.746712  62.022470  29.393835  12.130639
  11889.409  11889.400  0.500  0.742794  62.030034  29.512817  12.203880
  11889.704  11889.700  0.500  0.739112  62.031401  29.622341  12.274623
  11890.006  11890.000  0.500  0.735536  62.020240  29.723116  12.351578
  11890.301  11890.300  0.500  0.731981  62.015061  29.826481  12.430938
  11890.615  11890.600  0.500  0.728690  62.009964  29.922346  12.513629
  11890.898  11890.900  0.500  0.725249  62.003042  30.022118  12.595687
  11891.199  11891.200  0.500  0.722312  62.002883  30.110352  12.675917
  11891.495  11891.500  0.500  0.719145  62.002306  30.205565  12.754163
  11891.679  11891.700  0.500  0.717235  61.996076  30.260294  12.799280
  11892.707  11892.690  0.500  0.707417  61.979878  30.550869  13.014468
  11893.698  11893.690  0.500  0.698286  61.969510  30.825936  13.222982
  11894.726  11894.710  0.500  0.689956  61.951520  31.074762  13.481312
  11895.786  11895.760  0.500  0.682680  61.934359  31.293010  13.751434
  11896.839  11896.820  0.500  0.675941  61.918456  31.496524  13.943158
  11897.905  11897.900  0.500  0.668533  61.894692  31.718550  14.067505
  11898.995  11899.000  0.500  0.661021  61.874391  31.947223  14.174175
  11900.141  11900.120  0.500  0.653687  61.836715  32.162797  14.285702
  11901.288  11901.260  0.500  0.647337  61.607823  32.247851  14.352025
  11902.447  11902.410  0.500  0.643671  61.171483  32.137060  14.329711
  11903.624  11903.590  0.500  0.642657  61.443696  32.312824  14.444267
  11904.796  11904.780  0.500  0.641012  61.764771  32.535153  14.594976
  11906.005  11906.000  0.500  0.640858  61.796970  32.557112  14.657998
  11907.258  11907.230  0.500  0.641963  61.786966  32.515895  14.681089
  11908.511  11908.480  0.500  0.643595  61.765027  32.451344  14.682507
  11909.788  11909.750  0.500  0.645671  61.748282  32.375264  14.682305
  11911.048  11911.040  0.500  0.646952  61.739887  32.329443  14.665029
  11912.351  11912.350  0.500  0.647721  61.716867  32.292538  14.616063
  11913.697  11913.680  0.500  0.648361  61.690142  32.257896  14.534992
  11915.038  11915.030  0.500  0.649193  61.657971  32.214270  14.426878
  11916.428  11916.400  0.500  0.650834  61.432512  32.043853  14.265474
  11917.788  11917.780  0.500  0.655144  60.981717  31.671899  14.035161
  11919.204  11919.190  0.500  0.661111  61.378725  31.688436  13.995761
  11920.626  11920.610  0.500  0.666014  61.602760  31.648571  13.947346
  11922.074  11922.050  0.500  0.671797  61.595316  31.462274  13.845145
  11923.527  11923.510  0.500  0.676992  61.581948  31.292462  13.731465
  11924.988  11924.990  0.500  0.681278  61.566305  31.150708  13.619430
  11926.498  11926.490  0.500  0.684344  61.545122  31.044655  13.510857
  11928.021  11928.010  0.500  0.686360  61.527852  30.973446  13.412932
  11929.564  11929.550  0.500  0.687414  61.495154  30.924372  13.335144
  11931.131  11931.110  0.500  0.688020  61.474608  30.895315  13.278949
  11932.686  11932.680  0.500  0.688788  61.449459  30.858956  13.244076
  11934.292  11934.280  0.500  0.688662  61.199139  30.737110  13.167506
  11935.903  11935.890  0.500  0.690111  60.763070  30.473918  13.027599
  11937.553  11937.530  0.500  0.690525  61.275448  30.718161  13.118540
  11939.191  11939.180  0.500  0.690069  61.339238  30.764156  13.136819
  11940.841  11940.850  0.500  0.689845  61.333069  30.767979  13.134953
  11942.536  11942.540  0.500  0.689682  61.307204  30.760002  13.118254
  11944.268  11944.250  0.500  0.689257  61.283218  30.761030  13.099546
  11945.994  11945.980  0.500  0.688447  61.262757  30.775685  13.088940
  11947.728  11947.730  0.500  0.687178  61.238025  30.802316  13.093456
  11949.493  11949.490  0.500  0.685493  61.215690  30.843015  13.116983
  11951.295  11951.280  0.500  0.683576  61.192589  30.890540  13.165565
  11953.098  11953.080  0.500  0.681386  61.169891  30.946772  13.228848
  11954.902  11954.910  0.500  0.678954  61.137582  31.005754  13.295055
  11956.744  11956.750  0.500  0.676501  61.112475  31.069146  13.350082
  11958.623  11958.610  0.500  0.673927  61.086878  31.136159  13.401039
  11960.503  11960.490  0.500  0.671176  61.055110  31.205691  13.449977
  11962.390  11962.390  0.500  0.668858  61.034550  31.267586  13.500753
  11964.303  11964.310  0.500  0.666585  61.006093  31.324121  13.554398
  11966.260  11966.250  0.500  0.664345  60.972828  31.377252  13.601133
  11968.205  11968.210  0.500  0.662509  60.943974  31.420039  13.638376
  11970.169  11970.180  0.500  0.660807  60.922720  31.462579  13.675017
  11972.190  11972.180  0.500  0.659360  60.892297  31.492419  13.706328
  11974.212  11974.190  0.500  0.658261  60.860110  31.510388  13.734143
  11976.222  11976.220  0.500  0.657456  60.834620  31.522540  13.756074
  11978.245  11978.280  0.500  0.656763  60.799183  31.526037  13.775113
  11980.325  11980.350  0.500  0.656327  60.766074  31.522588  13.794376
  11982.425  11982.440  0.500  0.655815  60.737799  31.524078  13.819383
  11984.519  11984.550  0.500  0.655622  60.717150  31.519416  13.844802
  11986.657  11986.680  0.500  0.655250  60.671401  31.507411  13.869944
  11988.884  11988.820  0.500  0.655269  60.636687  31.488780  13.885692
  11990.949  11990.990  0.500  0.655254  60.611035  31.475919  13.894543
  11993.222  11993.180  0.500  0.655303  60.580163  31.458365  13.896344
  11995.476  11995.380  0.500  0.655263  60.541729  31.439640  13.894165
  11997.650  11997.600  0.500  0.655587  60.508950  31.412442  13.887193
  11999.856  11999.850  0.500  0.655812  60.479806  31.390262  13.874377
  12002.107  12002.110  0.500  0.656217  60.464618  31.369656  13.859052
  12004.396  12004.390  0.500  0.656281  60.425288  31.347259  13.830628
  12006.674  12006.690  0.500  0.656496  60.394969  31.324778  13.804930
  12009.002  12009.010  0.500  0.656557  60.362656  31.306125  13.773502
  12011.357  12011.350  0.500  0.656807  60.339575  31.286338  13.745546
  12013.719  12013.700  0.500  0.656554  60.416861  31.334342  13.743228
  12016.088  12016.080  0.500  0.656649  60.425343  31.335757  13.726844
  12018.458  12018.470  0.500  0.656341  60.397145  31.330767  13.711701
  12020.892  12020.890  0.500  0.656081  60.359028  31.319135  13.693765
  12023.321  12023.320  0.500  0.655842  60.328101  31.310569  13.680201
  12025.788  12025.770  0.500  0.655504  60.296535  31.304789  13.668511
  12028.263  12028.250  0.500  0.655029  60.265065  31.303291  13.658353
  12030.739  12030.740  0.500  0.654551  60.229398  31.299733  13.653020
  12033.241  12033.250  0.500  0.654188  60.203581  31.297661  13.646177
  12035.775  12035.770  0.500  0.653459  60.154893  31.295176  13.639847
  12038.330  12038.320  0.500  0.652920  60.120741  31.294275  13.639918
  12040.905  12040.890  0.500  0.652468  60.083183  31.288849  13.646930
  12043.468  12043.470  0.500  0.651641  60.047818  31.296318  13.656493
  12046.076  12046.080  0.500  0.650793  59.894243  31.242745  13.650152
  12048.711  12048.700  0.500  0.650175  58.264557  30.411433  13.303448
  12051.360  12051.350  0.500  0.649084  59.822601  31.258766  13.688387
  12054.016  12054.010  0.500  0.647689  59.866422  31.325324  13.736738
  12056.686  12056.690  0.500  0.646611  59.847515  31.349218  13.763673
  12059.408  12059.390  0.500  0.645296  59.820398  31.376235  13.788845
  12062.113  12062.110  0.500  0.643861  59.780378  31.400275  13.811295
  12064.875  12064.850  0.500  0.642700  59.746018  31.418683  13.831948
  12067.588  12067.600  0.500  0.641252  59.709427  31.444934  13.848183
  12070.391  12070.380  0.500  0.640018  59.676560  31.466442  13.861425
  12073.176  12073.170  0.500  0.638683  59.634784  31.486411  13.872244
  12076.014  12075.990  0.500  0.637674  59.595333  31.497360  13.881245
  12078.827  12078.820  0.500  0.636705  59.557160  31.507691  13.896090
  12081.667  12081.670  0.500  0.635843  59.522082  31.516295  13.910795
  12084.566  12084.550  0.500  0.634866  59.475734  31.522530  13.926440
  12087.441  12087.440  0.500  0.634155  59.437279  31.524565  13.937443
  12090.368  12090.350  0.500  0.633474  59.388483  31.520121  13.947985
  12093.264  12093.270  0.500  0.633222  59.221152  31.439230  13.920516
  12096.219  12096.220  0.500  0.632233  59.329578  31.527958  13.966324
  12099.195  12099.190  0.500  0.631854  59.292084  31.519998  13.969421
