# XDI/1.0 BlueSky/1.10.0 BMM/2023-1.0-py310-tiled
# Beamline.name: BMM (06BM) -- Beamline for Materials Measurement (NIST)
# Beamline.xray_source: NSLS-II three-pole wiggler
# Beamline.collimation: paraboloid mirror, 5 nm Rh on 30 nm Pt
# Beamline.focusing: not in use
# Beamline.harmonic_rejection: flat mirror, Pt stripe, pitch = 7.0 mrad relative to beam
# Beamline.software: Bluesky 1.10.0, Ophyd 1.7.0, DataBroker 2.0.0b13, Python 3.10.8, 2023-1.0-py310-tiled
# Detector.I0: 10 cm N2
# Detector.I1: 25 cm N2
# Detector.I2: 25 cm N2
# Element.symbol: Re
# Element.edge: L1
# Element.reference: Re
# Element.reference_material: ReO2
# Facility.name: NSLS-II
# Facility.energy: 3.0
# Facility.current: 400.6
# Facility.mode: top-off
# Facility.GUP: 301027
# Facility.SAF: 310583
# Facility.cycle: 2023-2
# Mono.name: Si(111)
# Mono.d_spacing: 3.1351860
# Mono.encoder_resolution: 0.0000050 deg/ct
# Mono.angle_offset: 16.0754326 deg
# Mono.scan_mode: pseudo channel cut
# Mono.scan_type: step
# Mono.direction: forward in energy
# Sample.name: ReO3, Rhenium trioxide
# Sample.prep: powder on tape
# Sample.x: 145.711 mm
# Sample.y: 114.376 mm
# Sample.SDD_position: 205.000 mm
# Scan.experimenters: Bruce Ravel
# Scan.edge_energy: 12526.7
# Scan.start_time: 2023-06-27T19:00:02
# Scan.end_time: 2023-06-27T19:07:56
# Scan.transient_id: 85244
# Scan.uid: 5b1c23a2-73ca-4988-8661-fdb9ea4287b5
# Scan.plot_hint: ln(I0/It)  --  ln($5/$6)
# Column.1: energy eV
# Column.2: requested_energy eV
# Column.3: measurement_time seconds
# Column.4: xmu 
# Column.5: I0 nA
# Column.6: It nA
# Column.7: Ir nA
# ///////////
# Welcome to BMM
# -----------
# energy  requested_energy  measurement_time  xmu  I0  It  Ir
  12326.738  12326.700  0.500  5.298304  56.078616  0.280397  0.009131
  12336.741  12336.700  0.500  5.294821  56.033932  0.281151  0.009185
  12346.754  12346.700  0.500  5.286997  55.907315  0.282719  0.009438
  12356.757  12356.700  0.500  5.278235  55.727222  0.284288  0.009528
  12366.797  12366.700  0.500  5.259614  55.667456  0.289321  0.009765
  12376.746  12376.700  0.500  5.239917  55.545190  0.294428  0.009891
  12386.785  12386.700  0.500  5.228418  55.430712  0.297219  0.010278
  12396.726  12396.700  0.500  5.229204  55.300229  0.296287  0.010029
  12406.724  12406.700  0.500  5.227103  55.175933  0.296243  0.010219
  12416.732  12416.700  0.500  5.218151  55.033803  0.298137  0.010438
  12426.763  12426.700  0.500  5.198995  54.926476  0.303310  0.010543
  12436.736  12436.700  0.500  5.176398  54.452138  0.307563  0.010833
  12446.725  12446.700  0.500  5.165032  54.700810  0.312499  0.010952
  12456.738  12456.700  0.500  5.160486  54.584813  0.313257  0.011089
  12466.739  12466.700  0.500  5.153992  54.450859  0.314525  0.011259
  12476.730  12476.700  0.500  5.151106  54.334875  0.314762  0.011343
  12486.737  12486.700  0.500  5.147138  53.905818  0.313518  0.011245
  12496.733  12496.700  0.500  5.144500  54.111403  0.315545  0.011531
  12498.673  12498.700  0.500  5.141931  54.083687  0.316194  0.011470
  12500.675  12500.700  0.500  5.140243  54.062342  0.316603  0.011448
  12502.684  12502.700  0.500  5.136723  54.026110  0.317507  0.011476
  12504.687  12504.700  0.500  5.133950  54.001730  0.318245  0.011602
  12506.677  12506.700  0.500  5.130539  53.978414  0.319195  0.011578
  12508.688  12508.700  0.500  5.129360  53.946602  0.319383  0.011631
  12510.680  12510.700  0.500  5.126584  53.926297  0.320150  0.011491
  12512.699  12512.700  0.500  5.124276  53.892119  0.320686  0.011838
  12514.685  12514.700  0.500  5.123091  53.881081  0.321001  0.011701
  12516.658  12516.700  0.500  5.123148  53.848781  0.320790  0.011715
  12516.944  12517.000  0.500  5.122799  53.844948  0.320879  0.011695
  12517.252  12517.300  0.500  5.122934  53.842173  0.320819  0.011676
  12517.539  12517.600  0.500  5.122773  53.838924  0.320852  0.011655
  12517.853  12517.900  0.500  5.123327  53.832929  0.320638  0.011638
  12518.160  12518.200  0.500  5.122925  53.833588  0.320771  0.011700
  12518.447  12518.500  0.500  5.123097  53.818475  0.320626  0.011606
  12518.768  12518.800  0.500  5.122915  53.817196  0.320677  0.011575
  12519.068  12519.100  0.500  5.122593  53.805016  0.320707  0.011557
  12519.362  12519.400  0.500  5.122363  53.803579  0.320773  0.011549
  12519.676  12519.700  0.500  5.122849  53.793584  0.320557  0.011549
  12519.984  12520.000  0.500  5.124181  53.790254  0.320110  0.011594
  12520.271  12520.300  0.500  5.123190  53.794870  0.320456  0.011589
  12520.578  12520.600  0.500  5.124087  53.787425  0.320124  0.011460
  12520.872  12520.900  0.500  5.123744  53.780787  0.320194  0.011568
  12521.179  12521.200  0.500  5.124115  53.774448  0.320038  0.011475
  12521.493  12521.500  0.500  5.124436  53.776604  0.319948  0.011695
  12521.787  12521.800  0.500  5.124382  53.767476  0.319911  0.011358
  12522.081  12522.100  0.500  5.125484  53.770076  0.319574  0.011476
  12522.395  12522.400  0.500  5.125914  53.747321  0.319301  0.011485
  12522.683  12522.700  0.500  5.126493  53.757216  0.319175  0.011486
  12522.983  12523.000  0.500  5.127342  53.750839  0.318866  0.011338
  12523.284  12523.300  0.500  5.127249  53.747696  0.318877  0.011574
  12523.571  12523.600  0.500  5.128466  53.737847  0.318431  0.011567
  12523.879  12523.900  0.500  5.128372  53.738426  0.318465  0.011473
  12524.173  12524.200  0.500  5.128894  53.731694  0.318259  0.011405
  12524.466  12524.500  0.500  5.129195  53.727094  0.318135  0.011550
  12524.781  12524.800  0.500  5.130651  53.724019  0.317654  0.011471
  12525.082  12525.100  0.500  5.131289  53.722267  0.317442  0.011456
  12525.376  12525.400  0.500  5.132769  53.716249  0.316936  0.011281
  12525.670  12525.700  0.500  5.133994  53.708503  0.316503  0.011228
  12525.977  12526.000  0.500  5.133718  53.708100  0.316588  0.011392
  12526.299  12526.300  0.500  5.135957  53.706922  0.315873  0.011218
  12526.572  12526.600  0.500  5.137542  53.698926  0.315326  0.011235
  12526.880  12526.900  0.500  5.139311  53.687315  0.314700  0.011200
  12527.174  12527.200  0.500  5.140183  53.687694  0.314428  0.011144
  12527.496  12527.500  0.500  5.142262  53.681609  0.313740  0.011134
  12527.790  12527.800  0.500  5.143455  53.676325  0.313335  0.011097
  12528.098  12528.100  0.500  5.145584  53.667138  0.312615  0.010978
  12528.392  12528.400  0.500  5.149268  53.665359  0.311455  0.010922
  12528.700  12528.700  0.500  5.149886  53.660979  0.311237  0.010808
  12529.001  12529.000  0.500  5.152460  53.658604  0.310423  0.010907
  12529.302  12529.300  0.500  5.155671  53.657239  0.309420  0.010758
  12529.603  12529.600  0.500  5.158335  53.647204  0.308539  0.010730
  12529.904  12529.900  0.500  5.162525  53.648041  0.307254  0.010663
  12530.212  12530.200  0.500  5.164727  53.637512  0.306518  0.010571
  12530.492  12530.500  0.500  5.168798  53.638136  0.305276  0.010561
  12530.807  12530.800  0.500  5.173295  53.630327  0.303862  0.010434
  12531.087  12531.100  0.500  5.177495  53.622691  0.302546  0.010331
  12531.402  12531.400  0.500  5.182564  53.616577  0.300982  0.010179
  12531.676  12531.700  0.500  5.186603  53.612408  0.299745  0.010105
  12531.991  12532.000  0.500  5.191719  53.608133  0.298192  0.010075
  12532.265  12532.300  0.500  5.196542  53.601552  0.296721  0.009929
  12532.593  12532.600  0.500  5.200661  53.597653  0.295479  0.009754
  12532.888  12532.900  0.500  5.204922  53.596843  0.294219  0.009759
  12533.189  12533.200  0.500  5.211146  53.589078  0.292351  0.009518
  12533.476  12533.500  0.500  5.215905  53.582889  0.290929  0.009554
  12533.805  12533.800  0.500  5.220717  53.571755  0.289473  0.009446
  12534.092  12534.100  0.500  5.225130  53.572625  0.288203  0.009429
  12534.401  12534.400  0.500  5.229874  53.566130  0.286804  0.009292
  12534.688  12534.700  0.500  5.234651  53.556392  0.285385  0.009293
  12535.003  12535.000  0.500  5.240337  53.559665  0.283784  0.009115
  12535.311  12535.300  0.500  5.242848  53.548674  0.283014  0.009149
  12535.613  12535.600  0.500  5.247110  53.543257  0.281782  0.008919
  12535.887  12535.900  0.500  5.251277  53.539413  0.280591  0.008849
  12536.222  12536.200  0.500  5.255522  53.532269  0.279365  0.008882
  12536.496  12536.500  0.500  5.258530  53.532034  0.278524  0.008925
  12536.804  12536.800  0.500  5.262240  53.529905  0.277482  0.008839
  12537.099  12537.100  0.500  5.265967  53.520262  0.276400  0.008680
  12537.414  12537.400  0.500  5.269874  53.512741  0.275283  0.008579
  12537.702  12537.700  0.500  5.272475  53.517975  0.274595  0.008660
  12537.996  12538.000  0.500  5.277078  53.495194  0.273218  0.008507
  12538.277  12538.300  0.500  5.279598  53.492173  0.272515  0.008358
  12538.599  12538.600  0.500  5.284815  53.478509  0.271028  0.008312
  12538.894  12538.900  0.500  5.287376  53.475426  0.270319  0.008260
  12539.182  12539.200  0.500  5.292326  53.445879  0.268835  0.008276
  12539.476  12539.500  0.500  5.296071  53.426057  0.267731  0.008147
  12539.798  12539.800  0.500  5.301490  53.359889  0.265954  0.007975
  12540.100  12540.100  0.500  5.306390  53.268084  0.264199  0.007756
  12540.395  12540.400  0.500  5.311705  53.157194  0.262251  0.007993
  12540.689  12540.700  0.500  5.316749  53.067815  0.260493  0.007454
  12541.012  12541.000  0.500  5.325254  53.012779  0.258019  0.007498
  12541.299  12541.300  0.500  5.332197  53.018040  0.256260  0.007551
  12541.608  12541.600  0.500  5.338406  53.079844  0.254970  0.007458
  12541.903  12541.900  0.500  5.347622  53.162683  0.253025  0.007118
  12542.218  12542.200  0.500  5.357150  53.250464  0.251040  0.007252
  12542.506  12542.500  0.500  5.367005  53.317844  0.248893  0.007010
  12542.815  12542.800  0.500  5.375408  53.374677  0.247073  0.006880
  12543.103  12543.100  0.500  5.386167  53.410571  0.244593  0.006745
  12543.418  12543.400  0.500  5.398824  53.428336  0.241597  0.006656
  12543.692  12543.700  0.500  5.410259  53.442098  0.238912  0.006591
  12544.008  12544.000  0.500  5.422843  53.432052  0.235880  0.006496
  12544.303  12544.300  0.500  5.436549  53.440458  0.232706  0.006197
  12544.598  12544.600  0.500  5.449751  53.427204  0.229597  0.006004
  12544.886  12544.900  0.500  5.464785  53.421201  0.226145  0.005890
  12545.187  12545.200  0.500  5.481510  53.415949  0.222373  0.005729
  12545.482  12545.500  0.500  5.496820  53.410051  0.218970  0.005509
  12545.791  12545.800  0.500  5.513616  53.403401  0.215296  0.005579
  12546.086  12546.100  0.500  5.531120  53.403815  0.211562  0.005456
  12546.402  12546.400  0.500  5.549213  53.396501  0.207740  0.005464
  12546.697  12546.700  0.500  5.566742  53.390084  0.204106  0.005149
  12546.998  12547.000  0.500  5.584596  53.397614  0.200522  0.005054
  12547.293  12547.300  0.500  5.602540  53.383844  0.196905  0.004969
  12547.602  12547.600  0.500  5.617007  53.379763  0.194063  0.004868
  12547.897  12547.900  0.500  5.633660  53.372093  0.190830  0.004673
  12548.199  12548.200  0.500  5.648849  53.368831  0.187942  0.004567
  12548.508  12548.500  0.500  5.661550  53.365936  0.185560  0.004554
  12548.810  12548.800  0.500  5.673748  53.359922  0.183290  0.004346
  12549.119  12549.100  0.500  5.682981  53.359294  0.181603  0.004459
  12549.414  12549.400  0.500  5.692563  53.356063  0.179860  0.004298
  12549.716  12549.700  0.500  5.700680  53.347933  0.178379  0.004225
  12549.997  12550.000  0.500  5.703735  53.350807  0.177845  0.004156
  12550.313  12550.300  0.500  5.709405  53.332134  0.176777  0.004309
  12550.595  12550.600  0.500  5.711004  53.342757  0.176530  0.004184
  12550.917  12550.900  0.500  5.713998  53.321829  0.175933  0.004123
  12551.192  12551.200  0.500  5.716906  53.321478  0.175421  0.004083
  12551.487  12551.500  0.500  5.716835  53.312397  0.175404  0.004057
  12551.693  12551.700  0.500  5.717263  53.316435  0.175342  0.004028
  12552.696  12552.690  0.500  5.719227  53.294852  0.174927  0.004089
  12553.685  12553.690  0.500  5.724828  53.292845  0.173943  0.003987
  12554.736  12554.710  0.500  5.736587  53.278774  0.171864  0.003996
  12555.787  12555.760  0.500  5.756302  53.252959  0.168428  0.003893
  12556.831  12556.820  0.500  5.778435  53.240638  0.164703  0.003775
  12557.910  12557.900  0.500  5.801414  53.223662  0.160910  0.003750
  12558.989  12559.000  0.500  5.817083  53.220840  0.158400  0.003631
  12560.131  12560.120  0.500  5.824468  53.196731  0.157163  0.003587
  12561.279  12561.260  0.500  5.827007  53.181663  0.156720  0.003695
  12562.428  12562.410  0.500  5.824562  53.169187  0.157067  0.003685
  12563.611  12563.590  0.500  5.822949  53.331800  0.157802  0.003574
  12564.808  12564.780  0.500  5.826725  53.316621  0.157162  0.003661
  12565.998  12566.000  0.500  5.832402  53.302072  0.156230  0.003575
  12567.224  12567.230  0.500  5.843416  53.284544  0.154468  0.003654
  12568.476  12568.480  0.500  5.853501  53.272313  0.152883  0.003593
  12569.771  12569.750  0.500  5.858243  53.253950  0.152107  0.003651
  12571.059  12571.040  0.500  5.853268  53.235566  0.152813  0.003753
  12572.375  12572.350  0.500  5.839141  53.218471  0.154937  0.003941
  12573.670  12573.680  0.500  5.816890  53.204875  0.158383  0.003887
  12575.021  12575.030  0.500  5.787792  53.187851  0.163007  0.004234
  12576.406  12576.400  0.500  5.758583  53.158609  0.167746  0.004134
  12577.806  12577.780  0.500  5.731793  53.129692  0.172207  0.004524
  12579.206  12579.190  0.500  5.708763  53.135263  0.176238  0.004435
  12580.626  12580.610  0.500  5.692066  53.111629  0.179125  0.004659
  12582.061  12582.050  0.500  5.677588  53.095022  0.181681  0.004548
  12583.524  12583.510  0.500  5.668212  53.075675  0.183325  0.004769
  12584.995  12584.990  0.500  5.660071  53.059818  0.184769  0.004752
  12586.520  12586.490  0.500  5.650425  53.044756  0.186507  0.004886
  12588.005  12588.010  0.500  5.639174  53.027851  0.188557  0.004861
  12589.559  12589.550  0.500  5.629030  52.996667  0.190367  0.004983
  12591.107  12591.110  0.500  5.618554  52.975152  0.192294  0.005006
  12592.690  12592.680  0.500  5.609233  52.961063  0.194043  0.005040
  12594.273  12594.280  0.500  5.597864  52.943223  0.196195  0.005212
  12595.884  12595.890  0.500  5.587781  52.918073  0.198090  0.005308
  12597.495  12597.530  0.500  5.578466  52.901308  0.199880  0.005266
  12599.162  12599.180  0.500  5.571309  52.874454  0.201214  0.005313
  12600.844  12600.850  0.500  5.567386  52.848297  0.201904  0.005329
  12602.519  12602.540  0.500  5.566404  52.824772  0.202013  0.005333
  12604.215  12604.250  0.500  5.568924  52.811531  0.201454  0.005326
  12605.967  12605.980  0.500  5.572170  52.793574  0.200733  0.005274
  12607.713  12607.730  0.500  5.576964  52.774032  0.199699  0.005215
  12609.861  12609.490  0.500  5.581468  52.743493  0.198686  0.005155
  12611.234  12611.280  0.500  5.580419  52.720603  0.198809  0.005152
  12613.120  12613.080  0.500  5.577929  52.682625  0.199161  0.005096
  12615.041  12614.910  0.500  5.573804  52.675776  0.199958  0.005188
  12616.734  12616.750  0.500  5.571009  52.635884  0.200366  0.005155
  12618.594  12618.610  0.500  5.567459  52.618599  0.201012  0.005172
  12620.461  12620.490  0.500  5.571135  52.581404  0.200133  0.005341
  12622.363  12622.390  0.500  5.576437  52.492389  0.198738  0.005138
  12624.287  12624.310  0.500  5.586286  52.520473  0.196895  0.005112
  12626.233  12626.250  0.500  5.602077  52.510607  0.193774  0.004987
  12628.200  12628.210  0.500  5.621887  52.430700  0.189684  0.005085
  12630.160  12630.180  0.500  5.640232  52.447176  0.186295  0.004777
  12632.163  12632.180  0.500  5.654336  52.444177  0.183675  0.004908
  12634.160  12634.190  0.500  5.658833  52.375512  0.182612  0.004658
  12636.185  12636.220  0.500  5.660049  52.372852  0.182380  0.004751
  12638.273  12638.280  0.500  5.652643  52.376677  0.183750  0.004651
  12640.342  12640.350  0.500  5.642717  52.339523  0.185451  0.004840
  12642.424  12642.440  0.500  5.633725  52.252339  0.186814  0.004769
  12644.550  12644.550  0.500  5.624946  52.294088  0.188612  0.004991
  12646.669  12646.680  0.500  5.620875  52.269829  0.189294  0.004948
  12648.796  12648.820  0.500  5.617339  52.230102  0.189820  0.004982
  12650.979  12650.990  0.500  5.617666  52.204382  0.189664  0.005072
  12653.184  12653.180  0.500  5.617488  52.189754  0.189645  0.004889
  12655.383  12655.380  0.500  5.615264  52.164805  0.189976  0.005077
  12657.597  12657.600  0.500  5.609588  52.139798  0.190966  0.005020
  12659.839  12659.850  0.500  5.603939  52.106607  0.191926  0.005254
  12662.089  12662.110  0.500  5.597392  52.078984  0.193084  0.005132
  12664.375  12664.390  0.500  5.591878  52.051826  0.194050  0.005242
  12666.696  12666.690  0.500  5.585179  52.018740  0.195230  0.005298
  12669.012  12669.010  0.500  5.577676  51.993586  0.196606  0.005198
  12671.356  12671.350  0.500  5.572479  51.964074  0.197518  0.005323
  12673.702  12673.700  0.500  5.568087  51.933931  0.198272  0.005459
  12676.069  12676.080  0.500  5.563480  51.906344  0.199082  0.005503
  12678.458  12678.470  0.500  5.559496  51.878470  0.199769  0.005522
  12680.897  12680.890  0.500  5.554282  51.847506  0.200694  0.005389
  12683.316  12683.320  0.500  5.552731  51.813819  0.200875  0.005526
  12685.778  12685.770  0.500  5.547341  51.783632  0.201843  0.005588
  12688.241  12688.250  0.500  5.540599  51.757663  0.203106  0.005628
  12690.719  12690.740  0.500  5.529140  51.723553  0.205311  0.005542
  12693.240  12693.250  0.500  5.518776  51.691753  0.207323  0.005766
  12695.769  12695.770  0.500  5.506331  51.660468  0.209792  0.005665
  12698.335  12698.320  0.500  5.499520  51.629257  0.211098  0.005920
  12700.894  12700.890  0.500  5.491232  51.593915  0.212709  0.005771
  12703.454  12703.470  0.500  5.487122  51.567820  0.213478  0.005871
  12706.086  12706.080  0.500  5.485356  51.532960  0.213710  0.005873
  12708.712  12708.700  0.500  5.485791  51.503106  0.213494  0.005795
  12711.346  12711.350  0.500  5.489938  51.470377  0.212475  0.005859
  12714.002  12714.010  0.500  5.497941  51.434437  0.210634  0.005731
  12716.674  12716.690  0.500  5.505229  51.404742  0.208984  0.005675
  12719.375  12719.390  0.500  5.511634  51.368263  0.207502  0.005699
  12722.098  12722.110  0.500  5.516061  51.335856  0.206455  0.005670
  12724.857  12724.850  0.500  5.515074  51.300984  0.206519  0.005800
  12727.583  12727.600  0.500  5.514815  51.267201  0.206436  0.005637
  12730.387  12730.380  0.500  5.511175  51.228141  0.207031  0.005693
  12733.165  12733.170  0.500  5.508336  51.189239  0.207462  0.005857
  12735.993  12735.990  0.500  5.503280  51.105678  0.208173  0.005761
  12738.794  12738.820  0.500  5.502876  50.455411  0.205608  0.005866
  12741.667  12741.670  0.500  5.501605  51.100903  0.208503  0.005769
  12744.563  12744.550  0.500  5.500232  51.074474  0.208681  0.005964
  12747.446  12747.440  0.500  5.499172  51.038883  0.208757  0.005841
  12750.337  12750.350  0.500  5.497431  51.003735  0.208977  0.005924
  12753.279  12753.270  0.500  5.493224  50.972627  0.209730  0.005932
  12756.237  12756.220  0.500  5.489638  50.934922  0.210328  0.006012
  12759.182  12759.190  0.500  5.486266  50.899515  0.210891  0.005981
  12762.164  12762.170  0.500  5.482811  50.863426  0.211471  0.006201
  12765.190  12765.180  0.500  5.479417  50.830694  0.212054  0.006117
  12768.210  12768.200  0.500  5.476262  50.794868  0.212574  0.006151
  12771.253  12771.250  0.500  5.471248  50.756609  0.213481  0.006276
  12774.305  12774.310  0.500  5.465014  50.718950  0.214657  0.006267
  12777.401  12777.390  0.500  5.460541  50.685933  0.215479  0.006217
  12780.498  12780.490  0.500  5.454292  50.654145  0.216694  0.006260
