# XDI/1.0 BlueSky/1.10.0 BMM/2023-1.0-py310-tiled
# Beamline.name: BMM (06BM) -- Beamline for Materials Measurement (NIST)
# Beamline.xray_source: NSLS-II three-pole wiggler
# Beamline.collimation: paraboloid mirror, 5 nm Rh on 30 nm Pt
# Beamline.focusing: not in use
# Beamline.harmonic_rejection: flat mirror, Pt stripe, pitch = 7.0 mrad relative to beam
# Beamline.software: Bluesky 1.10.0, Ophyd 1.7.0, DataBroker 2.0.0b13, Python 3.10.8, 2023-1.0-py310-tiled
# Detector.I0: 10 cm N2
# Detector.I1: 25 cm N2
# Detector.I2: 25 cm N2
# Element.symbol: Re
# Element.edge: L3
# Element.reference: Re
# Element.reference_material: ReO2
# Facility.name: NSLS-II
# Facility.energy: 3.0
# Facility.current: 400.2
# Facility.mode: top-off
# Facility.GUP: 301027
# Facility.SAF: 310583
# Facility.cycle: 2023-2
# Mono.name: Si(111)
# Mono.d_spacing: 3.1351860
# Mono.encoder_resolution: 0.0000050 deg/ct
# Mono.angle_offset: 16.0754326 deg
# Mono.scan_mode: pseudo channel cut
# Mono.scan_type: step
# Mono.direction: forward in energy
# Sample.name: Re metal powder
# Sample.prep: powder on tape
# Sample.x: 145.711 mm
# Sample.y: 114.376 mm
# Sample.SDD_position: 205.000 mm
# Scan.experimenters: Bruce Ravel
# Scan.edge_energy: 10535.3
# Scan.start_time: 2023-06-27T16:38:16
# Scan.end_time: 2023-06-27T16:45:56
# Scan.transient_id: 85158
# Scan.uid: 2201814a-d1c6-4d52-9a96-520896fe0036
# Scan.plot_hint: ln(I0/It)  --  ln($5/$6)
# Column.1: energy eV
# Column.2: requested_energy eV
# Column.3: measurement_time seconds
# Column.4: xmu 
# Column.5: I0 nA
# Column.6: It nA
# Column.7: Ir nA
# ///////////
# Welcome to BMM
# -----------
# energy  requested_energy  measurement_time  xmu  I0  It  Ir
  10335.292  10335.300  0.500  3.226643  90.390816  3.587660  0.473128
  10345.320  10345.300  0.500  3.216807  90.222515  3.616375  0.479476
  10355.326  10355.300  0.500  3.207308  90.046548  3.643769  0.485838
  10365.342  10365.300  0.500  3.197726  89.858805  3.671181  0.492287
  10375.374  10375.300  0.500  3.188450  89.651352  3.696839  0.498478
  10385.355  10385.300  0.500  3.179132  89.462267  3.723576  0.504666
  10395.351  10395.300  0.500  3.170046  89.280167  3.749916  0.511164
  10405.352  10405.300  0.500  3.160808  89.098183  3.777003  0.517230
  10415.402  10415.300  0.500  3.151932  88.911662  3.802699  0.523732
  10425.349  10425.300  0.500  3.143300  88.730772  3.827865  0.529976
  10435.310  10435.300  0.500  3.135083  88.554117  3.851762  0.535805
  10445.319  10445.300  0.500  3.127297  88.351092  3.872969  0.541320
  10455.396  10455.300  0.500  3.120533  88.178507  3.891639  0.545919
  10465.311  10465.300  0.500  3.114937  87.995354  3.905347  0.549993
  10475.360  10475.300  0.500  3.111667  87.809250  3.909854  0.551576
  10485.357  10485.300  0.500  3.111693  87.626606  3.901621  0.550810
  10495.364  10495.300  0.500  3.118817  87.447456  3.866003  0.543933
  10505.271  10505.300  0.500  3.141585  87.264614  3.771075  0.524944
  10507.281  10507.300  0.500  3.149672  87.230487  3.739239  0.518893
  10509.291  10509.300  0.500  3.159758  87.188403  3.699929  0.510588
  10511.288  10511.300  0.500  3.171990  87.124160  3.652253  0.500981
  10513.280  10513.300  0.500  3.187286  87.053520  3.593897  0.489270
  10515.283  10515.300  0.500  3.206730  87.067841  3.525270  0.475842
  10517.297  10517.300  0.500  3.232085  87.037904  3.435830  0.457986
  10519.282  10519.300  0.500  3.264291  87.002224  3.325575  0.436475
  10521.283  10521.300  0.500  3.307580  86.957247  3.183040  0.409197
  10523.279  10523.300  0.500  3.366864  86.917597  2.998453  0.374918
  10525.291  10525.300  0.500  3.450268  86.793484  2.754575  0.331789
  10525.560  10525.600  0.500  3.464950  86.707989  2.711756  0.324350
  10525.863  10525.900  0.500  3.481247  86.643479  2.665934  0.316595
  10526.165  10526.200  0.500  3.499035  86.614766  2.618065  0.308248
  10526.463  10526.500  0.500  3.517943  86.625862  2.569356  0.300032
  10526.766  10526.800  0.500  3.537628  86.653370  2.520073  0.291676
  10527.068  10527.100  0.500  3.559765  86.684178  2.465776  0.282891
  10527.376  10527.400  0.500  3.582045  86.704201  2.412001  0.273506
  10527.669  10527.700  0.500  3.605735  86.720494  2.355976  0.264579
  10527.967  10528.000  0.500  3.631337  86.742251  2.297001  0.255049
  10528.264  10528.300  0.500  3.657573  86.762499  2.238041  0.245604
  10528.572  10528.600  0.500  3.686607  86.780443  2.174446  0.236177
  10528.865  10528.900  0.500  3.716498  86.786973  2.110572  0.225909
  10529.163  10529.200  0.500  3.749868  86.792542  2.041435  0.215510
  10529.466  10529.500  0.500  3.786253  86.782668  1.968268  0.204748
  10529.773  10529.800  0.500  3.825428  86.777848  1.892547  0.193676
  10530.071  10530.100  0.500  3.869525  86.774284  1.810830  0.182049
  10530.369  10530.400  0.500  3.915607  86.769889  1.729189  0.170514
  10530.682  10530.700  0.500  3.969048  86.757993  1.638981  0.158341
  10530.975  10531.000  0.500  4.024112  86.752389  1.551072  0.146465
  10531.283  10531.300  0.500  4.085928  86.746512  1.457995  0.134364
  10531.595  10531.600  0.500  4.155028  86.737915  1.360514  0.121796
  10531.889  10531.900  0.500  4.227631  86.731905  1.265150  0.110302
  10532.182  10532.200  0.500  4.308291  86.729777  1.167082  0.098426
  10532.485  10532.500  0.500  4.398114  86.718006  1.066676  0.087169
  10532.788  10532.800  0.500  4.492961  86.711509  0.970083  0.076487
  10533.096  10533.100  0.500  4.601085  86.705802  0.870608  0.066123
  10533.384  10533.400  0.500  4.713837  86.697591  0.777703  0.056437
  10533.687  10533.700  0.500  4.841560  86.691598  0.684407  0.047472
  10533.981  10534.000  0.500  4.980674  86.690529  0.595515  0.039385
  10534.289  10534.300  0.500  5.140770  86.679103  0.507348  0.031625
  10534.582  10534.600  0.500  5.309617  86.674329  0.428502  0.025051
  10534.880  10534.900  0.500  5.503482  86.668146  0.352962  0.019361
  10535.188  10535.200  0.500  5.722571  86.658632  0.283485  0.014370
  10535.491  10535.500  0.500  5.951828  86.652678  0.225391  0.010441
  10535.795  10535.800  0.500  6.203193  86.645288  0.175280  0.007273
  10536.098  10536.100  0.500  6.473121  86.638363  0.133804  0.005138
  10536.406  10536.400  0.500  6.757431  86.636170  0.100690  0.003411
  10536.694  10536.700  0.500  7.047733  86.627688  0.075312  0.002081
  10536.993  10537.000  0.500  7.330925  86.623004  0.056735  0.001302
  10537.291  10537.300  0.500  7.610294  86.616015  0.042903  0.000864
  10537.599  10537.600  0.500  7.878243  86.605036  0.032815  0.000576
  10537.903  10537.900  0.500  8.116054  86.598567  0.025867  0.000328
  10538.191  10538.200  0.500  8.321512  86.589195  0.021061  0.000324
  10538.495  10538.500  0.500  8.514283  86.582084  0.017367  0.000211
  10538.784  10538.800  0.500  8.665579  86.571142  0.014927  0.000196
  10539.097  10539.100  0.500  8.807294  86.559553  0.012953  0.000018
  10539.386  10539.400  0.500  8.900851  86.529765  0.011792  0.000147
  10539.684  10539.700  0.500  8.967256  86.542049  0.011036  0.000015
  10539.983  10540.000  0.500  9.022865  86.742274  0.010463  0.000011
  10540.296  10540.300  0.500  9.038667  86.715411  0.010296  0.000060
  10540.604  10540.600  0.500  9.038292  86.696955  0.010297  -0.000086
  10540.903  10540.900  0.500  8.982521  86.703792  0.010889  0.000090
  10541.206  10541.200  0.500  8.933661  86.712646  0.011435  -0.000070
  10541.510  10541.500  0.500  8.833517  86.725269  0.012641  0.000000
  10541.799  10541.800  0.500  8.747131  86.741658  0.013785  -0.000040
  10542.092  10542.100  0.500  8.625411  86.744458  0.015569  0.000100
  10542.396  10542.400  0.500  8.507554  86.745218  0.017517  0.000049
  10542.675  10542.700  0.500  8.386895  86.742273  0.019763  0.000039
  10542.993  10543.000  0.500  8.255726  86.729885  0.022530  0.000007
  10543.283  10543.300  0.500  8.125910  86.722732  0.025650  -0.000071
  10543.596  10543.600  0.500  7.999618  86.722049  0.029103  0.000068
  10543.895  10543.900  0.500  7.874180  86.714511  0.032990  0.000081
  10544.193  10544.200  0.500  7.755432  86.703070  0.037144  0.000013
  10544.502  10544.500  0.500  7.639103  86.697958  0.041724  0.000210
  10544.801  10544.800  0.500  7.532391  86.689819  0.046419  0.000144
  10545.100  10545.100  0.500  7.431391  86.683864  0.051348  0.000196
  10545.399  10545.400  0.500  7.340223  86.674031  0.056243  0.000188
  10545.693  10545.700  0.500  7.261681  86.670245  0.060836  0.000194
  10545.996  10546.000  0.500  7.192212  86.664143  0.065208  0.000322
  10546.295  10546.300  0.500  7.131844  86.654234  0.069258  0.000352
  10546.599  10546.600  0.500  7.077563  86.650644  0.073118  0.000412
  10546.908  10546.900  0.500  7.034097  86.642502  0.076359  0.000626
  10547.211  10547.200  0.500  6.996336  86.634957  0.079291  0.000589
  10547.506  10547.500  0.500  6.966066  86.628088  0.081721  0.000791
  10547.814  10547.800  0.500  6.935182  86.623124  0.084280  0.000875
  10548.113  10548.100  0.500  6.912212  86.612068  0.086227  0.001055
  10548.408  10548.400  0.500  6.889132  86.606327  0.088234  0.001031
  10548.692  10548.700  0.500  6.868692  86.594834  0.090044  0.001280
  10549.001  10549.000  0.500  6.847632  86.592113  0.091958  0.001438
  10549.295  10549.300  0.500  6.832511  86.579574  0.093346  0.001462
  10549.590  10549.600  0.500  6.811932  86.576366  0.095283  0.001620
  10549.894  10549.900  0.500  6.796859  86.572978  0.096726  0.001741
  10550.207  10550.200  0.500  6.784200  86.560987  0.097945  0.001786
  10550.502  10550.500  0.500  6.773570  86.549927  0.098979  0.001792
  10550.801  10550.800  0.500  6.768282  86.547235  0.099501  0.001975
  10551.105  10551.100  0.500  6.762132  86.541524  0.100108  0.001958
  10551.399  10551.400  0.500  6.759237  86.527239  0.100381  0.001958
  10551.698  10551.700  0.500  6.755021  86.525936  0.100804  0.002111
  10552.003  10552.000  0.500  6.753430  86.514234  0.100951  0.002151
  10552.297  10552.300  0.500  6.750931  86.509220  0.101198  0.002029
  10552.596  10552.600  0.500  6.749571  86.501555  0.101326  0.002209
  10552.896  10552.900  0.500  6.746133  86.495484  0.101668  0.002211
  10553.205  10553.200  0.500  6.741368  86.486769  0.102144  0.002232
  10553.504  10553.500  0.500  6.734844  86.479243  0.102803  0.002167
  10553.808  10553.800  0.500  6.725132  86.471746  0.103797  0.002377
  10554.108  10554.100  0.500  6.711750  86.467833  0.105191  0.002308
  10554.407  10554.400  0.500  6.699417  86.456813  0.106483  0.002471
  10554.697  10554.700  0.500  6.679922  86.450065  0.108571  0.002409
  10555.001  10555.000  0.500  6.660363  86.429871  0.110689  0.002532
  10555.296  10555.300  0.500  6.636176  86.391069  0.113348  0.002587
  10555.590  10555.600  0.500  6.610649  86.354019  0.116229  0.002667
  10555.895  10555.900  0.500  6.585224  86.328195  0.119186  0.002732
  10556.199  10556.200  0.500  6.556317  86.306474  0.122651  0.002864
  10556.508  10556.500  0.500  6.526633  86.298689  0.126335  0.003141
  10556.798  10556.800  0.500  6.497452  86.301758  0.130080  0.003052
  10557.107  10557.100  0.500  6.467550  86.315460  0.134050  0.003341
  10557.407  10557.400  0.500  6.441234  86.320271  0.137632  0.003229
  10557.706  10557.700  0.500  6.413635  86.306105  0.141461  0.003548
  10558.006  10558.000  0.500  6.387204  86.257886  0.145168  0.003507
  10558.311  10558.300  0.500  6.362371  86.197118  0.148713  0.003780
  10558.596  10558.600  0.500  6.340359  86.149828  0.151940  0.003941
  10558.900  10558.900  0.500  6.317760  86.138251  0.155392  0.003987
  10559.195  10559.200  0.500  6.299267  86.168226  0.158347  0.004127
  10559.500  10559.500  0.500  6.281371  86.223821  0.161310  0.004223
  10559.799  10559.800  0.500  6.264074  86.269729  0.164212  0.004244
  10560.104  10560.100  0.500  6.252472  86.303594  0.166194  0.004361
  10560.297  10560.300  0.500  6.243196  86.314379  0.167764  0.004464
  10561.313  10561.290  0.500  6.221126  86.302440  0.171484  0.004622
  10562.309  10562.290  0.500  6.217821  86.284768  0.172016  0.004728
  10563.325  10563.310  0.500  6.229891  86.263028  0.169909  0.004704
  10564.379  10564.360  0.500  6.248748  86.243358  0.166697  0.004575
  10565.439  10565.420  0.500  6.263850  86.219757  0.164154  0.004380
  10566.509  10566.500  0.500  6.267461  86.199137  0.163523  0.004431
  10567.632  10567.600  0.500  6.260127  86.177795  0.164686  0.004264
  10568.746  10568.720  0.500  6.241281  86.157262  0.167779  0.004467
  10569.864  10569.860  0.500  6.216763  86.130766  0.171891  0.004469
  10571.037  10571.010  0.500  6.193407  86.111921  0.175914  0.004785
  10572.214  10572.190  0.500  6.171152  86.082125  0.179811  0.004619
  10573.392  10573.380  0.500  6.151132  86.063601  0.183407  0.004794
  10574.623  10574.600  0.500  6.127984  86.035786  0.187642  0.004859
  10575.840  10575.830  0.500  6.102005  86.008373  0.192519  0.004957
  10577.091  10577.080  0.500  6.074633  85.991025  0.197822  0.005088
  10578.372  10578.350  0.500  6.044538  85.961227  0.203795  0.005132
  10579.648  10579.640  0.500  6.021451  85.939346  0.208501  0.005111
  10580.968  10580.950  0.500  6.010658  85.914214  0.210702  0.005055
  10582.308  10582.280  0.500  6.012802  85.880804  0.210169  0.004940
  10583.639  10583.630  0.500  6.026663  85.849069  0.207200  0.004626
  10585.013  10585.000  0.500  6.045760  85.810344  0.203189  0.004557
  10586.417  10586.380  0.500  6.067135  85.619174  0.198448  0.004139
  10587.798  10587.790  0.500  6.083196  85.685957  0.195439  0.003993
  10589.227  10589.210  0.500  6.096819  85.761697  0.192965  0.003813
  10590.671  10590.650  0.500  6.106041  85.728862  0.191121  0.003857
  10592.120  10592.110  0.500  6.116974  85.698755  0.188976  0.003603
  10593.599  10593.590  0.500  6.125439  85.673665  0.187328  0.003734
  10595.108  10595.090  0.500  6.137465  85.646135  0.185029  0.003644
  10596.607  10596.610  0.500  6.148389  85.615714  0.182954  0.003769
  10598.161  10598.150  0.500  6.155871  85.551161  0.181453  0.003871
  10599.729  10599.710  0.500  6.161975  85.465827  0.180169  0.003929
  10601.283  10601.280  0.500  6.165451  85.522769  0.179664  0.003968
  10602.897  10602.880  0.500  6.164553  85.494834  0.179766  0.004132
  10604.506  10604.490  0.500  6.162119  85.443491  0.180096  0.004215
  10606.134  10606.130  0.500  6.157615  85.327971  0.180665  0.004346
  10607.808  10607.780  0.500  6.153490  85.384423  0.181532  0.004384
  10609.472  10609.450  0.500  6.146714  85.358170  0.182709  0.004490
  10611.161  10611.140  0.500  6.138648  85.278779  0.184018  0.004593
  10612.870  10612.850  0.500  6.125806  85.239611  0.186311  0.004757
  10614.589  10614.580  0.500  6.112039  85.254144  0.188926  0.004771
  10616.339  10616.330  0.500  6.098706  85.226069  0.191398  0.004787
  10618.108  10618.090  0.500  6.082231  85.162397  0.194432  0.005125
  10619.878  10619.880  0.500  6.064694  84.931652  0.197336  0.005056
  10621.707  10621.680  0.500  6.045072  85.076973  0.201591  0.005184
  10623.528  10623.510  0.500  6.024110  85.095500  0.205906  0.005227
  10625.363  10625.350  0.500  6.007431  85.059210  0.209280  0.005426
  10627.229  10627.210  0.500  6.000010  85.021515  0.210745  0.005400
  10629.095  10629.090  0.500  6.002436  84.986760  0.210149  0.005298
  10631.011  10630.990  0.500  6.014393  84.947523  0.207555  0.005243
  10632.937  10632.910  0.500  6.031156  84.914958  0.204026  0.005176
  10634.860  10634.850  0.500  6.047221  84.871609  0.200672  0.005042
  10636.832  10636.810  0.500  6.057560  84.833499  0.198519  0.004886
  10638.795  10638.780  0.500  6.067321  84.790206  0.196490  0.004965
  10640.793  10640.780  0.500  6.072593  84.738520  0.195338  0.004860
  10642.811  10642.790  0.500  6.078076  84.388058  0.193467  0.005047
  10644.825  10644.820  0.500  6.081603  84.568608  0.193198  0.004746
  10646.899  10646.880  0.500  6.088225  84.658261  0.192126  0.004781
  10648.960  10648.950  0.500  6.089521  84.618818  0.191788  0.004661
  10651.045  10651.040  0.500  6.093096  84.569225  0.190992  0.004742
  10653.176  10653.150  0.500  6.099206  84.520985  0.189720  0.004583
  10655.288  10655.280  0.500  6.111518  84.473604  0.187293  0.004381
  10657.435  10657.420  0.500  6.125379  84.428537  0.184617  0.004448
  10659.608  10659.590  0.500  6.139287  84.370084  0.181941  0.004264
  10661.781  10661.780  0.500  6.148957  84.096002  0.179605  0.004203
  10664.000  10663.980  0.500  6.154525  84.225173  0.178882  0.004136
  10666.210  10666.200  0.500  6.156502  84.275046  0.178634  0.004158
  10668.460  10668.450  0.500  6.150909  84.231384  0.179543  0.004007
  10670.732  10670.710  0.500  6.139833  84.182788  0.181438  0.004150
  10672.994  10672.990  0.500  6.118527  84.126279  0.185221  0.004261
  10675.306  10675.290  0.500  6.089941  84.077607  0.190481  0.004483
  10677.615  10677.610  0.500  6.053545  83.981012  0.197315  0.004614
  10679.959  10679.950  0.500  6.019460  83.639198  0.203325  0.004755
  10682.315  10682.300  0.500  5.991798  83.955976  0.209820  0.005103
  10684.696  10684.680  0.500  5.975638  83.913025  0.213129  0.005136
  10687.093  10687.070  0.500  5.973547  83.862595  0.213447  0.005301
  10689.496  10689.490  0.500  5.977504  83.812984  0.212478  0.005091
  10691.935  10691.920  0.500  5.988424  83.757153  0.210031  0.005333
  10694.380  10694.370  0.500  6.000570  83.708969  0.207376  0.005090
  10696.871  10696.850  0.500  6.010825  83.637167  0.205084  0.005247
  10699.358  10699.340  0.500  6.016700  83.059356  0.202474  0.005114
  10701.851  10701.850  0.500  6.021207  83.587769  0.202846  0.005144
  10704.400  10704.370  0.500  6.026287  83.536703  0.201695  0.004998
  10706.925  10706.920  0.500  6.034748  83.481928  0.199864  0.005180
  10709.507  10709.490  0.500  6.040453  83.432327  0.198609  0.004977
  10712.079  10712.070  0.500  6.046120  83.388675  0.197383  0.004964
  10714.703  10714.680  0.500  6.047369  83.334374  0.197009  0.005047
  10717.318  10717.300  0.500  6.045580  83.280944  0.197235  0.005050
  10719.964  10719.950  0.500  6.046858  83.228699  0.196859  0.005080
  10722.627  10722.610  0.500  6.054961  83.174696  0.195144  0.004889
  10725.301  10725.290  0.500  6.066697  83.120333  0.192741  0.005031
  10727.996  10727.990  0.500  6.080224  83.072213  0.190041  0.004817
  10730.722  10730.710  0.500  6.091637  83.014870  0.187755  0.004842
  10733.455  10733.450  0.500  6.094361  82.968836  0.187140  0.004778
  10736.220  10736.200  0.500  6.089148  82.908286  0.187981  0.004811
  10738.995  10738.980  0.500  6.069380  82.850595  0.191601  0.004800
  10741.783  10741.770  0.500  6.043342  82.658158  0.196198  0.004988
  10744.612  10744.590  0.500  6.014175  82.738918  0.202203  0.005095
  10747.437  10747.420  0.500  5.987452  82.679379  0.207529  0.005241
  10750.279  10750.270  0.500  5.968239  82.632762  0.211436  0.005397
  10753.167  10753.150  0.500  5.959275  82.573303  0.213186  0.005418
  10756.057  10756.040  0.500  5.956167  82.516002  0.213701  0.005298
  10758.964  10758.950  0.500  5.953535  82.456804  0.214111  0.005367
  10761.888  10761.870  0.500  5.945850  82.403757  0.215624  0.005560
  10764.828  10764.820  0.500  5.937325  82.352332  0.217334  0.005473
  10767.805  10767.790  0.500  5.927337  82.288398  0.219345  0.005564
  10770.773  10770.770  0.500  5.921510  82.233192  0.220479  0.005536
  10773.794  10773.780  0.500  5.924320  82.172936  0.219700  0.005556
  10776.796  10776.800  0.500  5.932499  82.115067  0.217757  0.005534
  10779.871  10779.850  0.500  5.950539  82.054936  0.213707  0.005478
  10782.922  10782.910  0.500  5.969529  81.987222  0.209514  0.005386
  10786.000  10785.990  0.500  5.987845  81.652538  0.204872  0.005189
  10789.080  10789.090  0.500  6.001988  81.869986  0.202532  0.005290
