# XDI/1.0 BlueSky/1.10.0 BMM/2023-1.0-py310-tiled
# Beamline.name: BMM (06BM) -- Beamline for Materials Measurement (NIST)
# Beamline.xray_source: NSLS-II three-pole wiggler
# Beamline.collimation: paraboloid mirror, 5 nm Rh on 30 nm Pt
# Beamline.focusing: not in use
# Beamline.harmonic_rejection: flat mirror, Pt stripe, pitch = 7.0 mrad relative to beam
# Beamline.software: Bluesky 1.10.0, Ophyd 1.7.0, DataBroker 2.0.0b13, Python 3.10.8, 2023-1.0-py310-tiled
# Detector.I0: 10 cm N2
# Detector.I1: 25 cm N2
# Detector.I2: 25 cm N2
# Element.symbol: Re
# Element.edge: L3
# Element.reference: Re
# Element.reference_material: ReO2
# Facility.name: NSLS-II
# Facility.energy: 3.0
# Facility.current: 400.9
# Facility.mode: top-off
# Facility.GUP: 301027
# Facility.SAF: 310583
# Facility.cycle: 2023-2
# Mono.name: Si(111)
# Mono.d_spacing: 3.1351860
# Mono.encoder_resolution: 0.0000050 deg/ct
# Mono.angle_offset: 16.0754326 deg
# Mono.scan_mode: pseudo channel cut
# Mono.scan_type: step
# Mono.direction: forward in energy
# Sample.name: NH4ReO4, Ammonium perrhenate
# Sample.prep: powder on tape
# Sample.x: 145.711 mm
# Sample.y: 114.376 mm
# Sample.SDD_position: 205.000 mm
# Scan.experimenters: Bruce Ravel
# Scan.edge_energy: 10535.3
# Scan.start_time: 2023-06-27T16:30:02
# Scan.end_time: 2023-06-27T16:37:40
# Scan.transient_id: 85153
# Scan.uid: 27e023b9-72bc-4680-93cf-c74abc5f67f9
# Scan.plot_hint: ln(I0/It)  --  ln($5/$6)
# Column.1: energy eV
# Column.2: requested_energy eV
# Column.3: measurement_time seconds
# Column.4: xmu 
# Column.5: I0 nA
# Column.6: It nA
# Column.7: Ir nA
# ///////////
# Welcome to BMM
# -----------
# energy  requested_energy  measurement_time  xmu  I0  It  Ir
  10335.310  10335.300  0.500  1.659925  90.357488  17.181766  2.280185
  10345.343  10345.300  0.500  1.653568  90.203698  17.261907  2.302291
  10355.354  10355.300  0.500  1.647542  90.026207  17.332080  2.325775
  10365.342  10365.300  0.500  1.641376  89.833550  17.401950  2.347723
  10375.336  10375.300  0.500  1.635869  89.620124  17.456478  2.367322
  10385.369  10385.300  0.500  1.630009  89.437109  17.523222  2.389539
  10395.360  10395.300  0.500  1.624013  89.269868  17.595638  2.412466
  10405.352  10405.300  0.500  1.617968  89.088774  17.666422  2.434109
  10415.369  10415.300  0.500  1.612133  88.915212  17.735182  2.456409
  10425.311  10425.300  0.500  1.606722  88.745874  17.797444  2.476527
  10435.414  10435.300  0.500  1.601244  88.562255  17.858176  2.497651
  10445.324  10445.300  0.500  1.596144  88.360072  17.908507  2.516011
  10455.287  10455.300  0.500  1.591432  88.178626  17.956142  2.533332
  10465.283  10465.300  0.500  1.587479  88.010946  17.992992  2.546505
  10475.293  10475.300  0.500  1.584816  87.827143  18.003299  2.554987
  10485.376  10485.300  0.500  1.583863  87.649706  17.984048  2.552713
  10495.388  10495.300  0.500  1.586915  87.471501  17.892786  2.532366
  10505.343  10505.300  0.500  1.597719  87.291778  17.664159  2.472541
  10507.309  10507.300  0.500  1.601452  87.259145  17.591754  2.452317
  10509.301  10509.300  0.500  1.606251  87.217381  17.499152  2.428053
  10511.283  10511.300  0.500  1.612056  87.160609  17.386549  2.397905
  10513.290  10513.300  0.500  1.619688  87.082522  17.238899  2.360178
  10515.293  10515.300  0.500  1.628591  87.103858  17.090288  2.316950
  10517.302  10517.300  0.500  1.640438  87.066884  16.881847  2.261425
  10519.297  10519.300  0.500  1.654864  87.034151  16.633792  2.194159
  10521.297  10521.300  0.500  1.674207  86.995556  16.307912  2.107180
  10523.279  10523.300  0.500  1.699184  86.954957  15.898205  1.998182
  10525.286  10525.300  0.500  1.733162  86.825070  15.344141  1.856923
  10525.555  10525.600  0.500  1.738744  86.754556  15.246335  1.832813
  10525.867  10525.900  0.500  1.745620  86.685479  15.129802  1.805817
  10526.170  10526.200  0.500  1.752259  86.650255  15.023578  1.778962
  10526.463  10526.500  0.500  1.759555  86.659636  14.915986  1.750669
  10526.766  10526.800  0.500  1.767117  86.685118  14.807969  1.722713
  10527.063  10527.100  0.500  1.775053  86.716405  14.696211  1.693908
  10527.366  10527.400  0.500  1.783599  86.738728  14.574913  1.664014
  10527.664  10527.700  0.500  1.792302  86.757212  14.451687  1.632762
  10527.962  10528.000  0.500  1.801436  86.780454  14.324126  1.600329
  10528.269  10528.300  0.500  1.811338  86.795196  14.185398  1.567221
  10528.567  10528.600  0.500  1.821387  86.811530  14.046202  1.532027
  10528.880  10528.900  0.500  1.832268  86.822067  13.895884  1.495214
  10529.178  10529.200  0.500  1.843561  86.833693  13.741683  1.458678
  10529.490  10529.500  0.500  1.856223  86.815119  13.565882  1.417382
  10529.773  10529.800  0.500  1.869117  86.810026  13.391304  1.376392
  10530.086  10530.100  0.500  1.884033  86.810939  13.193170  1.330896
  10530.379  10530.400  0.500  1.898976  86.800492  12.995932  1.286412
  10530.687  10530.700  0.500  1.915543  86.795000  12.781589  1.238149
  10530.990  10531.000  0.500  1.933065  86.786132  12.558295  1.188853
  10531.293  10531.300  0.500  1.952212  86.786811  12.320228  1.137639
  10531.591  10531.600  0.500  1.972682  86.779750  12.069615  1.084257
  10531.889  10531.900  0.500  1.994166  86.772657  11.812116  1.030876
  10532.196  10532.200  0.500  2.017731  86.761583  11.535537  0.974883
  10532.480  10532.500  0.500  2.041947  86.754126  11.258581  0.920206
  10532.798  10532.800  0.500  2.069610  86.749916  10.950878  0.860724
  10533.077  10533.100  0.500  2.097317  86.733131  10.649559  0.804860
  10533.384  10533.400  0.500  2.128681  86.726866  10.319991  0.745294
  10533.683  10533.700  0.500  2.161454  86.727550  9.987336  0.688038
  10533.986  10534.000  0.500  2.199547  86.715012  9.612652  0.625978
  10534.284  10534.300  0.500  2.239123  86.716617  9.239817  0.566994
  10534.587  10534.600  0.500  2.283540  86.703930  8.837100  0.506375
  10534.880  10534.900  0.500  2.331930  86.701423  8.419411  0.447243
  10535.183  10535.200  0.500  2.386786  86.693025  7.969226  0.388576
  10535.482  10535.500  0.500  2.446646  86.681526  7.505187  0.333051
  10535.799  10535.800  0.500  2.513639  86.680536  7.018789  0.279703
  10536.088  10536.100  0.500  2.586020  86.676542  6.528412  0.231397
  10536.386  10536.400  0.500  2.667586  86.661172  6.015986  0.186888
  10536.694  10536.700  0.500  2.760064  86.660300  5.484531  0.146487
  10536.998  10537.000  0.500  2.860105  86.650615  4.961854  0.112861
  10537.296  10537.300  0.500  2.971099  86.642086  4.440145  0.084691
  10537.599  10537.600  0.500  3.091908  86.637539  3.934664  0.062353
  10537.903  10537.900  0.500  3.228827  86.628582  3.430831  0.044296
  10538.201  10538.200  0.500  3.376265  86.619523  2.960209  0.030901
  10538.495  10538.500  0.500  3.538897  86.614325  2.515744  0.021045
  10538.798  10538.800  0.500  3.725619  86.608527  2.087109  0.013857
  10539.097  10539.100  0.500  3.932677  86.591826  1.696434  0.009000
  10539.395  10539.400  0.500  4.162631  86.571136  1.347614  0.005801
  10539.689  10539.700  0.500  4.415971  86.543627  1.045691  0.003439
  10539.992  10540.000  0.500  4.698103  86.511218  0.788338  0.002107
  10540.286  10540.300  0.500  4.996988  86.485106  0.584490  0.001403
  10540.589  10540.600  0.500  5.327538  86.471438  0.419906  0.000881
  10540.878  10540.900  0.500  5.653842  86.469135  0.302990  0.000651
  10541.196  10541.200  0.500  6.015284  86.483903  0.211121  0.000326
  10541.485  10541.500  0.500  6.347537  86.509046  0.151482  0.000295
  10541.789  10541.800  0.500  6.677424  86.521792  0.108932  0.000156
  10542.092  10542.100  0.500  6.980738  86.530703  0.080440  0.000211
  10542.396  10542.400  0.500  7.242293  86.529733  0.061927  0.000161
  10542.704  10542.700  0.500  7.480363  86.521803  0.048803  0.000150
  10542.989  10543.000  0.500  7.658121  86.516916  0.040853  0.000161
  10543.302  10543.300  0.500  7.790854  86.509169  0.035772  0.000210
  10543.601  10543.600  0.500  7.850002  86.504087  0.033715  0.000185
  10543.899  10543.900  0.500  7.837214  86.498967  0.034147  0.000216
  10544.203  10544.200  0.500  7.719618  86.481565  0.038400  0.000121
  10544.497  10544.500  0.500  7.525271  86.474571  0.046634  0.000164
  10544.806  10544.800  0.500  7.253899  86.472603  0.061172  0.000170
  10545.100  10545.100  0.500  6.945732  86.469464  0.083247  0.000499
  10545.399  10545.400  0.500  6.609448  86.466137  0.116520  0.000676
  10545.697  10545.700  0.500  6.279309  86.452007  0.162071  0.000656
  10545.992  10546.000  0.500  5.962318  86.444827  0.222504  0.001299
  10546.295  10546.300  0.500  5.660149  86.437782  0.300976  0.001977
  10546.585  10546.600  0.500  5.385546  86.428267  0.396043  0.002848
  10546.888  10546.900  0.500  5.144234  86.424347  0.504108  0.003962
  10547.192  10547.200  0.500  4.921210  86.411727  0.629968  0.005779
  10547.501  10547.500  0.500  4.731886  86.404865  0.761213  0.007681
  10547.805  10547.800  0.500  4.568891  86.406509  0.895988  0.010032
  10548.104  10548.100  0.500  4.424562  86.394466  1.034959  0.012681
  10548.408  10548.400  0.500  4.303824  86.386774  1.167670  0.015539
  10548.707  10548.700  0.500  4.205231  86.379931  1.288559  0.018474
  10549.011  10549.000  0.500  4.121610  86.369228  1.400769  0.021474
  10549.305  10549.300  0.500  4.057644  86.362386  1.493181  0.024247
  10549.599  10549.600  0.500  4.008911  86.353385  1.567587  0.026978
  10549.908  10549.900  0.500  3.972749  86.348304  1.625215  0.029384
  10550.198  10550.200  0.500  3.950396  86.342940  1.661849  0.031123
  10550.497  10550.500  0.500  3.937689  86.338508  1.683015  0.032608
  10550.791  10550.800  0.500  3.934046  86.322891  1.688852  0.033691
  10551.095  10551.100  0.500  3.937339  86.325481  1.683350  0.034333
  10551.385  10551.400  0.500  3.945898  86.319604  1.668889  0.034734
  10551.698  10551.700  0.500  3.959411  86.303232  1.646178  0.034815
  10551.998  10552.000  0.500  3.976352  86.295556  1.618381  0.034771
  10552.292  10552.300  0.500  3.994896  86.293181  1.588602  0.034613
  10552.596  10552.600  0.500  4.016160  86.286096  1.555051  0.034037
  10552.905  10552.900  0.500  4.038473  86.274990  1.520542  0.033663
  10553.200  10553.200  0.500  4.059698  86.275257  1.488613  0.033106
  10553.509  10553.500  0.500  4.081018  86.262824  1.457001  0.032721
  10553.808  10553.800  0.500  4.100648  86.263350  1.428689  0.032116
  10554.098  10554.100  0.500  4.115548  86.251582  1.407367  0.031833
  10554.407  10554.400  0.500  4.126375  86.241052  1.392041  0.031754
  10554.706  10554.700  0.500  4.131913  86.232966  1.384223  0.031892
  10555.001  10555.000  0.500  4.130489  86.208950  1.385810  0.032049
  10555.296  10555.300  0.500  4.121830  86.177369  1.397350  0.032611
  10555.595  10555.600  0.500  4.107540  86.149052  1.416996  0.033124
  10555.890  10555.900  0.500  4.087549  86.121118  1.445139  0.034323
  10556.189  10556.200  0.500  4.062389  86.097793  1.481559  0.035364
  10556.494  10556.500  0.500  4.034742  86.082725  1.522824  0.036696
  10556.788  10556.800  0.500  4.004350  86.083925  1.569839  0.038273
  10557.093  10557.100  0.500  3.971367  86.095332  1.622694  0.039929
  10557.397  10557.400  0.500  3.938799  86.113466  1.676766  0.041663
  10557.697  10557.700  0.500  3.906025  86.095254  1.732264  0.043704
  10558.011  10558.000  0.500  3.871517  86.039308  1.791920  0.045595
  10558.311  10558.300  0.500  3.838992  85.977498  1.849830  0.047506
  10558.600  10558.600  0.500  3.808384  85.938742  1.906465  0.049397
  10558.905  10558.900  0.500  3.777556  85.924748  1.965833  0.051589
  10559.205  10559.200  0.500  3.749221  85.954072  2.023022  0.053542
  10559.500  10559.500  0.500  3.722393  86.014179  2.079483  0.055472
  10559.814  10559.800  0.500  3.696089  86.063174  2.136124  0.057532
  10560.109  10560.100  0.500  3.672831  86.095865  2.187217  0.059325
  10560.302  10560.300  0.500  3.657611  86.103409  2.220957  0.060284
  10561.298  10561.290  0.500  3.593877  86.100753  2.367042  0.065354
  10562.304  10562.290  0.500  3.542962  86.084154  2.490201  0.069374
  10563.334  10563.310  0.500  3.500232  86.055085  2.598036  0.072269
  10564.389  10564.360  0.500  3.465297  86.035221  2.689781  0.074240
  10565.439  10565.420  0.500  3.440141  86.015187  2.757662  0.075347
  10566.509  10566.500  0.500  3.424269  85.999698  2.801276  0.076037
  10567.608  10567.600  0.500  3.414867  85.971190  2.826798  0.076182
  10568.741  10568.720  0.500  3.407942  85.947236  2.845650  0.076381
  10569.879  10569.860  0.500  3.400170  85.929728  2.867270  0.076671
  10571.022  10571.010  0.500  3.389660  85.904138  2.896700  0.077432
  10572.209  10572.190  0.500  3.375704  85.882375  2.936664  0.078455
  10573.387  10573.380  0.500  3.357382  85.859196  2.990159  0.079525
  10574.613  10574.600  0.500  3.334722  85.836511  3.057882  0.080934
  10575.855  10575.830  0.500  3.310495  85.814683  3.132072  0.082181
  10577.087  10577.080  0.500  3.288682  85.785181  3.200045  0.083158
  10578.362  10578.350  0.500  3.270339  85.767430  3.258608  0.083594
  10579.643  10579.640  0.500  3.257403  85.740828  3.300013  0.083329
  10580.968  10580.950  0.500  3.252119  85.709226  3.316272  0.081884
  10582.303  10582.280  0.500  3.255157  85.679317  3.305060  0.079348
  10583.648  10583.630  0.500  3.266508  85.646744  3.266515  0.076170
  10585.018  10585.000  0.500  3.284589  85.609872  3.206601  0.071966
  10586.388  10586.380  0.500  3.305711  85.431885  3.133054  0.067846
  10587.788  10587.790  0.500  3.328093  85.486289  3.065661  0.064087
  10589.212  10589.210  0.500  3.350892  85.558569  2.999090  0.061037
  10590.656  10590.650  0.500  3.372967  85.650531  2.936763  0.058362
  10592.120  10592.110  0.500  3.393761  85.767026  2.880240  0.056735
  10593.595  10593.590  0.500  3.413293  85.738386  2.823585  0.056034
  10595.113  10595.090  0.500  3.431888  85.705297  2.770497  0.055606
  10596.632  10596.610  0.500  3.450729  85.678336  2.717931  0.055975
  10598.175  10598.150  0.500  3.471089  85.613809  2.661147  0.056437
  10599.754  10599.710  0.500  3.492042  85.530058  2.603419  0.056908
  10601.303  10601.280  0.500  3.511116  85.581705  2.555774  0.057418
  10602.902  10602.880  0.500  3.529133  85.551461  2.509253  0.057932
  10604.510  10604.490  0.500  3.545611  85.505338  2.466913  0.058215
  10606.149  10606.130  0.500  3.560252  85.388310  2.427732  0.058711
  10607.813  10607.780  0.500  3.574017  85.455985  2.396441  0.058673
  10609.472  10609.450  0.500  3.585459  85.426192  2.368350  0.059043
  10611.146  10611.140  0.500  3.593896  85.341479  2.346125  0.059386
  10612.875  10612.850  0.500  3.599347  85.309049  2.332484  0.059698
  10614.594  10614.580  0.500  3.600274  85.319369  2.330605  0.060228
  10616.348  10616.330  0.500  3.598265  85.287553  2.334420  0.060508
  10618.093  10618.090  0.500  3.594087  85.232805  2.342689  0.060975
  10619.893  10619.880  0.500  3.587933  85.002527  2.350782  0.061339
  10621.693  10621.680  0.500  3.581112  85.142156  2.370758  0.061913
  10623.523  10623.510  0.500  3.572069  85.167619  2.393010  0.062037
  10625.358  10625.350  0.500  3.562115  85.123057  2.415685  0.062563
  10627.224  10627.210  0.500  3.550889  85.090261  2.442015  0.062811
  10629.100  10629.090  0.500  3.538920  85.049512  2.470236  0.062989
  10631.006  10630.990  0.500  3.527848  85.012734  2.496659  0.063490
  10632.932  10632.910  0.500  3.516900  84.977386  2.523091  0.063784
  10634.879  10634.850  0.500  3.506118  84.934172  2.549145  0.064333
  10636.836  10636.810  0.500  3.494509  84.902164  2.577941  0.064976
  10638.795  10638.780  0.500  3.481813  84.854596  2.609417  0.065723
  10640.802  10640.780  0.500  3.468765  84.813475  2.642405  0.066983
  10642.801  10642.790  0.500  3.455666  84.476316  2.666603  0.067542
  10644.850  10644.820  0.500  3.443525  84.642529  2.704487  0.068648
  10646.890  10646.880  0.500  3.431955  84.726099  2.738661  0.069415
  10648.969  10648.950  0.500  3.420979  84.682060  2.767447  0.069709
  10651.045  10651.040  0.500  3.411360  84.639000  2.792772  0.069892
  10653.176  10653.150  0.500  3.402632  84.598018  2.815890  0.069474
  10655.302  10655.280  0.500  3.394996  84.555760  2.836058  0.069094
  10657.435  10657.420  0.500  3.389135  84.509785  2.851179  0.068514
  10659.608  10659.590  0.500  3.384354  84.449008  2.862783  0.068055
  10661.786  10661.780  0.500  3.381557  84.173237  2.861425  0.067134
  10664.005  10663.980  0.500  3.381120  84.308609  2.867281  0.067161
  10666.215  10666.200  0.500  3.381191  84.356662  2.868712  0.066972
  10668.475  10668.450  0.500  3.382520  84.312691  2.863408  0.066880
  10670.722  10670.710  0.500  3.384671  84.261199  2.855511  0.066959
  10673.009  10672.990  0.500  3.387872  84.216313  2.844869  0.067109
  10675.296  10675.290  0.500  3.392333  84.162680  2.830403  0.067097
  10677.635  10677.610  0.500  3.397121  84.070790  2.813807  0.067152
  10679.964  10679.950  0.500  3.403452  83.731293  2.784758  0.067230
  10682.305  10682.300  0.500  3.409704  84.051648  2.777991  0.067522
  10684.706  10684.680  0.500  3.416493  84.001456  2.757545  0.067693
  10687.078  10687.070  0.500  3.423499  83.953006  2.736716  0.067532
  10689.516  10689.490  0.500  3.431242  83.905563  2.714071  0.067959
  10691.940  10691.920  0.500  3.438215  83.855534  2.693605  0.067884
  10694.395  10694.370  0.500  3.445219  83.797948  2.672969  0.067918
  10696.866  10696.850  0.500  3.451384  83.739622  2.654690  0.067669
  10699.368  10699.340  0.500  3.457213  83.159643  2.620982  0.067179
  10701.856  10701.850  0.500  3.461678  83.693808  2.626067  0.067572
  10704.390  10704.370  0.500  3.464976  83.638719  2.615697  0.067663
  10706.930  10706.920  0.500  3.467577  83.586896  2.607285  0.067444
  10709.507  10709.490  0.500  3.468775  83.535800  2.602572  0.067379
  10712.089  10712.070  0.500  3.469304  83.488199  2.599714  0.067451
  10714.693  10714.680  0.500  3.468573  83.433794  2.599920  0.067350
  10717.313  10717.300  0.500  3.467474  83.382067  2.601165  0.067400
  10719.964  10719.950  0.500  3.465570  83.337302  2.604722  0.067299
  10722.627  10722.610  0.500  3.463131  83.286823  2.609503  0.067358
  10725.306  10725.290  0.500  3.459393  83.234113  2.617618  0.067483
  10728.001  10727.990  0.500  3.455471  83.183397  2.626303  0.067914
  10730.707  10730.710  0.500  3.450859  83.128626  2.636705  0.068160
  10733.470  10733.450  0.500  3.445747  83.076018  2.648541  0.068708
  10736.210  10736.200  0.500  3.440501  83.020372  2.660690  0.069024
  10738.990  10738.980  0.500  3.434697  82.962975  2.674326  0.069514
  10741.778  10741.770  0.500  3.428658  82.773502  2.684382  0.069559
  10744.601  10744.590  0.500  3.422234  82.853500  2.704292  0.070044
  10747.422  10747.420  0.500  3.415616  82.805130  2.720657  0.070101
  10750.289  10750.270  0.500  3.409188  82.750021  2.736381  0.070786
  10753.167  10753.150  0.500  3.402532  82.696287  2.752868  0.070744
  10756.052  10756.040  0.500  3.395981  82.634918  2.768902  0.071171
  10758.964  10758.950  0.500  3.388797  82.575601  2.786866  0.071480
  10761.878  10761.870  0.500  3.382451  82.521277  2.802762  0.072068
  10764.828  10764.820  0.500  3.376239  82.460274  2.818143  0.072375
  10767.805  10767.790  0.500  3.370852  82.407140  2.831539  0.073009
  10770.784  10770.770  0.500  3.365527  82.348833  2.844644  0.073345
  10773.794  10773.780  0.500  3.361038  82.288701  2.855354  0.073986
  10776.811  10776.800  0.500  3.356684  82.227443  2.865678  0.074660
  10779.866  10779.850  0.500  3.353125  82.172702  2.873980  0.075051
  10782.927  10782.910  0.500  3.350493  82.112241  2.879436  0.075842
  10786.005  10785.990  0.500  3.348099  81.773930  2.874445  0.075899
