# XDI/1.0 BlueSky/1.10.0 BMM/2023-1.0-py310-tiled
# Beamline.name: BMM (06BM) -- Beamline for Materials Measurement (NIST)
# Beamline.xray_source: NSLS-II three-pole wiggler
# Beamline.collimation: paraboloid mirror, 5 nm Rh on 30 nm Pt
# Beamline.focusing: not in use
# Beamline.harmonic_rejection: flat mirror, Pt stripe, pitch = 7.0 mrad relative to beam
# Beamline.software: Bluesky 1.10.0, Ophyd 1.7.0, DataBroker 2.0.0b13, Python 3.10.8, 2023-1.0-py310-tiled
# Detector.I0: 10 cm N2
# Detector.I1: 25 cm N2
# Detector.I2: 25 cm N2
# Element.symbol: Re
# Element.edge: L1
# Element.reference: Re
# Element.reference_material: ReO2
# Facility.name: NSLS-II
# Facility.energy: 3.0
# Facility.current: 399.9
# Facility.mode: top-off
# Facility.GUP: 301027
# Facility.SAF: 310583
# Facility.cycle: 2023-2
# Mono.name: Si(111)
# Mono.d_spacing: 3.1351860
# Mono.encoder_resolution: 0.0000050 deg/ct
# Mono.angle_offset: 16.0754326 deg
# Mono.scan_mode: pseudo channel cut
# Mono.scan_type: step
# Mono.direction: forward in energy
# Sample.name: ReO2, Rhenium dioxide
# Sample.prep: powder on tape
# Sample.x: 145.711 mm
# Sample.y: 114.376 mm
# Sample.SDD_position: 205.000 mm
# Scan.experimenters: Bruce Ravel
# Scan.edge_energy: 12526.7
# Scan.start_time: 2023-06-27T19:08:28
# Scan.end_time: 2023-06-27T19:16:12
# Scan.transient_id: 85249
# Scan.uid: 518c6d96-d78a-4c02-b8ef-6abf002c69a0
# Scan.plot_hint: ln(I0/It)  --  ln($5/$6)
# Column.1: energy eV
# Column.2: requested_energy eV
# Column.3: measurement_time seconds
# Column.4: xmu 
# Column.5: I0 nA
# Column.6: It nA
# Column.7: Ir nA
# ///////////
# Welcome to BMM
# -----------
# energy  requested_energy  measurement_time  xmu  I0  It  Ir
  12326.638  12326.700  0.500  2.798637  56.022180  3.411359  0.111812
  12336.708  12336.700  0.500  2.790890  55.942473  3.432999  0.113408
  12346.728  12346.700  0.500  2.783743  55.838055  3.451166  0.114918
  12356.757  12356.700  0.500  2.776813  55.648406  3.463365  0.115874
  12366.737  12366.700  0.500  2.771771  55.591908  3.477337  0.117032
  12376.779  12376.700  0.500  2.766593  55.481788  3.488464  0.118121
  12386.738  12386.700  0.500  2.759850  55.360511  3.504392  0.119503
  12396.760  12396.700  0.500  2.752026  55.238804  3.524153  0.121034
  12406.805  12406.700  0.500  2.745456  55.114657  3.539410  0.122483
  12416.705  12416.700  0.500  2.740243  54.954206  3.547549  0.123285
  12426.729  12426.700  0.500  2.736037  54.849344  3.555704  0.124005
  12436.743  12436.700  0.500  2.731937  54.375257  3.539452  0.124028
  12446.739  12446.700  0.500  2.727909  54.630620  3.570428  0.125652
  12456.744  12456.700  0.500  2.722681  54.511231  3.581300  0.126551
  12466.753  12466.700  0.500  2.717177  54.371674  3.591847  0.127802
  12476.737  12476.700  0.500  2.711402  54.244058  3.604169  0.128939
  12486.744  12486.700  0.500  2.705120  53.825597  3.598904  0.129430
  12496.747  12496.700  0.500  2.699725  54.025422  3.631803  0.131376
  12498.707  12498.700  0.500  2.698490  53.995614  3.634285  0.131541
  12500.675  12500.700  0.500  2.697570  53.983732  3.636830  0.131779
  12502.691  12502.700  0.500  2.696835  53.954530  3.637535  0.131987
  12504.680  12504.700  0.500  2.696855  53.918201  3.635014  0.131762
  12506.684  12506.700  0.500  2.696088  53.896983  3.636371  0.131887
  12508.688  12508.700  0.500  2.695998  53.876544  3.635319  0.131982
  12510.673  12510.700  0.500  2.695800  53.852837  3.634442  0.131852
  12512.672  12512.700  0.500  2.696377  53.823068  3.630334  0.131944
  12514.671  12514.700  0.500  2.696539  53.798217  3.628071  0.131651
  12516.692  12516.700  0.500  2.697731  53.763796  3.621430  0.131024
  12516.965  12517.000  0.500  2.697542  53.760359  3.621886  0.131290
  12517.252  12517.300  0.500  2.697666  53.756643  3.621185  0.131148
  12517.559  12517.600  0.500  2.698006  53.751913  3.619636  0.131004
  12517.866  12517.900  0.500  2.698417  53.740418  3.617373  0.130906
  12518.153  12518.200  0.500  2.698193  53.746101  3.618566  0.130788
  12518.460  12518.500  0.500  2.698634  53.740548  3.616598  0.130893
  12518.747  12518.800  0.500  2.698867  53.732786  3.615235  0.130777
  12519.068  12519.100  0.500  2.698864  53.728078  3.614928  0.130847
  12519.348  12519.400  0.500  2.699013  53.723429  3.614075  0.130673
  12519.649  12519.700  0.500  2.699452  53.718962  3.612191  0.130310
  12519.956  12520.000  0.500  2.699701  53.715249  3.611040  0.130431
  12520.250  12520.300  0.500  2.700070  53.715163  3.609703  0.130259
  12520.578  12520.600  0.500  2.700647  53.710545  3.607312  0.130196
  12520.865  12520.900  0.500  2.700767  53.708946  3.606770  0.129976
  12521.166  12521.200  0.500  2.701536  53.703444  3.603629  0.130067
  12521.473  12521.500  0.500  2.701861  53.688932  3.601484  0.129846
  12521.767  12521.800  0.500  2.702187  53.692485  3.600547  0.129655
  12522.102  12522.100  0.500  2.702713  53.683619  3.598060  0.129474
  12522.382  12522.400  0.500  2.703163  53.677607  3.596039  0.129435
  12522.689  12522.700  0.500  2.703738  53.673818  3.593718  0.129240
  12522.976  12523.000  0.500  2.704204  53.667288  3.591605  0.129090
  12523.284  12523.300  0.500  2.704919  53.658956  3.588484  0.128936
  12523.592  12523.600  0.500  2.705566  53.657161  3.586043  0.128816
  12523.885  12523.900  0.500  2.706253  53.647797  3.582955  0.128584
  12524.193  12524.200  0.500  2.707134  53.645822  3.579665  0.128396
  12524.487  12524.500  0.500  2.707689  53.643960  3.577556  0.127832
  12524.801  12524.800  0.500  2.708560  53.633322  3.573732  0.127875
  12525.095  12525.100  0.500  2.709332  53.637255  3.571237  0.127687
  12525.389  12525.400  0.500  2.710742  53.628803  3.565641  0.127354
  12525.677  12525.700  0.500  2.711762  53.624896  3.561747  0.127154
  12525.984  12526.000  0.500  2.712663  53.618520  3.558118  0.126579
  12526.285  12526.300  0.500  2.713927  53.624461  3.554017  0.126414
  12526.579  12526.600  0.500  2.715389  53.612416  3.548027  0.126080
  12526.873  12526.900  0.500  2.716936  53.780169  3.553627  0.125808
  12527.174  12527.200  0.500  2.718580  53.778844  3.547703  0.125343
  12527.475  12527.500  0.500  2.720303  53.768904  3.540941  0.125243
  12527.776  12527.800  0.500  2.722296  53.766379  3.533724  0.124358
  12528.077  12528.100  0.500  2.724248  53.768490  3.526971  0.123948
  12528.392  12528.400  0.500  2.726708  53.762912  3.517940  0.123200
  12528.686  12528.700  0.500  2.729123  53.755082  3.508943  0.122938
  12528.987  12529.000  0.500  2.731800  53.746688  3.499015  0.121948
  12529.281  12529.300  0.500  2.734299  53.751275  3.490582  0.121376
  12529.603  12529.600  0.500  2.737752  53.739321  3.477775  0.120560
  12529.897  12529.900  0.500  2.740406  53.741759  3.468716  0.119779
  12530.218  12530.200  0.500  2.744004  53.736700  3.455933  0.118757
  12530.492  12530.500  0.500  2.747326  53.726355  3.443807  0.118074
  12530.821  12530.800  0.500  2.751190  53.724897  3.430434  0.117098
  12531.101  12531.100  0.500  2.754459  53.722361  3.419077  0.116309
  12531.409  12531.400  0.500  2.759075  53.712920  3.402733  0.115266
  12531.703  12531.700  0.500  2.763119  53.710139  3.388823  0.114321
  12531.998  12532.000  0.500  2.767088  53.705880  3.375131  0.113421
  12532.292  12532.300  0.500  2.771208  53.698204  3.360776  0.112055
  12532.579  12532.600  0.500  2.775523  53.695947  3.346163  0.111366
  12532.888  12532.900  0.500  2.779885  53.692088  3.331361  0.110464
  12533.182  12533.200  0.500  2.784078  53.690628  3.317332  0.109194
  12533.483  12533.500  0.500  2.788268  53.686042  3.303179  0.108349
  12533.784  12533.800  0.500  2.792797  53.677575  3.287732  0.107602
  12534.092  12534.100  0.500  2.797203  53.682094  3.273555  0.106642
  12534.387  12534.400  0.500  2.801035  53.671758  3.260407  0.105522
  12534.688  12534.700  0.500  2.805246  53.660419  3.246020  0.104678
  12534.996  12535.000  0.500  2.808833  53.666420  3.234758  0.103814
  12535.298  12535.300  0.500  2.812458  53.646892  3.221881  0.103061
  12535.599  12535.600  0.500  2.815885  53.649552  3.211017  0.102390
  12535.900  12535.900  0.500  2.818882  53.642938  3.201016  0.101610
  12536.208  12536.200  0.500  2.822107  53.641418  3.190619  0.100981
  12536.496  12536.500  0.500  2.825177  53.628380  3.180063  0.100269
  12536.811  12536.800  0.500  2.827777  53.620954  3.171367  0.099849
  12537.106  12537.100  0.500  2.830212  53.623088  3.163781  0.098991
  12537.421  12537.400  0.500  2.833495  53.614921  3.152929  0.098505
  12537.702  12537.700  0.500  2.836970  53.608762  3.141633  0.097986
  12537.996  12538.000  0.500  2.840066  53.603109  3.131591  0.097114
  12538.298  12538.300  0.500  2.843698  53.591832  3.119580  0.096206
  12538.599  12538.600  0.500  2.847736  53.587699  3.106769  0.095468
  12538.894  12538.900  0.500  2.852400  53.575361  3.091600  0.094459
  12539.189  12539.200  0.500  2.856814  53.548916  3.076465  0.093572
  12539.490  12539.500  0.500  2.861833  53.521917  3.059520  0.092642
  12539.798  12539.800  0.500  2.867566  53.461862  3.038617  0.091313
  12540.093  12540.100  0.500  2.873323  53.369562  3.015957  0.090310
  12540.395  12540.400  0.500  2.879136  53.255908  2.992093  0.088673
  12540.703  12540.700  0.500  2.885746  53.162962  2.967192  0.087680
  12541.005  12541.000  0.500  2.892022  53.124374  2.946486  0.086208
  12541.306  12541.300  0.500  2.898957  53.125121  2.926166  0.085049
  12541.608  12541.600  0.500  2.905277  53.195561  2.911585  0.083913
  12541.916  12541.900  0.500  2.912866  53.278670  2.894088  0.082662
  12542.204  12542.200  0.500  2.919782  53.362908  2.878685  0.081529
  12542.513  12542.500  0.500  2.926812  53.435957  2.862433  0.080672
  12542.794  12542.800  0.500  2.933628  53.485231  2.845612  0.079460
  12543.116  12543.100  0.500  2.940952  53.535974  2.827525  0.078603
  12543.404  12543.400  0.500  2.948044  53.543269  2.807926  0.077132
  12543.713  12543.700  0.500  2.955600  53.546006  2.786933  0.076010
  12544.008  12544.000  0.500  2.962439  53.547840  2.768033  0.074829
  12544.309  12544.300  0.500  2.969841  53.538048  2.747116  0.073826
  12544.591  12544.600  0.500  2.976928  53.539656  2.727799  0.072609
  12544.899  12544.900  0.500  2.983842  53.533314  2.708683  0.071558
  12545.180  12545.200  0.500  2.990425  53.525974  2.690540  0.070371
  12545.496  12545.500  0.500  2.997530  53.521052  2.671246  0.069483
  12545.791  12545.800  0.500  3.003907  53.514592  2.653945  0.068487
  12546.093  12546.100  0.500  3.010651  53.505992  2.635683  0.067618
  12546.381  12546.400  0.500  3.016584  53.504663  2.620028  0.066961
  12546.703  12546.700  0.500  3.022463  53.503916  2.604633  0.066018
  12546.998  12547.000  0.500  3.027769  53.498627  2.590594  0.065222
  12547.300  12547.300  0.500  3.034181  53.487416  2.573496  0.064409
  12547.588  12547.600  0.500  3.038825  53.490447  2.561719  0.063745
  12547.911  12547.900  0.500  3.044285  53.481132  2.547326  0.062961
  12548.199  12548.200  0.500  3.049227  53.480843  2.534755  0.062343
  12548.501  12548.500  0.500  3.053731  53.468192  2.522766  0.061907
  12548.796  12548.800  0.500  3.058592  53.460842  2.510187  0.061204
  12549.112  12549.100  0.500  3.062117  53.462606  2.501438  0.060711
  12549.400  12549.400  0.500  3.066378  53.450011  2.490214  0.060012
  12549.716  12549.700  0.500  3.070262  53.451648  2.480636  0.059559
  12549.997  12550.000  0.500  3.073906  53.449772  2.471529  0.059223
  12550.313  12550.300  0.500  3.077575  53.442884  2.462158  0.058987
  12550.595  12550.600  0.500  3.080809  53.441081  2.454125  0.058348
  12550.904  12550.900  0.500  3.084343  53.439830  2.445410  0.058160
  12551.199  12551.200  0.500  3.086980  53.434719  2.438738  0.057398
  12551.494  12551.500  0.500  3.089875  53.424800  2.431238  0.057391
  12551.686  12551.700  0.500  3.091519  53.427064  2.427345  0.056903
  12552.689  12552.690  0.500  3.098687  53.410784  2.409275  0.056182
  12553.692  12553.690  0.500  3.102114  53.395912  2.400364  0.055711
  12554.729  12554.710  0.500  3.102177  53.381764  2.399577  0.055787
  12555.787  12555.760  0.500  3.099460  53.368650  2.405515  0.056064
  12556.838  12556.820  0.500  3.094839  53.352235  2.415912  0.056481
  12557.917  12557.900  0.500  3.090832  53.346148  2.425335  0.057123
  12559.017  12559.000  0.500  3.087873  53.329349  2.431757  0.057259
  12560.138  12560.120  0.500  3.085596  53.316139  2.436697  0.057723
  12561.279  12561.260  0.500  3.084682  53.301123  2.438237  0.057737
  12562.428  12562.410  0.500  3.083939  53.285373  2.439330  0.057970
  12563.618  12563.590  0.500  3.082738  53.267117  2.441424  0.057966
  12564.801  12564.780  0.500  3.080200  53.256063  2.447119  0.058341
  12565.998  12566.000  0.500  3.075363  53.243301  2.458395  0.058818
  12567.237  12567.230  0.500  3.068307  53.228867  2.475133  0.059788
  12568.497  12568.480  0.500  3.058763  53.206386  2.497814  0.060897
  12569.785  12569.750  0.500  3.048749  53.191591  2.522249  0.062347
  12571.059  12571.040  0.500  3.038312  53.170675  2.547710  0.063478
  12572.368  12572.350  0.500  3.028689  53.156103  2.571641  0.064883
  12573.684  12573.680  0.500  3.020444  53.139915  2.592141  0.065997
  12575.034  12575.030  0.500  3.013308  53.132312  2.610330  0.067007
  12576.420  12576.400  0.500  3.007761  53.090967  2.622808  0.067576
  12577.813  12577.780  0.500  3.003667  53.076943  2.632873  0.068226
  12579.206  12579.190  0.500  3.000264  53.065831  2.641294  0.068575
  12580.620  12580.610  0.500  2.997410  53.044279  2.647768  0.069123
  12582.048  12582.050  0.500  2.995173  53.033243  2.653146  0.069247
  12583.524  12583.510  0.500  2.993079  53.013432  2.657713  0.069533
  12585.008  12584.990  0.500  2.991284  52.998058  2.661716  0.069840
  12586.514  12586.490  0.500  2.989920  52.982028  2.664543  0.070091
  12588.019  12588.010  0.500  2.988328  52.959458  2.667652  0.070276
  12589.546  12589.550  0.500  2.987022  52.941461  2.670231  0.070388
  12591.107  12591.110  0.500  2.985449  52.928445  2.673776  0.070480
  12592.710  12592.680  0.500  2.983934  52.910759  2.676935  0.070896
  12594.293  12594.280  0.500  2.982938  52.888577  2.678479  0.070855
  12595.898  12595.890  0.500  2.982780  52.861072  2.677509  0.070794
  12597.530  12597.530  0.500  2.981801  52.843443  2.679240  0.071009
  12599.197  12599.180  0.500  2.982316  52.824973  2.676923  0.070955
  12600.851  12600.850  0.500  2.983044  52.791236  2.673267  0.070710
  12602.561  12602.540  0.500  2.984090  52.768750  2.669334  0.070493
  12604.250  12604.250  0.500  2.985294  52.763603  2.665863  0.070336
  12605.995  12605.980  0.500  2.987469  52.739214  2.658841  0.070073
  12607.748  12607.730  0.500  2.989647  52.717975  2.651987  0.069548
  12609.508  12609.490  0.500  2.992292  52.695846  2.643873  0.069314
  12611.262  12611.280  0.500  2.994740  52.673169  2.636274  0.068788
  12613.078  12613.080  0.500  2.997562  52.656551  2.628013  0.068435
  12614.909  12614.910  0.500  2.999949  52.631417  2.620498  0.067894
  12616.727  12616.750  0.500  3.001403  52.610805  2.615666  0.067744
  12618.594  12618.610  0.500  3.002306  52.593089  2.612424  0.067537
  12620.468  12620.490  0.500  3.002022  52.554277  2.611238  0.067581
  12622.370  12622.390  0.500  3.000562  52.470640  2.610893  0.067668
  12624.294  12624.310  0.500  2.998886  52.510890  2.617279  0.067715
  12626.212  12626.250  0.500  2.996798  52.479819  2.621197  0.068197
  12628.784  12628.210  0.500  2.993676  52.391135  2.624950  0.068488
  12630.126  12630.180  0.500  2.991783  52.429651  2.631855  0.068966
  12632.351  12632.180  0.500  2.989006  52.406374  2.638004  0.069065
  12634.348  12634.190  0.500  2.987061  52.331880  2.639383  0.069547
  12636.227  12636.220  0.500  2.985145  52.334040  2.644552  0.069789
  12638.301  12638.280  0.500  2.983983  52.334841  2.647667  0.069861
  12640.376  12640.350  0.500  2.982299  52.304091  2.650573  0.069901
  12642.466  12642.440  0.500  2.980852  52.208595  2.649563  0.070021
  12644.571  12644.550  0.500  2.978767  52.261407  2.657781  0.070521
  12646.718  12646.680  0.500  2.976628  52.238083  2.662284  0.070594
  12648.845  12648.820  0.500  2.974188  52.196202  2.666646  0.071012
  12650.993  12650.990  0.500  2.971258  52.174052  2.673337  0.071260
  12653.191  12653.180  0.500  2.968085  52.153316  2.680767  0.071930
  12655.411  12655.380  0.500  2.965120  52.133950  2.687727  0.072286
  12657.638  12657.600  0.500  2.961793  52.102788  2.695073  0.072703
  12659.874  12659.850  0.500  2.959310  52.066925  2.699914  0.073155
  12662.110  12662.110  0.500  2.956334  52.048949  2.707025  0.073473
  12664.389  12664.390  0.500  2.953801  52.016303  2.712189  0.073823
  12666.703  12666.690  0.500  2.951747  51.983596  2.716056  0.074183
  12669.040  12669.010  0.500  2.949173  51.959456  2.721793  0.074397
  12671.384  12671.350  0.500  2.947072  51.923581  2.725634  0.074744
  12673.716  12673.700  0.500  2.945072  51.898605  2.729778  0.075011
  12676.097  12676.080  0.500  2.943662  51.875176  2.732394  0.075241
  12678.472  12678.470  0.500  2.942444  51.843080  2.734032  0.075391
  12680.890  12680.890  0.500  2.941248  51.811710  2.735648  0.075499
  12683.337  12683.320  0.500  2.940709  51.783307  2.735623  0.075476
  12685.785  12685.770  0.500  2.940027  51.750120  2.735735  0.075317
  12688.262  12688.250  0.500  2.939786  51.721052  2.734857  0.075772
  12690.719  12690.740  0.500  2.939589  51.834200  2.741379  0.075706
  12693.254  12693.250  0.500  2.938954  51.831263  2.742964  0.075923
  12695.790  12695.770  0.500  2.938747  51.802630  2.742018  0.075585
  12698.342  12698.320  0.500  2.939023  51.771881  2.739634  0.075791
  12700.922  12700.890  0.500  2.938665  51.737674  2.738805  0.075407
  12703.482  12703.470  0.500  2.938700  51.699597  2.736693  0.075574
  12706.086  12706.080  0.500  2.937749  51.671375  2.737800  0.075673
  12708.719  12708.700  0.500  2.936169  51.639264  2.740425  0.075846
  12711.360  12711.350  0.500  2.934693  51.607260  2.742773  0.076049
  12714.023  12714.010  0.500  2.932417  51.572515  2.747171  0.076301
  12716.688  12716.690  0.500  2.930289  51.541217  2.751352  0.076773
  12719.382  12719.390  0.500  2.928190  51.508458  2.755381  0.076813
  12722.119  12722.110  0.500  2.925532  51.472097  2.760766  0.077252
  12724.857  12724.850  0.500  2.923076  51.440627  2.765862  0.077349
  12727.597  12727.600  0.500  2.921399  51.407006  2.768694  0.077970
  12730.366  12730.380  0.500  2.919640  51.373607  2.771767  0.078101
  12733.172  12733.170  0.500  2.917886  51.329047  2.774224  0.078202
  12735.993  12735.990  0.500  2.915594  51.243180  2.775937  0.078496
  12738.822  12738.820  0.500  2.913710  50.621330  2.747421  0.077929
  12741.653  12741.670  0.500  2.911343  51.244510  2.787836  0.079105
  12744.528  12744.550  0.500  2.908521  51.217264  2.794228  0.079724
  12747.439  12747.440  0.500  2.905976  51.180132  2.799317  0.079862
  12750.366  12750.350  0.500  2.902969  51.145603  2.805852  0.080139
  12753.258  12753.270  0.500  2.900203  51.107283  2.811515  0.080739
  12756.216  12756.220  0.500  2.897649  51.072033  2.816762  0.081214
  12759.196  12759.190  0.500  2.895182  51.039824  2.821938  0.081486
  12762.178  12762.170  0.500  2.892189  51.004798  2.828454  0.081774
  12765.169  12765.180  0.500  2.889813  50.966996  2.833082  0.082345
  12768.196  12768.200  0.500  2.887350  50.929536  2.837981  0.082666
  12771.275  12771.250  0.500  2.885053  50.890619  2.842333  0.083165
  12774.319  12774.310  0.500  2.882646  50.847672  2.846780  0.083243
  12777.387  12777.390  0.500  2.880753  50.818684  2.850548  0.083623
  12780.491  12780.490  0.500  2.878952  50.774602  2.853207  0.083552
