# XDI/1.0 BlueSky/1.10.0 BMM/2023-1.0-py310-tiled
# Beamline.name: BMM (06BM) -- Beamline for Materials Measurement (NIST)
# Beamline.xray_source: NSLS-II three-pole wiggler
# Beamline.collimation: paraboloid mirror, 5 nm Rh on 30 nm Pt
# Beamline.focusing: not in use
# Beamline.harmonic_rejection: flat mirror, Pt stripe, pitch = 7.0 mrad relative to beam
# Beamline.software: Bluesky 1.10.0, Ophyd 1.7.0, DataBroker 2.0.0b13, Python 3.10.8, 2023-1.0-py310-tiled
# Detector.I0: 10 cm N2
# Detector.I1: 25 cm N2
# Detector.I2: 25 cm N2
# Element.symbol: Re
# Element.edge: L3
# Element.reference: Re
# Element.reference_material: ReO2
# Facility.name: NSLS-II
# Facility.energy: 3.0
# Facility.current: 399.2
# Facility.mode: top-off
# Facility.GUP: 301027
# Facility.SAF: 310583
# Facility.cycle: 2023-2
# Mono.name: Si(111)
# Mono.d_spacing: 3.1351860
# Mono.encoder_resolution: 0.0000050 deg/ct
# Mono.angle_offset: 16.0754326 deg
# Mono.scan_mode: pseudo channel cut
# Mono.scan_type: step
# Mono.direction: forward in energy
# Sample.name: ReO2
# Sample.prep: powder on tape
# Sample.x: 109.138 mm
# Sample.y: 153.150 mm
# Sample.SDD_position: 205.000 mm
# Scan.experimenters: Bruce Ravel
# Scan.edge_energy: 10535.3
# Scan.start_time: 2023-05-28T18:14:35
# Scan.end_time: 2023-05-28T18:22:46
# Scan.transient_id: 78903
# Scan.uid: 741b7d23-8b99-4040-9f1f-c6106763412c
# Scan.plot_hint: ln(It/Ir)  --  ln($6/$7)
# Column.1: energy eV
# Column.2: requested_energy eV
# Column.3: measurement_time seconds
# Column.4: xmu 
# Column.5: I0 nA
# Column.6: It nA
# Column.7: Ir nA
# ///////////
# Welcome to BMM
# -----------
# energy  requested_energy  measurement_time  xmu  I0  It  Ir
  10335.297  10335.300  0.500  2.009502  90.420348  141.811636  19.010621
  10345.343  10345.300  0.500  2.004060  90.304364  141.725679  19.102774
  10355.349  10355.300  0.500  1.998600  90.120705  141.525928  19.180281
  10365.365  10365.300  0.500  1.993121  89.898695  141.265024  19.250105
  10375.332  10375.300  0.500  1.987845  89.965230  141.452898  19.377682
  10385.359  10385.300  0.500  1.982323  89.768447  141.247360  19.456663
  10395.379  10395.300  0.500  1.977056  89.620581  141.095846  19.538425
  10405.310  10405.300  0.500  1.971912  89.447586  140.916683  19.614255
  10415.322  10415.300  0.500  1.966849  89.276545  140.723975  19.686861
  10425.330  10425.300  0.500  1.961823  89.103765  140.538981  19.760043
  10435.338  10435.300  0.500  1.957006  88.918894  140.332123  19.826225
  10445.334  10445.300  0.500  1.952560  88.733320  140.134654  19.886546
  10455.324  10455.300  0.500  1.948370  88.559153  139.940823  19.942426
  10465.359  10465.300  0.500  1.944950  88.385220  139.747855  19.983165
  10475.365  10475.300  0.500  1.942462  88.219904  139.570006  20.007444
  10485.371  10485.300  0.500  1.941750  88.033700  139.364077  19.992159
  10495.340  10495.300  0.500  1.944494  87.870421  139.189288  19.912363
  10505.343  10505.300  0.500  1.954938  87.711119  139.023056  19.681951
  10507.285  10507.300  0.500  1.958467  87.655617  138.956135  19.603178
  10509.286  10509.300  0.500  1.963313  87.613030  138.903919  19.501082
  10511.268  10511.300  0.500  1.968900  87.523865  138.765106  19.373040
  10513.276  10513.300  0.500  1.976357  87.520665  138.786296  19.232057
  10515.269  10515.300  0.500  1.985450  87.497772  138.763577  19.054851
  10517.268  10517.300  0.500  1.997461  87.447583  138.689802  18.817332
  10519.277  10519.300  0.500  2.012642  87.422305  138.690798  18.533968
  10521.278  10521.300  0.500  2.032877  87.388764  138.634719  18.155363
  10523.275  10523.300  0.500  2.060588  87.338674  138.584464  17.652763
  10525.272  10525.300  0.500  2.098569  87.153028  138.301154  16.960117
  10525.560  10525.600  0.500  2.105571  87.086276  138.188188  16.828019
  10525.858  10525.900  0.500  2.113154  87.056557  138.146938  16.695919
  10526.151  10526.200  0.500  2.120981  87.070688  138.183913  16.570179
  10526.458  10526.500  0.500  2.129772  87.064711  138.169399  16.423416
  10526.751  10526.800  0.500  2.138842  87.102268  138.230452  16.282326
  10527.068  10527.100  0.500  2.148817  87.125963  138.267996  16.125090
  10527.356  10527.400  0.500  2.158740  87.174638  138.349487  15.975280
  10527.669  10527.700  0.500  2.169559  87.177884  138.344763  15.802846
  10527.976  10528.000  0.500  2.181288  87.217880  138.423961  15.627516
  10528.274  10528.300  0.500  2.192945  87.240703  138.461130  15.450550
  10528.586  10528.600  0.500  2.205910  87.251491  138.483098  15.253941
  10528.889  10528.900  0.500  2.219615  87.220415  138.440237  15.041655
  10529.178  10529.200  0.500  2.234149  87.242027  138.478542  14.828735
  10529.490  10529.500  0.500  2.250627  87.212820  138.427799  14.581034
  10529.778  10529.800  0.500  2.267284  87.213860  138.428211  14.340210
  10530.076  10530.100  0.500  2.286045  87.199939  138.408044  14.071637
  10530.389  10530.400  0.500  2.307460  87.197119  138.403880  13.773086
  10530.677  10530.700  0.500  2.328710  87.188532  138.394731  13.482597
  10530.990  10531.000  0.500  2.353596  87.187730  138.396588  13.151383
  10531.283  10531.300  0.500  2.379687  87.170916  138.368877  12.810131
  10531.586  10531.600  0.500  2.409021  87.186054  138.398369  12.442462
  10531.889  10531.900  0.500  2.441240  87.151835  138.343899  12.043228
  10532.177  10532.200  0.500  2.473938  87.156452  138.356841  11.656902
  10532.480  10532.500  0.500  2.512187  87.145961  138.350918  11.218967
  10532.774  10532.800  0.500  2.551610  87.140211  138.343792  10.784736
  10533.086  10533.100  0.500  2.598287  87.133051  138.327497  10.291689
  10533.389  10533.400  0.500  2.647989  87.124916  138.311478  9.791544
  10533.683  10533.700  0.500  2.701437  87.146593  138.351644  9.284639
  10533.981  10534.000  0.500  2.764611  87.112435  138.310554  8.713645
  10534.274  10534.300  0.500  2.831688  87.118720  138.310872  8.148352
  10534.592  10534.600  0.500  2.913985  87.109836  138.308873  7.504514
  10534.885  10534.900  0.500  2.999941  87.076452  138.255032  6.883717
  10535.203  10535.200  0.500  3.103791  87.068958  138.260407  6.204956
  10535.487  10535.500  0.500  3.211018  87.085460  138.271796  5.574504
  10535.804  10535.800  0.500  3.343551  87.050931  138.217997  4.880664
  10536.088  10536.100  0.500  3.481121  87.054327  138.236845  4.253949
  10536.401  10536.400  0.500  3.645768  87.047179  138.236663  3.608165
  10536.690  10536.700  0.500  3.815641  87.040065  138.219798  3.044098
  10537.002  10537.000  0.500  4.011792  87.029765  138.208701  2.501705
  10537.291  10537.300  0.500  4.214496  87.028245  138.205880  2.042651
  10537.599  10537.600  0.500  4.438598  86.994406  138.158309  1.631993
  10537.898  10537.900  0.500  4.672275  87.015811  138.181338  1.292130
  10538.196  10538.200  0.500  4.909686  87.002645  138.166323  1.018949
  10538.500  10538.500  0.500  5.159069  86.999707  138.166426  0.794049
  10538.793  10538.800  0.500  5.402716  87.004671  138.162238  0.622329
  10539.101  10539.100  0.500  5.663202  86.964027  138.100241  0.479399
  10539.376  10539.400  0.500  5.891868  86.923941  138.049273  0.381266
  10539.689  10539.700  0.500  6.131754  86.894898  138.011722  0.299867
  10539.987  10540.000  0.500  6.349857  86.874731  137.969650  0.241033
  10540.291  10540.300  0.500  6.547073  86.872283  137.962052  0.197880
  10540.594  10540.600  0.500  6.720064  86.861542  137.955939  0.166438
  10540.893  10540.900  0.500  6.869209  86.863811  137.959457  0.143381
  10541.201  10541.200  0.500  6.986213  86.894916  138.008637  0.127595
  10541.495  10541.500  0.500  7.060816  86.908620  138.052018  0.118459
  10541.803  10541.800  0.500  7.099882  86.913493  138.059741  0.113927
  10542.107  10542.100  0.500  7.098311  86.898490  138.047692  0.114096
  10542.391  10542.400  0.500  7.061810  86.905003  138.044423  0.118335
  10542.709  10542.700  0.500  6.981961  86.899628  138.039234  0.128167
  10542.998  10543.000  0.500  6.876670  86.886075  138.031045  0.142389
  10543.311  10543.300  0.500  6.731074  86.880957  138.026337  0.164700
  10543.601  10543.600  0.500  6.567287  86.882118  138.031209  0.194017
  10543.895  10543.900  0.500  6.384269  86.862326  138.006194  0.232941
  10544.208  10544.200  0.500  6.179320  86.859943  137.999722  0.285913
  10544.497  10544.500  0.500  5.980887  86.866279  138.009849  0.348694
  10544.796  10544.800  0.500  5.773971  86.862519  138.006787  0.428841
  10545.100  10545.100  0.500  5.567055  86.843778  137.981289  0.527325
  10545.399  10545.400  0.500  5.372063  86.845891  137.989611  0.640898
  10545.697  10545.700  0.500  5.185829  86.831315  137.977392  0.772025
  10545.996  10546.000  0.500  5.007282  86.822532  137.958585  0.922813
  10546.290  10546.300  0.500  4.846627  86.814536  137.936409  1.083467
  10546.594  10546.600  0.500  4.698662  86.797000  137.923420  1.256132
  10546.893  10546.900  0.500  4.566208  86.808483  137.933920  1.434141
  10547.216  10547.200  0.500  4.440302  86.791018  137.906648  1.626248
  10547.506  10547.500  0.500  4.336703  86.783293  137.903620  1.803722
  10547.805  10547.800  0.500  4.243481  86.795498  137.916694  1.980142
  10548.113  10548.100  0.500  4.156018  86.762426  137.878263  2.160528
  10548.398  10548.400  0.500  4.082846  86.749012  137.847073  2.324022
  10548.712  10548.700  0.500  4.013680  86.745975  137.833522  2.490208
  10548.996  10549.000  0.500  3.957938  86.737754  137.847851  2.633233
  10549.300  10549.300  0.500  3.905977  86.750355  137.852587  2.773772
  10549.609  10549.600  0.500  3.860851  86.706134  137.803460  2.900774
  10549.884  10549.900  0.500  3.825415  86.738422  137.850995  3.006446
  10550.202  10550.200  0.500  3.792349  86.708537  137.806513  3.106515
  10550.492  10550.500  0.500  3.767128  86.712092  137.811999  3.185988
  10550.791  10550.800  0.500  3.745460  86.695989  137.783032  3.255091
  10551.110  10551.100  0.500  3.727280  86.699577  137.786611  3.314897
  10551.390  10551.400  0.500  3.713561  86.693230  137.784673  3.360637
  10551.694  10551.700  0.500  3.701876  86.692522  137.791432  3.400305
  10551.998  10552.000  0.500  3.692606  86.673035  137.763087  3.431267
  10552.297  10552.300  0.500  3.684841  86.682584  137.780075  3.458441
  10552.606  10552.600  0.500  3.677762  86.652001  137.736692  3.481912
  10552.896  10552.900  0.500  3.671997  86.650758  137.746736  3.502299
  10553.209  10553.200  0.500  3.665935  86.644223  137.728707  3.523133
  10553.509  10553.500  0.500  3.660194  86.622982  137.695756  3.542572
  10553.794  10553.800  0.500  3.654614  86.637589  137.719626  3.563012
  10554.112  10554.100  0.500  3.648404  86.610042  137.685267  3.584311
  10554.412  10554.400  0.500  3.641941  86.587760  137.641285  3.606398
  10554.706  10554.700  0.500  3.635414  86.567065  137.618099  3.629403
  10555.011  10555.000  0.500  3.627696  86.555914  137.586860  3.656693
  10555.296  10555.300  0.500  3.620028  86.492688  137.504132  3.682626
  10555.595  10555.600  0.500  3.611588  86.483469  137.480967  3.713214
  10555.895  10555.900  0.500  3.603110  86.453615  137.445960  3.743872
  10556.194  10556.200  0.500  3.593832  86.449930  137.448782  3.778847
  10556.494  10556.500  0.500  3.584520  86.450533  137.445453  3.814111
  10556.788  10556.800  0.500  3.575626  86.483900  137.501471  3.849750
  10557.098  10557.100  0.500  3.565599  86.480032  137.500504  3.888520
  10557.392  10557.400  0.500  3.556477  86.467415  137.469780  3.923277
  10557.697  10557.700  0.500  3.546915  86.384320  137.330368  3.956953
  10558.006  10558.000  0.500  3.537476  86.320789  137.231880  3.991617
  10558.306  10558.300  0.500  3.528364  86.316046  137.229122  4.028073
  10558.610  10558.600  0.500  3.518980  86.326935  137.252759  4.066749
  10558.900  10558.900  0.500  3.510740  86.371004  137.347128  4.103217
  10559.210  10559.200  0.500  3.502760  86.435539  137.444615  4.139028
  10559.509  10559.500  0.500  3.495393  86.486170  137.533181  4.172321
  10559.809  10559.800  0.500  3.488770  86.513859  137.566605  4.201065
  10560.109  10560.100  0.500  3.482684  86.523890  137.579630  4.227110
  10560.292  10560.300  0.500  3.479662  86.519491  137.577876  4.239850
  10561.298  10561.290  0.500  3.467371  86.521428  137.595987  4.292851
  10562.290  10562.290  0.500  3.464278  86.490510  137.552398  4.304783
  10563.315  10563.310  0.500  3.467934  86.470702  137.516017  4.287941
  10564.389  10564.360  0.500  3.476508  86.462732  137.525234  4.251617
  10565.425  10565.420  0.500  3.485289  86.438637  137.493978  4.213489
  10566.504  10566.500  0.500  3.492042  86.423255  137.487246  4.184926
  10567.608  10567.600  0.500  3.495983  86.402782  137.458614  4.167596
  10568.746  10568.720  0.500  3.499024  86.602448  137.780905  4.164685
  10569.879  10569.860  0.500  3.500711  86.632250  137.841221  4.159484
  10571.017  10571.010  0.500  3.502578  86.627853  137.848876  4.151956
  10572.190  10572.190  0.500  3.504958  86.621860  137.850204  4.142128
  10573.397  10573.380  0.500  3.508213  86.603311  137.822657  4.127843
  10574.594  10574.600  0.500  3.513960  86.577719  137.790087  4.103218
  10575.816  10575.830  0.500  3.522344  86.569804  137.798303  4.069202
  10577.062  10577.080  0.500  3.532800  86.552263  137.773881  4.026163
  10578.328  10578.350  0.500  3.546083  86.526677  137.730994  3.971800
  10579.634  10579.640  0.500  3.563164  86.512104  137.722877  3.904305
  10580.959  10580.950  0.500  3.584407  86.480761  137.683968  3.821161
  10582.265  10582.280  0.500  3.610133  86.464596  137.663324  3.723553
  10583.673  10583.630  0.500  3.643327  86.421701  137.597314  3.600254
  10584.965  10585.000  0.500  3.676226  86.375756  137.527624  3.481972
  10586.816  10586.380  0.500  3.716141  86.148903  137.197337  3.337690
  10587.837  10587.790  0.500  3.741664  86.322004  137.486986  3.260450
  10589.344  10589.210  0.500  3.767047  86.323770  137.514151  3.179359
  10590.627  10590.650  0.500  3.781327  86.295073  137.461928  3.133091
  10592.091  10592.110  0.500  3.786038  86.272707  137.439666  3.117860
  10593.565  10593.590  0.500  3.779816  86.246862  137.408186  3.136602
  10595.079  10595.090  0.500  3.762018  86.219932  137.377441  3.192211
  10596.598  10596.610  0.500  3.738035  86.206054  137.384747  3.269872
  10598.136  10598.150  0.500  3.710305  86.088357  137.208820  3.357508
  10599.695  10599.710  0.500  3.681513  86.059186  137.169532  3.454593
  10601.259  10601.280  0.500  3.655657  86.081521  137.214587  3.546243
  10602.872  10602.880  0.500  3.631698  86.048462  137.179988  3.631319
  10604.491  10604.490  0.500  3.610818  85.984105  137.087620  3.705439
  10606.125  10606.130  0.500  3.592543  85.918396  136.983646  3.770918
  10607.774  10607.780  0.500  3.576236  85.954129  137.052201  3.834833
  10609.433  10609.450  0.500  3.561970  85.926321  137.042250  3.889650
  10611.127  10611.140  0.500  3.550090  85.799786  136.846579  3.930513
  10612.841  10612.850  0.500  3.540128  85.844862  136.922524  3.972070
  10614.575  10614.580  0.500  3.532922  85.829264  136.912165  4.000492
  10616.324  10616.330  0.500  3.528586  85.790756  136.865404  4.016504
  10618.084  10618.090  0.500  3.525840  85.687848  136.710755  4.022999
  10619.868  10619.880  0.500  3.524864  85.457316  136.367255  4.016808
  10621.663  10621.680  0.500  3.525855  85.684966  136.744626  4.023935
  10623.498  10623.510  0.500  3.528406  85.652410  136.706100  4.012553
  10625.353  10625.350  0.500  3.532948  85.614764  136.654212  3.992851
  10627.224  10627.210  0.500  3.538699  85.561857  136.600013  3.968381
  10629.085  10629.090  0.500  3.544548  85.534488  136.562087  3.944142
  10630.967  10630.990  0.500  3.549762  85.497558  136.525589  3.922582
  10632.898  10632.910  0.500  3.553232  85.491832  136.511013  3.908578
  10634.855  10634.850  0.500  3.554762  85.436283  136.436515  3.900472
  10636.812  10636.810  0.500  3.554595  85.410727  136.417185  3.900569
  10638.770  10638.780  0.500  3.552863  85.348789  136.334235  3.904955
  10640.768  10640.780  0.500  3.550858  85.298955  136.271102  3.910982
  10642.786  10642.790  0.500  3.548886  84.761282  135.439915  3.894798
  10644.835  10644.820  0.500  3.548404  85.211981  136.174313  3.917808
  10646.880  10646.880  0.500  3.550221  85.211756  136.189752  3.911138
  10648.950  10648.950  0.500  3.555402  85.175143  136.134505  3.889346
  10651.030  10651.040  0.500  3.564268  85.139292  136.086347  3.853654
  10653.161  10653.150  0.500  3.576165  85.107550  136.065929  3.807506
  10655.297  10655.280  0.500  3.588533  85.042424  135.977340  3.758256
  10657.430  10657.420  0.500  3.601328  85.001482  135.931625  3.709230
  10659.588  10659.590  0.500  3.611984  84.930759  135.823309  3.666989
  10661.776  10661.780  0.500  3.620008  84.396359  135.001454  3.615670
  10663.985  10663.980  0.500  3.624739  84.887353  135.785801  3.619514
  10666.200  10666.200  0.500  3.626285  84.844701  135.753413  3.613062
  10668.436  10668.450  0.500  3.624634  84.818290  135.725114  3.618274
  10670.717  10670.710  0.500  3.620784  84.760909  135.642883  3.630032
  10672.994  10672.990  0.500  3.615398  84.717241  135.591258  3.648248
  10675.292  10675.290  0.500  3.608864  84.661753  135.521967  3.670286
  10677.595  10677.610  0.500  3.601849  84.507418  135.309453  3.690328
  10679.959  10679.950  0.500  3.593396  84.407688  135.169240  3.717798
  10682.295  10682.300  0.500  3.585336  84.547696  135.400484  3.754296
  10684.686  10684.680  0.500  3.576398  84.489318  135.320573  3.785769
  10687.073  10687.070  0.500  3.567165  84.457487  135.280350  3.819748
  10689.496  10689.490  0.500  3.558826  84.405453  135.218730  3.849978
  10691.925  10691.920  0.500  3.551521  84.364301  135.176270  3.876988
  10694.375  10694.370  0.500  3.545663  84.311163  135.092177  3.897341
  10696.866  10696.850  0.500  3.540844  84.240430  134.998877  3.913463
  10699.343  10699.340  0.500  3.536464  83.892833  134.467197  3.915161
  10701.841  10701.850  0.500  3.532944  84.187080  134.960814  3.943391
  10704.385  10704.370  0.500  3.529992  84.133865  134.888504  3.952929
  10706.925  10706.920  0.500  3.527919  84.091417  134.845712  3.959874
  10709.487  10709.490  0.500  3.526206  84.037498  134.772175  3.964501
  10712.079  10712.070  0.500  3.526444  83.986389  134.724475  3.962155
  10714.698  10714.680  0.500  3.526688  83.934141  134.645409  3.958861
  10717.288  10717.300  0.500  3.527524  83.883336  134.591404  3.953969
  10719.954  10719.950  0.500  3.528908  83.851873  134.547812  3.947219
  10722.612  10722.610  0.500  3.529665  83.779515  134.457417  3.941585
  10725.301  10725.290  0.500  3.529843  83.727602  134.401610  3.939246
  10727.996  10727.990  0.500  3.528856  83.679657  134.335095  3.941184
  10730.732  10730.710  0.500  3.527543  83.626624  134.277570  3.944674
  10733.460  10733.450  0.500  3.525927  83.590917  134.236385  3.949841
  10736.215  10736.200  0.500  3.525308  83.551551  134.183911  3.950744
  10739.005  10738.980  0.500  3.525104  83.475877  134.099933  3.949075
  10741.768  10741.770  0.500  3.525962  83.282544  133.805749  3.937031
  10744.586  10744.590  0.500  3.527823  83.362620  133.961283  3.934282
  10747.432  10747.420  0.500  3.529975  83.313355  133.914878  3.924464
  10750.284  10750.270  0.500  3.532045  83.250099  133.816928  3.913482
  10753.162  10753.150  0.500  3.533536  83.203034  133.757282  3.905909
  10756.057  10756.040  0.500  3.534219  83.148028  133.678296  3.900938
  10758.949  10758.950  0.500  3.534301  83.086720  133.607780  3.898561
  10761.883  10761.870  0.500  3.533173  83.036608  133.542762  3.901062
  10764.833  10764.820  0.500  3.531511  82.988701  133.483987  3.905832
  10767.790  10767.790  0.500  3.529280  82.926769  133.409373  3.912366
