# XDI/1.0 BlueSky/1.10.0 BMM/2023-1.0-py310-tiled
# Beamline.name: BMM (06BM) -- Beamline for Materials Measurement (NIST)
# Beamline.xray_source: NSLS-II three-pole wiggler
# Beamline.collimation: paraboloid mirror, 5 nm Rh on 30 nm Pt
# Beamline.focusing: not in use
# Beamline.harmonic_rejection: flat mirror, Pt stripe, pitch = 7.0 mrad relative to beam
# Beamline.software: Bluesky 1.10.0, Ophyd 1.7.0, DataBroker 2.0.0b13, Python 3.10.8, 2023-1.0-py310-tiled
# Detector.I0: 10 cm N2
# Detector.I1: 25 cm N2
# Detector.I2: 25 cm N2
# Element.symbol: Re
# Element.edge: L3
# Element.reference: Re
# Element.reference_material: ReO2
# Facility.name: NSLS-II
# Facility.energy: 3.0
# Facility.current: 399.5
# Facility.mode: top-off
# Facility.GUP: 301027
# Facility.SAF: 310583
# Facility.cycle: 2023-2
# Mono.name: Si(111)
# Mono.d_spacing: 3.1351860
# Mono.encoder_resolution: 0.0000050 deg/ct
# Mono.angle_offset: 16.0754326 deg
# Mono.scan_mode: pseudo channel cut
# Mono.scan_type: step
# Mono.direction: forward in energy
# Sample.name: ReO3, Rhenium trioxide
# Sample.prep: powder on tape
# Sample.x: 145.711 mm
# Sample.y: 114.376 mm
# Sample.SDD_position: 205.000 mm
# Scan.experimenters: Bruce Ravel
# Scan.edge_energy: 10535.3
# Scan.start_time: 2023-06-27T16:46:28
# Scan.end_time: 2023-06-27T16:54:12
# Scan.transient_id: 85163
# Scan.uid: 5704acc5-8d99-4cff-a870-016465c275ec
# Scan.plot_hint: ln(I0/It)  --  ln($5/$6)
# Column.1: energy eV
# Column.2: requested_energy eV
# Column.3: measurement_time seconds
# Column.4: xmu 
# Column.5: I0 nA
# Column.6: It nA
# Column.7: Ir nA
# ///////////
# Welcome to BMM
# -----------
# energy  requested_energy  measurement_time  xmu  I0  It  Ir
  10335.269  10335.300  0.500  3.251718  90.247718  3.493279  0.461164
  10345.320  10345.300  0.500  3.240923  90.092179  3.525105  0.468198
  10355.382  10355.300  0.500  3.230545  89.912565  3.554779  0.474919
  10365.342  10365.300  0.500  3.219818  89.993943  3.596368  0.482532
  10375.378  10375.300  0.500  3.209482  89.769503  3.624669  0.489270
  10385.359  10385.300  0.500  3.199186  89.595091  3.655066  0.496063
  10395.365  10395.300  0.500  3.188847  89.405764  3.685248  0.502971
  10405.376  10405.300  0.500  3.178531  89.226169  3.715983  0.509391
  10415.355  10415.300  0.500  3.168760  89.037921  3.744554  0.516264
  10425.311  10425.300  0.500  3.158939  88.855086  3.773744  0.522817
  10435.315  10435.300  0.500  3.149671  88.674344  3.801135  0.529234
  10445.357  10445.300  0.500  3.140863  88.485941  3.826614  0.535487
  10455.381  10455.300  0.500  3.132652  88.311260  3.850548  0.540636
  10465.359  10465.300  0.500  3.125748  88.120713  3.868860  0.545008
  10475.360  10475.300  0.500  3.120681  87.928985  3.880050  0.548169
  10485.371  10485.300  0.500  3.118180  87.753229  3.881992  0.548545
  10495.269  10495.300  0.500  3.121600  87.565727  3.860474  0.543824
  10505.319  10505.300  0.500  3.137866  87.380330  3.790146  0.528346
  10507.276  10507.300  0.500  3.143600  87.344748  3.766941  0.523285
  10509.281  10509.300  0.500  3.151118  87.309277  3.737208  0.516404
  10511.283  10511.300  0.500  3.160152  87.242200  3.700753  0.508241
  10513.295  10513.300  0.500  3.171996  87.171698  3.654224  0.497997
  10515.269  10515.300  0.500  3.186163  87.187314  3.603464  0.486674
  10517.287  10517.300  0.500  3.204687  87.151442  3.535875  0.471549
  10519.282  10519.300  0.500  3.228200  87.111471  3.452119  0.453170
  10521.283  10521.300  0.500  3.258687  87.070342  3.346881  0.430496
  10523.284  10523.300  0.500  3.299640  87.036434  3.211335  0.401524
  10525.281  10525.300  0.500  3.355008  86.913760  3.034080  0.365541
  10525.560  10525.600  0.500  3.364654  86.835829  3.002260  0.359638
  10525.858  10525.900  0.500  3.375093  86.770951  2.968862  0.352771
  10526.165  10526.200  0.500  3.386658  86.740386  2.933690  0.345871
  10526.468  10526.500  0.500  3.398636  86.744183  2.898889  0.338956
  10526.761  10526.800  0.500  3.411793  86.771972  2.861914  0.331452
  10527.073  10527.100  0.500  3.425347  86.802714  2.824385  0.323609
  10527.371  10527.400  0.500  3.439249  86.821134  2.785983  0.316479
  10527.669  10527.700  0.500  3.453894  86.842311  2.746149  0.308691
  10527.976  10528.000  0.500  3.470078  86.863991  2.702738  0.300535
  10528.269  10528.300  0.500  3.485321  86.881301  2.662383  0.292678
  10528.567  10528.600  0.500  3.503346  86.898058  2.615330  0.283698
  10528.865  10528.900  0.500  3.520612  86.910636  2.570931  0.275556
  10529.178  10529.200  0.500  3.540237  86.909601  2.520939  0.266268
  10529.466  10529.500  0.500  3.561018  86.906722  2.469011  0.256866
  10529.769  10529.800  0.500  3.583346  86.901678  2.414352  0.246951
  10530.071  10530.100  0.500  3.608240  86.897868  2.354889  0.236811
  10530.374  10530.400  0.500  3.634246  86.891218  2.294261  0.226144
  10530.663  10530.700  0.500  3.662236  86.888016  2.230853  0.215480
  10530.980  10531.000  0.500  3.693469  86.882803  2.162124  0.203875
  10531.273  10531.300  0.500  3.725847  86.869658  2.092924  0.192939
  10531.581  10531.600  0.500  3.761498  86.864626  2.019507  0.180994
  10531.889  10531.900  0.500  3.800659  86.855043  1.941735  0.168897
  10532.177  10532.200  0.500  3.841362  86.851167  1.864203  0.157209
  10532.490  10532.500  0.500  3.885528  86.846412  1.783563  0.145279
  10532.798  10532.800  0.500  3.934749  86.837586  1.697727  0.133040
  10533.091  10533.100  0.500  3.983924  86.831460  1.616147  0.121808
  10533.384  10533.400  0.500  4.039713  86.821967  1.528286  0.110565
  10533.697  10533.700  0.500  4.101653  86.811466  1.436322  0.098813
  10533.986  10534.000  0.500  4.166067  86.813037  1.346743  0.087922
  10534.284  10534.300  0.500  4.239372  86.805341  1.251442  0.076934
  10534.587  10534.600  0.500  4.321479  86.794591  1.152652  0.066647
  10534.880  10534.900  0.500  4.411149  86.787830  1.053710  0.056555
  10535.183  10535.200  0.500  4.509922  86.784741  0.954573  0.047364
  10535.482  10535.500  0.500  4.620684  86.774314  0.854385  0.038525
  10535.790  10535.800  0.500  4.746112  86.766644  0.753603  0.030866
  10536.093  10536.100  0.500  4.889447  86.761315  0.652929  0.023919
  10536.401  10536.400  0.500  5.042727  86.753278  0.560090  0.018130
  10536.704  10536.700  0.500  5.213829  86.749223  0.471985  0.013288
  10537.002  10537.000  0.500  5.396906  86.745265  0.393006  0.009646
  10537.291  10537.300  0.500  5.606085  86.734399  0.318786  0.006648
  10537.595  10537.600  0.500  5.834638  86.728259  0.253635  0.004622
  10537.893  10537.900  0.500  6.083000  86.721078  0.197839  0.002944
  10538.196  10538.200  0.500  6.356493  86.706832  0.150475  0.001877
  10538.490  10538.500  0.500  6.647898  86.706950  0.112437  0.001123
  10538.788  10538.800  0.500  6.975434  86.703016  0.081029  0.000747
  10539.087  10539.100  0.500  7.325706  86.687725  0.057075  0.000450
  10539.390  10539.400  0.500  7.712899  86.665551  0.038742  0.000165
  10539.699  10539.700  0.500  8.118008  86.635746  0.025828  0.000125
  10540.012  10540.000  0.500  8.529392  86.606113  0.017111  0.000011
  10540.296  10540.300  0.500  8.943826  86.580900  0.011302  0.000085
  10540.604  10540.600  0.500  9.299406  86.563905  0.007919  0.000161
  10540.903  10540.900  0.500  9.603042  86.571873  0.005846  0.000058
  10541.201  10541.200  0.500  9.832283  86.589070  0.004649  0.000079
  10541.490  10541.500  0.500  10.024797  86.604406  0.003836  0.000094
  10541.794  10541.800  0.500  10.170827  86.615418  0.003315  0.000084
  10542.088  10542.100  0.500  10.260259  86.621028  0.003031  0.000054
  10542.391  10542.400  0.500  10.330867  86.622585  0.002825  0.000029
  10542.685  10542.700  0.500  10.342679  86.616092  0.002791  0.000082
  10542.993  10543.000  0.500  10.391261  86.611506  0.002659  0.000027
  10543.302  10543.300  0.500  10.374935  86.610255  0.002703  0.000045
  10543.601  10543.600  0.500  10.474170  86.609343  0.002447  0.000111
  10543.909  10543.900  0.500  10.425828  86.596431  0.002568  0.000036
  10544.198  10544.200  0.500  10.411311  86.590726  0.002606  0.000048
  10544.497  10544.500  0.500  10.393245  86.587459  0.002653  -0.000045
  10544.801  10544.800  0.500  10.366833  86.579838  0.002724  0.000148
  10545.085  10545.100  0.500  10.284600  86.566260  0.002957  0.000073
  10545.384  10545.400  0.500  10.216491  86.563280  0.003165  -0.000007
  10545.693  10545.700  0.500  10.177962  86.559241  0.003289  0.000163
  10546.001  10546.000  0.500  10.033022  86.552162  0.003802  0.000078
  10546.305  10546.300  0.500  9.912590  86.547226  0.004288  0.000178
  10546.604  10546.600  0.500  9.762384  86.534672  0.004982  -0.000044
  10546.903  10546.900  0.500  9.593564  86.528906  0.005898  0.000144
  10547.207  10547.200  0.500  9.392230  86.524051  0.007213  0.000064
  10547.511  10547.500  0.500  9.187586  86.512221  0.008850  0.000100
  10547.810  10547.800  0.500  8.998229  86.507838  0.010695  0.000216
  10548.104  10548.100  0.500  8.778234  86.496229  0.013325  0.000242
  10548.403  10548.400  0.500  8.567805  86.489966  0.016444  0.000265
  10548.702  10548.700  0.500  8.358086  86.482440  0.020280  0.000246
  10548.996  10549.000  0.500  8.139395  86.476030  0.025235  0.000316
  10549.305  10549.300  0.500  7.928852  86.467504  0.031146  0.000429
  10549.594  10549.600  0.500  7.720344  86.460803  0.038363  0.000610
  10549.903  10549.900  0.500  7.520186  86.452291  0.046860  0.000920
  10550.207  10550.200  0.500  7.327197  86.444382  0.056830  0.001105
  10550.506  10550.500  0.500  7.148461  86.437921  0.067946  0.001294
  10550.810  10550.800  0.500  6.976960  86.430141  0.080651  0.001536
  10551.110  10551.100  0.500  6.823329  86.426048  0.094040  0.001977
  10551.404  10551.400  0.500  6.683476  86.420454  0.108148  0.002248
  10551.708  10551.700  0.500  6.557648  86.413647  0.122640  0.002491
  10552.003  10552.000  0.500  6.443526  86.408012  0.137457  0.002852
  10552.297  10552.300  0.500  6.342378  86.404715  0.152082  0.003182
  10552.596  10552.600  0.500  6.252562  86.395952  0.166357  0.003728
  10552.900  10552.900  0.500  6.171880  86.388245  0.180319  0.003982
  10553.195  10553.200  0.500  6.099903  86.381381  0.193761  0.004228
  10553.499  10553.500  0.500  6.039484  86.374623  0.205812  0.004532
  10553.808  10553.800  0.500  5.986793  86.364333  0.216922  0.004809
  10554.108  10554.100  0.500  5.941968  86.358168  0.226850  0.005077
  10554.417  10554.400  0.500  5.906179  86.352905  0.235102  0.005393
  10554.706  10554.700  0.500  5.876823  86.339578  0.242068  0.005528
  10555.006  10555.000  0.500  5.853717  86.322671  0.247678  0.005548
  10555.300  10555.300  0.500  5.833377  86.288220  0.252667  0.005746
  10555.600  10555.600  0.500  5.816455  86.250154  0.256865  0.005964
  10555.899  10555.900  0.500  5.802288  86.226090  0.260458  0.006149
  10556.199  10556.200  0.500  5.790435  86.201159  0.263487  0.006097
  10556.508  10556.500  0.500  5.780724  86.191429  0.266028  0.006392
  10556.798  10556.800  0.500  5.771237  86.191407  0.268564  0.006363
  10557.093  10557.100  0.500  5.763837  86.203547  0.270597  0.006526
  10557.407  10557.400  0.500  5.758318  86.213804  0.272127  0.006663
  10557.721  10557.700  0.500  5.752186  86.197872  0.273750  0.006922
  10558.011  10558.000  0.500  5.747913  86.145018  0.274754  0.006758
  10558.301  10558.300  0.500  5.746673  86.087701  0.274911  0.006900
  10558.605  10558.600  0.500  5.746364  86.041324  0.274848  0.006996
  10558.900  10558.900  0.500  5.747443  86.026192  0.274504  0.007222
  10559.205  10559.200  0.500  5.751706  86.055639  0.273429  0.007331
  10559.504  10559.500  0.500  5.755263  86.109341  0.272628  0.007096
  10559.804  10559.800  0.500  5.761785  86.160910  0.271019  0.007076
  10560.099  10560.100  0.500  5.767923  86.195442  0.269468  0.007067
  10560.288  10560.300  0.500  5.772848  86.207917  0.268183  0.007096
  10561.308  10561.290  0.500  5.796241  86.199500  0.261957  0.007086
  10562.309  10562.290  0.500  5.806978  86.172335  0.259077  0.007008
  10563.325  10563.310  0.500  5.794462  86.156942  0.262293  0.007176
  10564.379  10564.360  0.500  5.756514  86.140695  0.272387  0.007551
  10565.444  10565.420  0.500  5.701521  86.111449  0.287688  0.007739
  10566.504  10566.500  0.500  5.642459  86.089514  0.305113  0.008091
  10567.617  10567.600  0.500  5.584181  86.065210  0.323332  0.008634
  10568.731  10568.720  0.500  5.532320  86.045814  0.340466  0.009068
  10569.874  10569.860  0.500  5.489817  86.026733  0.355170  0.009509
  10571.037  10571.010  0.500  5.467060  86.004103  0.363250  0.009535
  10572.209  10572.190  0.500  5.473172  85.978858  0.360930  0.009437
  10573.382  10573.380  0.500  5.514885  85.953914  0.346084  0.009079
  10574.623  10574.600  0.500  5.593659  85.932152  0.319787  0.008283
  10575.850  10575.830  0.500  5.681802  85.910526  0.292733  0.007584
  10577.096  10577.080  0.500  5.745630  85.883071  0.274544  0.007031
  10578.367  10578.350  0.500  5.766068  85.854342  0.268900  0.006787
  10579.668  10579.640  0.500  5.742563  85.827706  0.275210  0.006826
  10580.959  10580.950  0.500  5.706915  85.802031  0.285112  0.007013
  10582.294  10582.280  0.500  5.679228  85.777434  0.293032  0.007009
  10583.653  10583.630  0.500  5.676633  85.745658  0.293685  0.006747
  10585.013  10585.000  0.500  5.698177  85.706207  0.287293  0.006390
  10586.388  10586.380  0.500  5.736607  85.522995  0.275871  0.005814
  10587.817  10587.790  0.500  5.785875  85.579305  0.262782  0.005447
  10589.222  10589.210  0.500  5.843445  85.651109  0.248289  0.004971
  10590.661  10590.650  0.500  5.903532  85.622658  0.233732  0.004567
  10592.120  10592.110  0.500  5.961154  85.601418  0.220589  0.004270
  10593.609  10593.590  0.500  6.017273  85.573326  0.208483  0.004105
  10595.098  10595.090  0.500  6.075245  85.545623  0.196676  0.003880
  10596.622  10596.610  0.500  6.138696  85.797869  0.185129  0.003872
  10598.166  10598.150  0.500  6.217124  85.729022  0.171027  0.003671
  10599.710  10599.710  0.500  6.304083  85.626523  0.156596  0.003460
  10601.308  10601.280  0.500  6.378185  85.693769  0.145525  0.003047
  10602.892  10602.880  0.500  6.410091  85.673260  0.140922  0.003310
  10604.506  10604.490  0.500  6.392561  85.622985  0.143330  0.003323
  10606.154  10606.130  0.500  6.334101  85.502732  0.151745  0.003510
  10607.783  10607.780  0.500  6.252622  85.562389  0.164742  0.003984
  10609.452  10609.450  0.500  6.156701  85.538140  0.181275  0.004493
  10611.156  10611.140  0.500  6.061786  85.445198  0.199107  0.004843
  10612.855  10612.850  0.500  5.973934  85.416056  0.217317  0.005600
  10614.599  10614.580  0.500  5.902326  85.432307  0.233493  0.006030
  10616.358  10616.330  0.500  5.854194  85.397562  0.244907  0.006278
  10618.093  10618.090  0.500  5.828045  85.333758  0.251208  0.006337
  10619.888  10619.880  0.500  5.826063  85.106669  0.251036  0.006576
  10621.703  10621.680  0.500  5.837135  85.244709  0.248675  0.006473
  10623.513  10623.510  0.500  5.853311  85.261836  0.244734  0.006196
  10625.378  10625.350  0.500  5.864604  85.225497  0.241882  0.006221
  10627.234  10627.210  0.500  5.859161  85.185087  0.243087  0.006166
  10629.100  10629.090  0.500  5.836310  85.147307  0.248596  0.006298
  10631.001  10630.990  0.500  5.803995  85.108267  0.256643  0.006370
  10632.928  10632.910  0.500  5.772564  85.074043  0.264731  0.006556
  10634.864  10634.850  0.500  5.748507  85.032619  0.271045  0.006671
  10636.836  10636.810  0.500  5.727688  84.989691  0.276607  0.006881
  10638.775  10638.780  0.500  5.718308  84.955646  0.279102  0.006889
  10640.797  10640.780  0.500  5.720658  84.900772  0.278267  0.006876
  10642.801  10642.790  0.500  5.733169  84.565360  0.273722  0.006888
  10644.820  10644.820  0.500  5.756294  84.725902  0.267972  0.006661
  10646.894  10646.880  0.500  5.780756  84.817482  0.261779  0.006545
  10648.964  10648.950  0.500  5.801328  84.773110  0.256315  0.006348
  10651.045  10651.040  0.500  5.812455  84.730884  0.253352  0.006232
  10653.176  10653.150  0.500  5.816969  84.682761  0.252068  0.006074
  10655.293  10655.280  0.500  5.814404  84.637779  0.252581  0.006152
  10657.430  10657.420  0.500  5.810153  84.592429  0.253521  0.006047
  10659.608  10659.590  0.500  5.807039  84.531976  0.254130  0.005870
  10661.786  10661.780  0.500  5.806901  84.258986  0.253344  0.005789
  10663.990  10663.980  0.500  5.812640  84.385529  0.252273  0.005804
  10666.205  10666.200  0.500  5.825318  84.436479  0.249245  0.005649
  10668.470  10668.450  0.500  5.846796  84.388375  0.243810  0.005668
  10670.722  10670.710  0.500  5.874143  84.337781  0.237091  0.005445
  10673.004  10672.990  0.500  5.902837  84.284967  0.230240  0.005489
  10675.321  10675.290  0.500  5.927700  84.231092  0.224442  0.005249
  10677.610  10677.610  0.500  5.943260  84.142136  0.220744  0.005264
  10679.964  10679.950  0.500  5.949939  83.799656  0.218382  0.005246
  10682.325  10682.300  0.500  5.950374  84.109261  0.219093  0.005275
  10684.691  10684.680  0.500  5.948192  84.062314  0.219449  0.005276
  10687.088  10687.070  0.500  5.943757  84.013759  0.220297  0.005266
  10689.491  10689.490  0.500  5.936241  83.969018  0.221841  0.005390
  10691.940  10691.920  0.500  5.934426  83.908743  0.222085  0.005372
  10694.385  10694.370  0.500  5.938263  83.863806  0.221116  0.005629
  10696.856  10696.850  0.500  5.947936  83.792676  0.218801  0.005583
  10699.363  10699.340  0.500  5.959576  83.207948  0.214760  0.005532
  10701.866  10701.850  0.500  5.958454  83.742483  0.216382  0.005482
  10704.385  10704.370  0.500  5.943451  83.691157  0.219519  0.005717
  10706.935  10706.920  0.500  5.917562  83.641194  0.225142  0.005695
  10709.502  10709.490  0.500  5.889284  83.586588  0.231448  0.005966
  10712.089  10712.070  0.500  5.859357  83.539557  0.238345  0.006117
  10714.693  10714.680  0.500  5.826763  83.488851  0.246092  0.006338
  10717.308  10717.300  0.500  5.789948  83.440660  0.255173  0.006491
  10719.969  10719.950  0.500  5.753570  83.386721  0.264456  0.006578
  10722.617  10722.610  0.500  5.728912  83.335526  0.270891  0.007075
  10725.306  10725.290  0.500  5.719659  83.276355  0.273216  0.007021
  10727.991  10727.990  0.500  5.722614  83.225460  0.272243  0.006860
  10730.727  10730.710  0.500  5.730271  83.169838  0.269986  0.006909
  10733.465  10733.450  0.500  5.740902  83.115540  0.266956  0.006850
  10736.215  10736.200  0.500  5.753167  83.060056  0.263526  0.006694
  10738.995  10738.980  0.500  5.765496  83.010018  0.260140  0.006578
  10741.798  10741.770  0.500  5.774456  82.817181  0.257221  0.006522
  10744.607  10744.590  0.500  5.776722  82.890440  0.256866  0.006716
  10747.417  10747.420  0.500  5.772425  82.841335  0.257819  0.006612
  10750.284  10750.270  0.500  5.762898  82.781324  0.260098  0.006615
  10753.162  10753.150  0.500  5.750393  82.715728  0.263163  0.006645
  10756.057  10756.040  0.500  5.745302  82.667272  0.264351  0.006704
  10758.969  10758.950  0.500  5.744607  82.608973  0.264348  0.006816
  10761.873  10761.870  0.500  5.745601  82.548233  0.263891  0.006600
  10764.838  10764.820  0.500  5.741709  82.483029  0.264711  0.006626
  10767.795  10767.790  0.500  5.738852  82.435835  0.265316  0.006789
  10770.784  10770.770  0.500  5.735610  82.376380  0.265986  0.006897
  10773.779  10773.780  0.500  5.736939  82.316544  0.265440  0.006761
  10776.816  10776.800  0.500  5.738810  82.262909  0.264771  0.006787
  10779.861  10779.850  0.500  5.740111  82.192979  0.264202  0.006773
  10782.932  10782.910  0.500  5.740723  82.130014  0.263838  0.006858
  10786.000  10785.990  0.500  5.737971  81.786042  0.263457  0.006833
  10789.095  10789.090  0.500  5.739782  81.892709  0.263323  0.006963
