# XDI/1.0 BlueSky/1.10.0 BMM/2023-1.0-py310-tiled
# Beamline.name: BMM (06BM) -- Beamline for Materials Measurement (NIST)
# Beamline.xray_source: NSLS-II three-pole wiggler
# Beamline.collimation: paraboloid mirror, 5 nm Rh on 30 nm Pt
# Beamline.focusing: not in use
# Beamline.harmonic_rejection: flat mirror, Pt stripe, pitch = 7.0 mrad relative to beam
# Beamline.software: Bluesky 1.10.0, Ophyd 1.7.0, DataBroker 2.0.0b13, Python 3.10.8, 2023-1.0-py310-tiled
# Detector.I0: 10 cm N2
# Detector.I1: 25 cm N2
# Detector.I2: 25 cm N2
# Element.symbol: Re
# Element.edge: L1
# Element.reference: Re
# Element.reference_material: ReO2
# Facility.name: NSLS-II
# Facility.energy: 3.0
# Facility.current: 400.7
# Facility.mode: top-off
# Facility.GUP: 301027
# Facility.SAF: 310583
# Facility.cycle: 2023-2
# Mono.name: Si(111)
# Mono.d_spacing: 3.1351860
# Mono.encoder_resolution: 0.0000050 deg/ct
# Mono.angle_offset: 16.0754326 deg
# Mono.scan_mode: pseudo channel cut
# Mono.scan_type: step
# Mono.direction: forward in energy
# Sample.name: ReO2
# Sample.prep: powder on tape
# Sample.x: 109.138 mm
# Sample.y: 153.150 mm
# Sample.SDD_position: 205.000 mm
# Scan.experimenters: Bruce Ravel
# Scan.edge_energy: 12526.7
# Scan.start_time: 2023-05-28T19:51:48
# Scan.end_time: 2023-05-28T19:59:31
# Scan.transient_id: 78966
# Scan.uid: 7d4191fd-b95f-4834-b987-4d8f362ef69e
# Scan.plot_hint: ln(It/Ir)  --  ln($6/$7)
# Column.1: energy eV
# Column.2: requested_energy eV
# Column.3: measurement_time seconds
# Column.4: xmu 
# Column.5: I0 nA
# Column.6: It nA
# Column.7: Ir nA
# ///////////
# Welcome to BMM
# -----------
# energy  requested_energy  measurement_time  xmu  I0  It  Ir
  12326.705  12326.700  0.500  3.250028  56.041032  96.176934  3.729079
  12336.774  12336.700  0.500  3.242736  55.958637  96.068847  3.752150
  12346.761  12346.700  0.500  3.236054  55.829505  95.881275  3.769929
  12356.764  12356.700  0.500  3.229571  55.582567  95.482975  3.778687
  12366.757  12366.700  0.500  3.224676  55.585786  95.518156  3.798631
  12376.773  12376.700  0.500  3.220033  55.459228  95.328949  3.808750
  12386.698  12386.700  0.500  3.213470  55.330801  95.136634  3.826094
  12396.713  12396.700  0.500  3.205830  55.190071  94.924421  3.846836
  12406.711  12406.700  0.500  3.199539  55.062487  94.728550  3.863127
  12416.732  12416.700  0.500  3.194813  54.912703  94.503495  3.872202
  12426.770  12426.700  0.500  3.190444  54.793481  94.326197  3.881861
  12436.635  12436.700  0.500  3.186956  54.171138  93.281359  3.852278
  12446.705  12446.700  0.500  3.183797  54.600721  94.049144  3.896272
  12456.724  12456.700  0.500  3.179114  54.483160  93.869075  3.907069
  12466.705  12466.700  0.500  3.174050  54.331830  93.650450  3.917756
  12476.716  12476.700  0.500  3.168220  54.210820  93.466228  3.932914
  12486.696  12486.700  0.500  3.162221  53.872515  92.907539  3.932927
  12496.706  12496.700  0.500  3.156938  53.969723  93.102610  3.962060
  12498.652  12498.700  0.500  3.156202  53.941906  93.063719  3.963322
  12500.647  12500.700  0.500  3.155341  53.910318  93.017491  3.964766
  12502.657  12502.700  0.500  3.154821  53.886322  92.975067  3.965016
  12504.639  12504.700  0.500  3.154437  53.855749  92.935410  3.964848
  12506.643  12506.700  0.500  3.154186  53.825697  92.886105  3.963741
  12508.661  12508.700  0.500  3.154083  53.799405  92.844231  3.962361
  12510.639  12510.700  0.500  3.154156  53.772378  92.801639  3.960255
  12512.644  12512.700  0.500  3.154414  53.748210  92.759033  3.957416
  12514.658  12514.700  0.500  3.155038  53.721894  92.718962  3.953239
  12516.658  12516.700  0.500  3.156200  53.695530  92.681218  3.947041
  12516.951  12517.000  0.500  3.156520  53.691508  92.672730  3.945415
  12517.238  12517.300  0.500  3.156745  53.685724  92.670138  3.944417
  12517.539  12517.600  0.500  3.156745  53.680541  92.652081  3.943648
  12517.846  12517.900  0.500  3.157283  53.677482  92.650666  3.941468
  12518.146  12518.200  0.500  3.157356  53.669493  92.642117  3.940814
  12518.440  12518.500  0.500  3.157579  53.664886  92.634916  3.939632
  12518.740  12518.800  0.500  3.158333  53.655795  92.626549  3.936307
  12519.061  12519.100  0.500  3.158275  53.654345  92.623106  3.936390
  12519.348  12519.400  0.500  3.158446  53.652320  92.613739  3.935316
  12519.642  12519.700  0.500  3.158900  53.646256  92.611708  3.933444
  12519.949  12520.000  0.500  3.159189  53.645863  92.614221  3.932416
  12520.250  12520.300  0.500  3.159607  53.640893  92.592959  3.929871
  12520.551  12520.600  0.500  3.160102  53.631354  92.587114  3.927676
  12520.858  12520.900  0.500  3.160564  53.625410  92.576979  3.925433
  12521.166  12521.200  0.500  3.161005  53.622254  92.575901  3.923658
  12521.466  12521.500  0.500  3.161509  53.619825  92.561430  3.921067
  12521.753  12521.800  0.500  3.162214  53.615831  92.555641  3.918056
  12522.061  12522.100  0.500  3.162407  53.607467  92.549868  3.917058
  12522.361  12522.400  0.500  3.163238  53.604248  92.541912  3.913467
  12522.655  12522.700  0.500  3.163777  53.594643  92.535629  3.911092
  12522.956  12523.000  0.500  3.164197  53.592898  92.526574  3.909068
  12523.291  12523.300  0.500  3.165414  53.590468  92.522502  3.904142
  12523.578  12523.600  0.500  3.165834  53.581063  92.506842  3.901843
  12523.872  12523.900  0.500  3.166581  53.579618  92.504700  3.898838
  12524.179  12524.200  0.500  3.167438  53.573343  92.496100  3.895137
  12524.480  12524.500  0.500  3.168393  53.569041  92.482952  3.890864
  12524.774  12524.800  0.500  3.169547  53.562661  92.484719  3.886450
  12525.089  12525.100  0.500  3.170430  53.559756  92.467978  3.882318
  12525.396  12525.400  0.500  3.171915  53.554468  92.452225  3.875897
  12525.683  12525.700  0.500  3.172930  53.550052  92.449292  3.871842
  12525.991  12526.000  0.500  3.174466  53.541844  92.445092  3.865722
  12526.285  12526.300  0.500  3.176215  53.537587  92.431489  3.858399
  12526.593  12526.600  0.500  3.177672  53.532659  92.429557  3.852702
  12526.887  12526.900  0.500  3.179385  53.527818  92.420176  3.845719
  12527.202  12527.200  0.500  3.181709  53.522437  92.413676  3.836522
  12527.489  12527.500  0.500  3.183557  53.513037  92.408891  3.829241
  12527.783  12527.800  0.500  3.186019  53.512287  92.392906  3.819162
  12528.091  12528.100  0.500  3.188407  53.507216  92.389231  3.809901
  12528.385  12528.400  0.500  3.190987  53.503516  92.387936  3.800031
  12528.700  12528.700  0.500  3.193840  53.497966  92.375682  3.788704
  12529.014  12529.000  0.500  3.197013  53.491010  92.368438  3.776405
  12529.302  12529.300  0.500  3.199911  53.484498  92.357389  3.765025
  12529.582  12529.600  0.500  3.203338  53.481602  92.350503  3.751865
  12529.883  12529.900  0.500  3.206971  53.475603  92.345478  3.738055
  12530.184  12530.200  0.500  3.210670  53.473366  92.332600  3.723737
  12530.478  12530.500  0.500  3.213996  53.469953  92.330031  3.711269
  12530.793  12530.800  0.500  3.218282  53.462549  92.319757  3.694984
  12531.087  12531.100  0.500  3.222174  53.458548  92.308472  3.680180
  12531.375  12531.400  0.500  3.225996  53.454667  92.303880  3.665961
  12531.683  12531.700  0.500  3.230314  53.450599  92.296669  3.649878
  12531.977  12532.000  0.500  3.234607  53.443728  92.282780  3.633699
  12532.278  12532.300  0.500  3.238874  53.437042  92.277471  3.618018
  12532.593  12532.600  0.500  3.243256  53.429676  92.271411  3.601961
  12532.888  12532.900  0.500  3.247458  53.425875  92.259212  3.586381
  12533.182  12533.200  0.500  3.251427  53.423554  92.253363  3.571952
  12533.490  12533.500  0.500  3.255841  53.414812  92.242919  3.555815
  12533.798  12533.800  0.500  3.259758  53.412563  92.238294  3.541737
  12534.079  12534.100  0.500  3.263614  53.407767  92.236914  3.528053
  12534.401  12534.400  0.500  3.267508  53.402695  92.224891  3.513884
  12534.716  12534.700  0.500  3.271450  53.392629  92.217879  3.499792
  12534.996  12535.000  0.500  3.274474  53.387710  92.206442  3.488794
  12535.304  12535.300  0.500  3.277824  53.381485  92.194045  3.476660
  12535.613  12535.600  0.500  3.280874  53.376619  92.182807  3.465646
  12535.887  12535.900  0.500  3.283536  53.371660  92.179584  3.456313
  12536.208  12536.200  0.500  3.286914  53.364771  92.169713  3.444290
  12536.503  12536.500  0.500  3.290040  53.361608  92.158862  3.433134
  12536.804  12536.800  0.500  3.293205  53.348031  92.143021  3.421699
  12537.099  12537.100  0.500  3.296249  53.345938  92.141615  3.411247
  12537.400  12537.400  0.500  3.299893  53.335476  92.119787  3.398034
  12537.709  12537.700  0.500  3.304142  53.322891  92.104281  3.383055
  12538.003  12538.000  0.500  3.308351  53.312332  92.085865  3.368174
  12538.318  12538.300  0.500  3.313043  53.295110  92.048703  3.351053
  12538.613  12538.600  0.500  3.317607  53.271378  92.007151  3.334290
  12538.901  12538.900  0.500  3.322905  53.216046  91.920221  3.313538
  12539.202  12539.200  0.500  3.328844  53.123836  91.757237  3.288074
  12539.504  12539.500  0.500  3.334540  53.015263  91.566623  3.262609
  12539.785  12539.800  0.500  3.340554  52.918413  91.408270  3.237436
  12540.100  12540.100  0.500  3.346838  52.856076  91.306617  3.213579
  12540.402  12540.400  0.500  3.353816  52.850375  91.296224  3.190870
  12540.683  12540.700  0.500  3.360187  52.903371  91.377250  3.173418
  12540.998  12541.000  0.500  3.367291  52.984994  91.531647  3.156279
  12541.293  12541.300  0.500  3.374693  53.080835  91.690683  3.138447
  12541.574  12541.600  0.500  3.381719  53.152952  91.808715  3.120484
  12541.882  12541.900  0.500  3.389217  53.214886  91.909917  3.100588
  12542.198  12542.200  0.500  3.396793  53.255420  91.990480  3.079885
  12542.492  12542.500  0.500  3.404033  53.272886  92.025004  3.058814
  12542.794  12542.800  0.500  3.411218  53.277892  92.038888  3.037374
  12543.103  12543.100  0.500  3.419023  53.280326  92.043547  3.013912
  12543.384  12543.400  0.500  3.425900  53.273740  92.028057  2.992753
  12543.679  12543.700  0.500  3.433249  53.271578  92.035034  2.971065
  12544.015  12544.000  0.500  3.440767  53.271099  92.025287  2.948501
  12544.296  12544.300  0.500  3.447521  53.266125  92.012588  2.928248
  12544.598  12544.600  0.500  3.454323  53.258490  91.996444  2.907888
  12544.899  12544.900  0.500  3.461583  53.250151  91.992011  2.886713
  12545.215  12545.200  0.500  3.467705  53.246697  91.978247  2.868667
  12545.496  12545.500  0.500  3.474288  53.238322  91.974759  2.849737
  12545.805  12545.800  0.500  3.480790  53.235591  91.969050  2.831089
  12546.107  12546.100  0.500  3.486420  53.227287  91.958146  2.814864
  12546.395  12546.400  0.500  3.492265  53.225078  91.954632  2.798352
  12546.697  12546.700  0.500  3.497610  53.343013  92.161244  2.789687
  12547.005  12547.000  0.500  3.502854  53.392091  92.246792  2.777674
  12547.300  12547.300  0.500  3.507550  53.396939  92.257768  2.764990
  12547.602  12547.600  0.500  3.512773  53.399534  92.256132  2.750536
  12547.911  12547.900  0.500  3.517413  53.395057  92.248171  2.737568
  12548.199  12548.200  0.500  3.521189  53.390172  92.242908  2.727093
  12548.501  12548.500  0.500  3.525871  53.387243  92.240872  2.714295
  12548.803  12548.800  0.500  3.530321  53.378079  92.228978  2.701894
  12549.085  12549.100  0.500  3.533680  53.375267  92.224609  2.692708
  12549.407  12549.400  0.500  3.537421  53.373100  92.209312  2.682208
  12549.709  12549.700  0.500  3.541443  53.362656  92.204281  2.671294
  12550.004  12550.000  0.500  3.544421  53.357961  92.190862  2.662963
  12550.299  12550.300  0.500  3.547521  53.351575  92.186246  2.654589
  12550.602  12550.600  0.500  3.550591  53.349519  92.180507  2.646286
  12550.890  12550.900  0.500  3.553244  53.346659  92.176633  2.639165
  12551.185  12551.200  0.500  3.555452  53.343360  92.170183  2.633161
  12551.501  12551.500  0.500  3.558105  53.336816  92.161390  2.625933
  12551.707  12551.700  0.500  3.559418  53.333909  92.152621  2.622239
  12552.703  12552.690  0.500  3.564162  53.319772  92.132529  2.609260
  12553.698  12553.690  0.500  3.565344  53.304972  92.113956  2.605652
  12554.722  12554.710  0.500  3.563157  53.286616  92.082634  2.610469
  12555.780  12555.760  0.500  3.558965  53.270846  92.056432  2.620687
  12556.845  12556.820  0.500  3.554792  53.256656  92.033058  2.630977
  12557.938  12557.900  0.500  3.550240  53.241449  92.016768  2.642514
  12559.024  12559.000  0.500  3.548093  53.231040  91.996575  2.647613
  12560.144  12560.120  0.500  3.546834  53.212844  91.968088  2.650126
  12561.265  12561.260  0.500  3.546164  53.197586  91.938391  2.651046
  12562.428  12562.410  0.500  3.545076  53.180011  91.917974  2.653344
  12563.590  12563.590  0.500  3.543415  53.162866  91.893740  2.657055
  12564.801  12564.780  0.500  3.539702  53.148870  91.870886  2.666274
  12565.998  12566.000  0.500  3.533500  53.131424  91.840036  2.681962
  12567.258  12567.230  0.500  3.524658  53.113322  91.810533  2.704910
  12568.497  12568.480  0.500  3.514148  53.098622  91.792141  2.732942
  12569.764  12569.750  0.500  3.503509  53.076241  91.759406  2.761187
  12571.059  12571.040  0.500  3.493921  53.058950  91.739397  2.787181
  12572.340  12572.350  0.500  3.484888  53.041475  91.716856  2.811780
  12573.691  12573.680  0.500  3.476854  53.023779  91.680655  2.833344
  12575.027  12575.030  0.500  3.470753  53.003492  91.640146  2.849424
  12576.427  12576.400  0.500  3.465732  52.963871  91.578752  2.861847
  12577.806  12577.780  0.500  3.462234  52.957906  91.568592  2.871557
  12579.226  12579.190  0.500  3.458721  52.949303  91.560572  2.881411
  12580.606  12580.610  0.500  3.456484  52.927207  91.535561  2.887075
  12582.061  12582.050  0.500  3.454524  52.905389  91.496730  2.891512
  12583.504  12583.510  0.500  3.452638  52.887679  91.470378  2.896136
  12585.008  12584.990  0.500  3.451185  52.872835  91.446551  2.899592
  12586.500  12586.490  0.500  3.449829  52.848491  91.408299  2.902312
  12588.040  12588.010  0.500  3.448262  52.826172  91.371322  2.905686
  12589.559  12589.550  0.500  3.446973  52.806007  91.343633  2.908552
  12591.114  12591.110  0.500  3.446153  52.785277  91.311130  2.909904
  12592.703  12592.680  0.500  3.445082  52.765485  91.277958  2.911963
  12594.286  12594.280  0.500  3.444544  52.743415  91.249402  2.912618
  12595.877  12595.890  0.500  3.443712  52.727006  91.219919  2.914102
  12597.550  12597.530  0.500  3.443515  52.696526  91.188845  2.913682
  12599.197  12599.180  0.500  3.443875  52.676081  91.142763  2.911163
  12600.872  12600.850  0.500  3.444833  52.637428  91.077573  2.906293
  12602.533  12602.540  0.500  3.446368  52.632410  91.065482  2.901451
  12604.243  12604.250  0.500  3.448086  52.612636  91.035869  2.895530
  12605.995  12605.980  0.500  3.450400  52.588029  91.004731  2.887846
  12607.755  12607.730  0.500  3.452946  52.563715  90.970491  2.879422
  12609.487  12609.490  0.500  3.455417  52.539581  90.931702  2.871091
  12611.303  12611.280  0.500  3.458344  52.520030  90.902355  2.861773
  12613.071  12613.080  0.500  3.461641  52.494570  90.868754  2.851300
  12614.909  12614.910  0.500  3.463347  52.467150  90.826883  2.845129
  12616.748  12616.750  0.500  3.464553  52.440739  90.780683  2.840255
  12618.628  12618.610  0.500  3.464872  52.416127  90.743174  2.838175
  12620.523  12620.490  0.500  3.464596  52.340771  90.621382  2.835148
  12622.405  12622.390  0.500  3.463004  52.331150  90.603362  2.839101
  12624.308  12624.310  0.500  3.461421  52.333213  90.608107  2.843747
  12626.247  12626.250  0.500  3.458970  52.313033  90.576208  2.849721
  12628.214  12628.210  0.500  3.456091  52.228120  90.431007  2.853356
  12630.181  12630.180  0.500  3.453634  52.269697  90.515933  2.863063
  12632.198  12632.180  0.500  3.451216  52.237495  90.468459  2.868490
  12634.188  12634.190  0.500  3.449286  52.143105  90.308034  2.868934
  12636.227  12636.220  0.500  3.447634  52.187953  90.386929  2.876188
  12638.308  12638.280  0.500  3.446217  52.164840  90.348677  2.879047
  12640.390  12640.350  0.500  3.445246  52.117724  90.275641  2.879515
  12642.480  12642.440  0.500  3.443337  52.070794  90.200038  2.882600
  12644.557  12644.550  0.500  3.441600  52.083388  90.220884  2.888279
  12646.676  12646.680  0.500  3.439246  52.055479  90.181671  2.893827
  12648.824  12648.820  0.500  3.436235  52.012229  90.106741  2.900144
  12651.007  12650.990  0.500  3.433157  51.997088  90.090676  2.908566
  12653.191  12653.180  0.500  3.430121  51.970326  90.054525  2.916238
  12655.390  12655.380  0.500  3.427206  51.938073  90.006776  2.923199
  12657.604  12657.600  0.500  3.424375  51.910283  89.963215  2.930068
  12659.881  12659.850  0.500  3.421565  51.880065  89.920525  2.936919
  12662.124  12662.110  0.500  3.419056  51.853312  89.872316  2.942720
  12664.417  12664.390  0.500  3.416565  51.818250  89.812293  2.948089
  12666.696  12666.690  0.500  3.414124  51.786980  89.774048  2.954036
  12669.012  12669.010  0.500  3.412142  51.757309  89.723768  2.958238
  12671.377  12671.350  0.500  3.409674  51.727798  89.684591  2.964253
  12673.723  12673.700  0.500  3.407900  51.696316  89.631713  2.967765
  12676.083  12676.080  0.500  3.406644  51.665250  89.582408  2.969862
  12678.479  12678.470  0.500  3.405646  51.625647  89.528155  2.971027
  12680.911  12680.890  0.500  3.404756  51.601623  89.488517  2.972356
  12683.358  12683.320  0.500  3.404181  51.569306  89.442082  2.972519
  12685.771  12685.770  0.500  3.403923  51.542164  89.398567  2.971842
  12688.248  12688.250  0.500  3.403408  51.512025  89.345494  2.971607
  12690.768  12690.740  0.500  3.403493  51.473343  89.284282  2.969318
  12693.261  12693.250  0.500  3.403086  51.447052  89.255080  2.969556
  12695.748  12695.770  0.500  3.403491  51.413419  89.195879  2.966383
  12698.320  12698.320  0.500  3.403179  51.382150  89.150309  2.965793
  12700.908  12700.890  0.500  3.403341  51.346067  89.100017  2.963642
  12703.496  12703.470  0.500  3.402713  51.309855  89.044507  2.963656
  12706.079  12706.080  0.500  3.402255  51.277818  88.993320  2.963307
  12708.705  12708.700  0.500  3.400997  51.241561  88.945278  2.965436
  12711.353  12711.350  0.500  3.398997  51.209153  88.883017  2.969294
  12714.009  12714.010  0.500  3.397056  51.176101  88.836251  2.973498
  12716.688  12716.690  0.500  3.394590  51.142046  88.787635  2.979208
  12719.396  12719.390  0.500  3.392144  51.102820  88.708331  2.983836
  12722.133  12722.110  0.500  3.390159  51.069789  88.662668  2.988226
  12724.864  12724.850  0.500  3.388018  51.034035  88.608973  2.992818
  12727.590  12727.600  0.500  3.386176  51.000900  88.554240  2.996483
  12730.394  12730.380  0.500  3.384707  50.960009  88.495180  2.998886
  12733.193  12733.170  0.500  3.383011  50.905419  88.413527  3.001204
  12736.007  12735.990  0.500  3.381348  50.700501  88.057157  2.994082
  12738.822  12738.820  0.500  3.378891  50.551868  87.803877  2.992816
  12741.667  12741.670  0.500  3.376667  50.827486  88.293991  3.016222
  12744.556  12744.550  0.500  3.373888  50.801460  88.245621  3.022957
  12747.439  12747.440  0.500  3.371170  50.764274  88.192965  3.029379
  12750.351  12750.350  0.500  3.368237  50.723568  88.137009  3.036348
  12753.279  12753.270  0.500  3.365722  50.683205  88.068232  3.041619
  12756.223  12756.220  0.500  3.362892  50.647327  88.008440  3.048167
  12759.211  12759.190  0.500  3.360448  50.612721  87.962567  3.054035
  12762.207  12762.170  0.500  3.358108  50.566732  87.898872  3.058974
  12765.211  12765.180  0.500  3.355462  50.530436  87.837590  3.064939
  12768.189  12768.200  0.500  3.353084  50.498425  87.786589  3.070452
  12771.261  12771.250  0.500  3.350903  50.455238  87.721357  3.074868
