# XDI/1.0 BlueSky/1.10.0 BMM/2023-1.0-py310-tiled
# Beamline.name: BMM (06BM) -- Beamline for Materials Measurement (NIST)
# Beamline.xray_source: NSLS-II three-pole wiggler
# Beamline.collimation: paraboloid mirror, 5 nm Rh on 30 nm Pt
# Beamline.focusing: not in use
# Beamline.harmonic_rejection: flat mirror, Pt stripe, pitch = 7.0 mrad relative to beam
# Beamline.software: Bluesky 1.10.0, Ophyd 1.7.0, DataBroker 2.0.0b13, Python 3.10.8, 2023-1.0-py310-tiled
# Detector.I0: 10 cm N2
# Detector.I1: 25 cm N2
# Detector.I2: 25 cm N2
# Element.symbol: Re
# Element.edge: L1
# Element.reference: Re
# Element.reference_material: ReO2
# Facility.name: NSLS-II
# Facility.energy: 3.0
# Facility.current: 399.3
# Facility.mode: top-off
# Facility.GUP: 301027
# Facility.SAF: 310583
# Facility.cycle: 2023-2
# Mono.name: Si(111)
# Mono.d_spacing: 3.1351860
# Mono.encoder_resolution: 0.0000050 deg/ct
# Mono.angle_offset: 16.0754326 deg
# Mono.scan_mode: pseudo channel cut
# Mono.scan_type: step
# Mono.direction: forward in energy
# Sample.name: NH4ReO4, Ammonium perrhenate
# Sample.prep: powder on tape
# Sample.x: 145.711 mm
# Sample.y: 114.376 mm
# Sample.SDD_position: 205.000 mm
# Scan.experimenters: Bruce Ravel
# Scan.edge_energy: 12526.7
# Scan.start_time: 2023-06-27T18:43:03
# Scan.end_time: 2023-06-27T18:50:43
# Scan.transient_id: 85234
# Scan.uid: 8e855c53-5529-4d10-b8fa-0d70eacc2ec4
# Scan.plot_hint: ln(I0/It)  --  ln($5/$6)
# Column.1: energy eV
# Column.2: requested_energy eV
# Column.3: measurement_time seconds
# Column.4: xmu 
# Column.5: I0 nA
# Column.6: It nA
# Column.7: Ir nA
# ///////////
# Welcome to BMM
# -----------
# energy  requested_energy  measurement_time  xmu  I0  It  Ir
  12326.685  12326.700  0.500  3.129444  55.175682  2.413501  0.081440
  12336.728  12336.700  0.500  3.121049  55.125073  2.431615  0.082618
  12346.741  12346.700  0.500  3.113161  55.047010  2.447401  0.083869
  12356.764  12356.700  0.500  3.105479  54.860340  2.457911  0.084726
  12366.690  12366.700  0.500  3.099438  54.982471  2.478310  0.085806
  12376.719  12376.700  0.500  3.093500  54.875003  2.488195  0.086501
  12386.751  12386.700  0.500  3.088782  54.758596  2.494661  0.087422
  12396.793  12396.700  0.500  3.083950  54.665314  2.502474  0.088289
  12406.684  12406.700  0.500  3.079366  54.493362  2.506063  0.089076
  12416.739  12416.700  0.500  3.074143  55.006284  2.542899  0.090750
  12426.729  12426.700  0.500  3.069147  54.921837  2.551711  0.091571
  12436.716  12436.700  0.500  3.063783  54.466079  2.544146  0.091319
  12446.698  12446.700  0.500  3.058327  54.693325  2.568737  0.092830
  12456.697  12456.700  0.500  3.052197  54.572383  2.578818  0.093419
  12466.705  12466.700  0.500  3.046108  54.450032  2.588750  0.094441
  12476.716  12476.700  0.500  3.040081  54.315245  2.597954  0.095291
  12486.710  12486.700  0.500  3.034450  53.869263  2.591171  0.095598
  12496.713  12496.700  0.500  3.029199  54.101506  2.616043  0.097316
  12498.666  12498.700  0.500  3.028341  54.072734  2.616897  0.097331
  12500.661  12500.700  0.500  3.027499  54.050202  2.618010  0.097323
  12502.657  12502.700  0.500  3.026767  54.014380  2.618190  0.097483
  12504.660  12504.700  0.500  3.025948  53.988503  2.619079  0.097401
  12506.643  12506.700  0.500  3.025878  53.968516  2.618293  0.097514
  12508.641  12508.700  0.500  3.025604  53.946786  2.617958  0.097601
  12510.652  12510.700  0.500  3.025208  53.921433  2.617762  0.097567
  12512.651  12512.700  0.500  3.025211  53.883311  2.615904  0.097293
  12514.664  12514.700  0.500  3.025700  53.864305  2.613704  0.097300
  12516.665  12516.700  0.500  3.026701  53.843282  2.610068  0.097115
  12516.944  12517.000  0.500  3.026448  53.836868  2.610419  0.096947
  12517.245  12517.300  0.500  3.026566  53.834446  2.609994  0.096954
  12517.539  12517.600  0.500  3.027028  53.825721  2.608364  0.097092
  12517.846  12517.900  0.500  3.027476  53.821239  2.606979  0.096742
  12518.146  12518.200  0.500  3.027564  53.815425  2.606469  0.096697
  12518.454  12518.500  0.500  3.027667  53.811530  2.606011  0.096659
  12518.740  12518.800  0.500  3.027944  53.807118  2.605075  0.096725
  12519.048  12519.100  0.500  3.028474  53.806046  2.603644  0.096656
  12519.369  12519.400  0.500  3.028682  53.796932  2.602662  0.096567
  12519.656  12519.700  0.500  3.028835  53.790508  2.601953  0.096357
  12519.949  12520.000  0.500  3.029387  53.790697  2.600526  0.096447
  12520.250  12520.300  0.500  3.029939  53.780132  2.598579  0.096308
  12520.564  12520.600  0.500  3.030502  53.778530  2.597040  0.096459
  12520.844  12520.900  0.500  3.030600  53.771801  2.596460  0.096205
  12521.159  12521.200  0.500  3.030932  53.766433  2.595340  0.096074
  12521.480  12521.500  0.500  3.031565  53.771434  2.593940  0.095959
  12521.774  12521.800  0.500  3.032211  53.762716  2.591842  0.095771
  12522.067  12522.100  0.500  3.032895  53.750331  2.589473  0.095724
  12522.368  12522.400  0.500  3.033335  53.748553  2.588250  0.095616
  12522.676  12522.700  0.500  3.034195  53.744001  2.585805  0.095573
  12522.970  12523.000  0.500  3.034831  53.744960  2.584206  0.095343
  12523.284  12523.300  0.500  3.035642  53.734576  2.581613  0.095161
  12523.585  12523.600  0.500  3.036498  53.733102  2.579335  0.094859
  12523.892  12523.900  0.500  3.037378  53.722940  2.576578  0.094758
  12524.186  12524.200  0.500  3.038160  53.721625  2.574501  0.094807
  12524.487  12524.500  0.500  3.039277  53.717573  2.571433  0.094561
  12524.788  12524.800  0.500  3.040256  53.717490  2.568912  0.094262
  12525.089  12525.100  0.500  3.041716  53.712220  2.564912  0.094062
  12525.389  12525.400  0.500  3.042829  53.704706  2.561700  0.093921
  12525.697  12525.700  0.500  3.044421  53.697133  2.557267  0.093619
  12526.005  12526.000  0.500  3.046085  53.689942  2.552672  0.093385
  12526.292  12526.300  0.500  3.047448  53.686653  2.549039  0.093114
  12526.586  12526.600  0.500  3.049677  53.688801  2.543465  0.092913
  12526.894  12526.900  0.500  3.051219  53.675135  2.538900  0.092543
  12527.188  12527.200  0.500  3.053439  53.678196  2.533413  0.092043
  12527.482  12527.500  0.500  3.055763  53.666400  2.526978  0.091804
  12527.810  12527.800  0.500  3.058408  53.670717  2.520507  0.091282
  12528.098  12528.100  0.500  3.060917  53.654812  2.513445  0.090832
  12528.392  12528.400  0.500  3.063991  53.651710  2.505585  0.090383
  12528.700  12528.700  0.500  3.067122  53.648392  2.497598  0.089760
  12528.980  12529.000  0.500  3.070710  53.636090  2.488082  0.089346
  12529.288  12529.300  0.500  3.074330  53.627630  2.478701  0.088648
  12529.589  12529.600  0.500  3.078924  53.629954  2.467447  0.088055
  12529.883  12529.900  0.500  3.083313  53.634907  2.456867  0.087231
  12530.177  12530.200  0.500  3.088586  53.624607  2.443477  0.086673
  12530.478  12530.500  0.500  3.094636  53.626754  2.428836  0.085554
  12530.786  12530.800  0.500  3.100608  53.608970  2.413574  0.084882
  12531.060  12531.100  0.500  3.107323  53.605411  2.397262  0.083913
  12531.382  12531.400  0.500  3.115407  53.598223  2.377641  0.082968
  12531.697  12531.700  0.500  3.124514  53.594198  2.355909  0.081719
  12531.970  12532.000  0.500  3.133133  53.594281  2.335694  0.080816
  12532.285  12532.300  0.500  3.143732  53.579343  2.310425  0.079397
  12532.593  12532.600  0.500  3.155222  53.579461  2.284036  0.078395
  12532.888  12532.900  0.500  3.166075  53.575378  2.259209  0.076839
  12533.196  12533.200  0.500  3.178833  53.562531  2.230034  0.075834
  12533.497  12533.500  0.500  3.191100  53.559957  2.202740  0.074377
  12533.784  12533.800  0.500  3.203256  53.556660  2.175990  0.073236
  12534.099  12534.100  0.500  3.216538  53.551207  2.147062  0.071847
  12534.401  12534.400  0.500  3.227809  53.546105  2.122797  0.070786
  12534.688  12534.700  0.500  3.238098  53.541581  2.100889  0.069816
  12535.010  12535.000  0.500  3.247176  53.545824  2.082068  0.068922
  12535.298  12535.300  0.500  3.254531  53.530042  2.066201  0.067963
  12535.599  12535.600  0.500  3.259354  53.528307  2.056194  0.067615
  12535.907  12535.900  0.500  3.262086  53.522745  2.050371  0.067043
  12536.202  12536.200  0.500  3.261890  53.518705  2.050618  0.066835
  12536.489  12536.500  0.500  3.260042  53.514543  2.054250  0.066781
  12536.811  12536.800  0.500  3.255833  53.509770  2.062732  0.066885
  12537.099  12537.100  0.500  3.250247  53.498001  2.073831  0.066817
  12537.393  12537.400  0.500  3.243135  53.495587  2.088537  0.067273
  12537.709  12537.700  0.500  3.235455  53.496434  2.104672  0.067620
  12537.996  12538.000  0.500  3.227313  53.483006  2.121346  0.067915
  12538.291  12538.300  0.500  3.219091  53.479264  2.138710  0.068008
  12538.606  12538.600  0.500  3.211295  53.471782  2.155148  0.068423
  12538.901  12538.900  0.500  3.203752  53.456476  2.170843  0.068329
  12539.202  12539.200  0.500  3.197750  53.438717  2.183186  0.068474
  12539.490  12539.500  0.500  3.191930  53.418413  2.195096  0.068346
  12539.785  12539.800  0.500  3.186945  53.361128  2.203700  0.068353
  12540.073  12540.100  0.500  3.183106  53.283171  2.208943  0.068286
  12540.395  12540.400  0.500  3.179827  53.169557  2.211474  0.067766
  12540.683  12540.700  0.500  3.177472  53.078192  2.212879  0.067295
  12540.998  12541.000  0.500  3.176585  53.008407  2.211929  0.066939
  12541.293  12541.300  0.500  3.175884  52.992029  2.212798  0.066338
  12541.587  12541.600  0.500  3.175826  53.035442  2.214738  0.066168
  12541.889  12541.900  0.500  3.176314  53.116958  2.217060  0.065499
  12542.211  12542.200  0.500  3.177318  53.206837  2.218583  0.065256
  12542.492  12542.500  0.500  3.179061  53.281471  2.217826  0.064679
  12542.787  12542.800  0.500  3.181089  53.344412  2.215947  0.064116
  12543.096  12543.100  0.500  3.183301  53.394230  2.213117  0.063160
  12543.397  12543.400  0.500  3.186276  53.406711  2.207058  0.062847
  12543.699  12543.700  0.500  3.189695  53.416629  2.199934  0.062102
  12544.001  12544.000  0.500  3.193439  53.420781  2.191883  0.061308
  12544.296  12544.300  0.500  3.196765  53.412663  2.184272  0.060672
  12544.598  12544.600  0.500  3.201486  53.415520  2.174100  0.060123
  12544.906  12544.900  0.500  3.206830  53.398428  2.161821  0.059083
  12545.201  12545.200  0.500  3.211282  53.395784  2.152113  0.058369
  12545.517  12545.500  0.500  3.217239  53.393469  2.139238  0.057619
  12545.812  12545.800  0.500  3.222950  53.401927  2.127392  0.056892
  12546.100  12546.100  0.500  3.229124  53.384124  2.113593  0.056136
  12546.402  12546.400  0.500  3.235427  53.377340  2.100047  0.055471
  12546.703  12546.700  0.500  3.241643  53.379290  2.087109  0.054770
  12547.005  12547.000  0.500  3.248459  53.366263  2.072425  0.054120
  12547.314  12547.300  0.500  3.255118  53.364921  2.058620  0.053318
  12547.609  12547.600  0.500  3.261660  53.364725  2.045188  0.052791
  12547.884  12547.900  0.500  3.268130  53.374071  2.032356  0.052026
  12548.199  12548.200  0.500  3.275292  53.352360  2.017031  0.051495
  12548.494  12548.500  0.500  3.281548  53.348969  2.004323  0.050777
  12548.803  12548.800  0.500  3.287295  53.341459  1.992557  0.050616
  12549.105  12549.100  0.500  3.293511  53.338098  1.980085  0.049847
  12549.387  12549.400  0.500  3.299224  53.344298  1.969034  0.049374
  12549.675  12549.700  0.500  3.305031  53.330803  1.957137  0.048727
  12549.991  12550.000  0.500  3.310455  53.331892  1.946591  0.048229
  12550.279  12550.300  0.500  3.315628  53.325334  1.936308  0.047745
  12550.588  12550.600  0.500  3.320342  53.320936  1.927044  0.047420
  12550.904  12550.900  0.500  3.326166  53.314479  1.915621  0.047197
  12551.185  12551.200  0.500  3.330760  53.313265  1.906798  0.046613
  12551.487  12551.500  0.500  3.336139  53.305717  1.896300  0.046187
  12551.693  12551.700  0.500  3.339445  53.303519  1.889964  0.046094
  12552.716  12552.690  0.500  3.356412  53.283847  1.857481  0.044833
  12553.692  12553.690  0.500  3.371993  53.275921  1.828491  0.043953
  12554.729  12554.710  0.500  3.388113  53.262971  1.798816  0.043208
  12555.801  12555.760  0.500  3.402217  53.246023  1.773058  0.042766
  12556.838  12556.820  0.500  3.413122  53.230200  1.753307  0.042425
  12557.910  12557.900  0.500  3.421650  53.217479  1.738002  0.042225
  12559.003  12559.000  0.500  3.426747  53.201837  1.728659  0.042169
  12560.131  12560.120  0.500  3.428825  53.186600  1.724577  0.042297
  12561.272  12561.260  0.500  3.427858  53.170309  1.725715  0.042234
  12562.428  12562.410  0.500  3.425808  53.154590  1.728747  0.042419
  12563.604  12563.590  0.500  3.423496  53.148062  1.732536  0.042476
  12564.808  12564.780  0.500  3.422887  53.130448  1.733016  0.042500
  12566.033  12566.000  0.500  3.424340  53.114730  1.729987  0.042732
  12567.237  12567.230  0.500  3.427661  53.099410  1.723754  0.042846
  12568.483  12568.480  0.500  3.433233  53.078668  1.713507  0.043171
  12569.743  12569.750  0.500  3.439551  53.062485  1.702196  0.043309
  12571.059  12571.040  0.500  3.445923  53.047133  1.690895  0.043447
  12572.361  12572.350  0.500  3.452152  53.029454  1.679835  0.043712
  12573.704  12573.680  0.500  3.456209  53.014380  1.672558  0.043813
  12575.041  12575.030  0.500  3.458435  52.999343  1.668366  0.044118
  12576.413  12576.400  0.500  3.458417  52.969594  1.667460  0.044318
  12577.792  12577.780  0.500  3.457029  52.945088  1.669003  0.044537
  12579.171  12579.190  0.500  3.454640  52.934914  1.672673  0.044897
  12580.626  12580.610  0.500  3.451473  52.925394  1.677678  0.045165
  12582.068  12582.050  0.500  3.447299  52.902781  1.683975  0.045424
  12583.524  12583.510  0.500  3.441152  52.897115  1.694177  0.045874
  12585.008  12584.990  0.500  3.433830  53.057279  1.711794  0.046432
  12586.514  12586.490  0.500  3.424286  53.038297  1.727592  0.046851
  12587.998  12588.010  0.500  3.414756  53.015115  1.743373  0.047460
  12589.552  12589.550  0.500  3.404188  52.997667  1.761313  0.048110
  12591.128  12591.110  0.500  3.394722  52.982430  1.777553  0.048385
  12592.703  12592.680  0.500  3.386529  52.964054  1.791556  0.048900
  12594.293  12594.280  0.500  3.378543  52.942267  1.805178  0.049191
  12595.898  12595.890  0.500  3.371971  52.921315  1.816361  0.049568
  12597.530  12597.530  0.500  3.366579  52.904721  1.825609  0.049926
  12599.183  12599.180  0.500  3.361346  52.885133  1.834507  0.050198
  12600.879  12600.850  0.500  3.355922  52.856812  1.843497  0.050423
  12602.567  12602.540  0.500  3.351273  52.830467  1.851165  0.050573
  12604.278  12604.250  0.500  3.346884  52.822953  1.859042  0.050749
  12606.002  12605.980  0.500  3.342866  52.802084  1.865790  0.050653
  12607.741  12607.730  0.500  3.339545  52.782817  1.871314  0.050618
  12609.494  12609.490  0.500  3.336641  52.762367  1.876029  0.050681
  12611.310  12611.280  0.500  3.334316  52.735611  1.879442  0.050609
  12613.092  12613.080  0.500  3.332417  52.710343  1.882113  0.050600
  12614.923  12614.910  0.500  3.330736  52.697758  1.884829  0.050450
  12616.748  12616.750  0.500  3.329239  52.667745  1.886578  0.050430
  12618.614  12618.610  0.500  3.328706  52.645577  1.886788  0.050379
  12620.496  12620.490  0.500  3.328170  52.611798  1.886588  0.050415
  12622.405  12622.390  0.500  3.327942  52.535060  1.884266  0.050239
  12624.322  12624.310  0.500  3.327926  52.550136  1.884838  0.050336
  12626.240  12626.250  0.500  3.328758  52.546052  1.883123  0.050516
  12628.200  12628.210  0.500  3.329342  52.470434  1.879316  0.050397
  12630.195  12630.180  0.500  3.329900  52.495066  1.879149  0.050679
  12632.198  12632.180  0.500  3.330378  52.473671  1.877485  0.050823
  12634.209  12634.190  0.500  3.330678  52.409345  1.874621  0.050637
  12636.227  12636.220  0.500  3.331848  52.407034  1.872348  0.050707
  12638.280  12638.280  0.500  3.333475  52.407888  1.869334  0.051003
  12640.370  12640.350  0.500  3.334483  52.381566  1.866513  0.050870
  12642.459  12642.440  0.500  3.336345  52.285275  1.859616  0.050710
  12644.571  12644.550  0.500  3.337944  52.334066  1.858376  0.050739
  12646.669  12646.680  0.500  3.339708  52.308521  1.854196  0.050815
  12648.824  12648.820  0.500  3.341333  52.271418  1.849872  0.050849
  12651.000  12650.990  0.500  3.342527  52.251197  1.846951  0.050883
  12653.198  12653.180  0.500  3.343785  52.236671  1.844116  0.050981
  12655.390  12655.380  0.500  3.344541  52.207862  1.841705  0.050949
  12657.597  12657.600  0.500  3.344483  52.181857  1.840896  0.051282
  12659.867  12659.850  0.500  3.344919  52.152426  1.839054  0.051372
  12662.131  12662.110  0.500  3.344182  52.122950  1.839370  0.051303
  12664.396  12664.390  0.500  3.343606  52.098478  1.839566  0.051522
  12666.703  12666.690  0.500  3.343075  52.069806  1.839530  0.051812
  12669.019  12669.010  0.500  3.341671  52.039532  1.841044  0.052005
  12671.377  12671.350  0.500  3.340470  52.013419  1.842331  0.051909
  12673.716  12673.700  0.500  3.338248  51.981616  1.845301  0.052189
  12676.069  12676.080  0.500  3.336559  51.955200  1.847481  0.052465
  12678.493  12678.470  0.500  3.333666  51.932592  1.852027  0.052640
  12680.918  12680.890  0.500  3.330882  51.895851  1.855877  0.052740
  12683.330  12683.320  0.500  3.328204  51.866859  1.859813  0.052987
  12685.778  12685.770  0.500  3.324889  51.836890  1.864910  0.052906
  12688.262  12688.250  0.500  3.321273  51.810334  1.870707  0.053147
  12690.761  12690.740  0.500  3.317932  51.779468  1.875850  0.053253
  12693.275  12693.250  0.500  3.314715  51.740768  1.880487  0.053470
  12695.783  12695.770  0.500  3.310752  51.715691  1.887040  0.053823
  12698.328  12698.320  0.500  3.307617  51.690125  1.892029  0.053887
  12700.915  12700.890  0.500  3.303939  51.654209  1.897682  0.054046
  12703.489  12703.470  0.500  3.300709  51.621714  1.902623  0.054141
  12706.072  12706.080  0.500  3.297379  51.588684  1.907748  0.054247
  12708.712  12708.700  0.500  3.294322  51.555965  1.912375  0.054571
  12711.374  12711.350  0.500  3.291180  51.530379  1.917441  0.054765
  12714.030  12714.010  0.500  3.288146  51.492785  1.921865  0.054896
  12716.702  12716.690  0.500  3.285404  51.469895  1.926285  0.055336
  12719.424  12719.390  0.500  3.282620  51.434580  1.930329  0.055542
  12722.133  12722.110  0.500  3.279977  51.396256  1.933995  0.055823
  12724.879  12724.850  0.500  3.277203  51.366129  1.938232  0.055957
  12727.597  12727.600  0.500  3.274674  51.326263  1.941631  0.056121
  12730.409  12730.380  0.500  3.272339  51.292676  1.944896  0.056423
  12733.200  12733.170  0.500  3.270111  51.251797  1.947681  0.056582
  12736.000  12735.990  0.500  3.268142  51.172996  1.948519  0.056687
  12738.822  12738.820  0.500  3.266330  50.505277  1.926583  0.056206
  12741.703  12741.670  0.500  3.264280  51.169295  1.955919  0.057178
  12744.577  12744.550  0.500  3.262355  51.139841  1.958559  0.057230
  12747.446  12747.440  0.500  3.260580  51.107064  1.960780  0.057666
  12750.358  12750.350  0.500  3.258979  51.070958  1.962535  0.057796
  12753.287  12753.270  0.500  3.257912  51.038376  1.963376  0.058127
  12756.237  12756.220  0.500  3.256351  51.002553  1.965064  0.058372
  12759.196  12759.190  0.500  3.255048  50.969170  1.966339  0.058614
  12762.207  12762.170  0.500  3.254054  50.931154  1.966825  0.058542
  12765.226  12765.180  0.500  3.252578  50.893885  1.968289  0.058725
  12768.218  12768.200  0.500  3.251051  50.859880  1.969980  0.058906
  12771.282  12771.250  0.500  3.250253  50.824907  1.970197  0.059145
  12774.341  12774.310  0.500  3.249207  50.783310  1.970645  0.059502
  12777.422  12777.390  0.500  3.248219  50.745749  1.971134  0.059430
  12780.513  12780.490  0.500  3.246581  50.713561  1.973112  0.059658
