# XDI/1.0 BlueSky/1.10.0 BMM/2023-1.0-py310-tiled
# Beamline.name: BMM (06BM) -- Beamline for Materials Measurement (NIST)
# Beamline.xray_source: NSLS-II three-pole wiggler
# Beamline.collimation: paraboloid mirror, 5 nm Rh on 30 nm Pt
# Beamline.focusing: not in use
# Beamline.harmonic_rejection: flat mirror, Pt stripe, pitch = 7.0 mrad relative to beam
# Beamline.software: Bluesky 1.10.0, Ophyd 1.7.0, DataBroker 2.0.0b13, Python 3.10.8, 2023-1.0-py310-tiled
# Detector.I0: 10 cm N2
# Detector.I1: 25 cm N2
# Detector.I2: 25 cm N2
# Element.symbol: Re
# Element.edge: L3
# Element.reference: Re
# Element.reference_material: ReO2
# Facility.name: NSLS-II
# Facility.energy: 3.0
# Facility.current: 400.2
# Facility.mode: top-off
# Facility.GUP: 301027
# Facility.SAF: 310583
# Facility.cycle: 2023-2
# Mono.name: Si(111)
# Mono.d_spacing: 3.1351860
# Mono.encoder_resolution: 0.0000050 deg/ct
# Mono.angle_offset: 16.0754326 deg
# Mono.scan_mode: pseudo channel cut
# Mono.scan_type: step
# Mono.direction: forward in energy
# Sample.name: ReO2, Rhenium dioxide
# Sample.prep: powder on tape
# Sample.x: 145.711 mm
# Sample.y: 114.376 mm
# Sample.SDD_position: 205.000 mm
# Scan.experimenters: Bruce Ravel
# Scan.edge_energy: 10535.3
# Scan.start_time: 2023-06-27T16:54:48
# Scan.end_time: 2023-06-27T17:02:25
# Scan.transient_id: 85168
# Scan.uid: 48c0d23d-b93d-456e-9737-9ce2d6d68dea
# Scan.plot_hint: ln(I0/It)  --  ln($5/$6)
# Column.1: energy eV
# Column.2: requested_energy eV
# Column.3: measurement_time seconds
# Column.4: xmu 
# Column.5: I0 nA
# Column.6: It nA
# Column.7: Ir nA
# ///////////
# Welcome to BMM
# -----------
# energy  requested_energy  measurement_time  xmu  I0  It  Ir
  10335.283  10335.300  0.500  1.599110  90.424969  18.272734  2.400864
  10345.311  10345.300  0.500  1.592961  90.267168  18.353363  2.425475
  10355.326  10355.300  0.500  1.586877  90.075007  18.426062  2.449216
  10365.333  10365.300  0.500  1.580680  89.896816  18.503924  2.472532
  10375.369  10375.300  0.500  1.574635  89.684844  18.572226  2.494022
  10385.359  10385.300  0.500  1.568656  89.494717  18.643983  2.518324
  10395.351  10395.300  0.500  1.562788  89.310657  18.715146  2.541390
  10405.343  10405.300  0.500  1.556840  89.123244  18.787287  2.564934
  10415.294  10415.300  0.500  1.551178  88.940222  18.855158  2.587368
  10425.330  10425.300  0.500  1.545484  88.758864  18.924155  2.609774
  10435.395  10435.300  0.500  1.540119  88.574785  18.986502  2.631093
  10445.414  10445.300  0.500  1.534904  88.383047  19.044460  2.650936
  10455.339  10455.300  0.500  1.530195  88.203222  19.095422  2.669880
  10465.340  10465.300  0.500  1.525867  88.021692  19.138778  2.684179
  10475.332  10475.300  0.500  1.522726  87.828824  19.156921  2.693184
  10485.386  10485.300  0.500  1.521356  87.655435  19.145304  2.693230
  10495.422  10495.300  0.500  1.523397  87.469001  19.065628  2.674688
  10505.290  10505.300  0.500  1.532598  87.286158  18.851529  2.614786
  10507.290  10507.300  0.500  1.535880  87.246506  18.781226  2.595258
  10509.296  10509.300  0.500  1.540302  87.213691  18.691321  2.570253
  10511.278  10511.300  0.500  1.545635  87.142234  18.576665  2.539410
  10513.285  10513.300  0.500  1.552605  87.065097  18.431314  2.499582
  10515.293  10515.300  0.500  1.561154  87.089869  18.279621  2.455848
  10517.287  10517.300  0.500  1.572255  87.056414  18.070863  2.397565
  10519.287  10519.300  0.500  1.586502  87.015593  17.806894  2.326864
  10521.288  10521.300  0.500  1.605360  86.977477  17.466582  2.235296
  10523.284  10523.300  0.500  1.630995  86.932656  17.015735  2.117642
  10525.296  10525.300  0.500  1.666375  86.806650  16.400438  1.964259
  10525.560  10525.600  0.500  1.672337  86.733412  16.289202  1.937918
  10525.863  10525.900  0.500  1.679418  86.661414  16.160828  1.907999
  10526.165  10526.200  0.500  1.686727  86.632992  16.037884  1.878961
  10526.468  10526.500  0.500  1.694343  86.639705  15.917443  1.848792
  10526.761  10526.800  0.500  1.702598  86.667566  15.791649  1.817785
  10527.063  10527.100  0.500  1.711533  86.700985  15.657217  1.784817
  10527.356  10527.400  0.500  1.720307  86.719930  15.523836  1.753155
  10527.659  10527.700  0.500  1.730335  86.740508  15.372590  1.717177
  10527.962  10528.000  0.500  1.740250  86.760917  15.224505  1.681939
  10528.274  10528.300  0.500  1.751446  86.774925  15.057432  1.644305
  10528.567  10528.600  0.500  1.763029  86.796988  14.887808  1.605366
  10528.880  10528.900  0.500  1.775256  86.805111  14.708268  1.564259
  10529.178  10529.200  0.500  1.788615  86.807438  14.513469  1.521913
  10529.480  10529.500  0.500  1.802820  86.801312  14.307749  1.477059
  10529.783  10529.800  0.500  1.818404  86.803115  14.086802  1.429806
  10530.076  10530.100  0.500  1.835167  86.793960  13.851171  1.380688
  10530.389  10530.400  0.500  1.853463  86.787916  13.599106  1.328708
  10530.682  10530.700  0.500  1.873330  86.780803  13.330516  1.275119
  10530.985  10531.000  0.500  1.894496  86.772477  13.050076  1.220201
  10531.293  10531.300  0.500  1.918508  86.765762  12.739459  1.160020
  10531.591  10531.600  0.500  1.943158  86.761157  12.428605  1.102316
  10531.884  10531.900  0.500  1.970512  86.751424  12.091891  1.040686
  10532.187  10532.200  0.500  2.000211  86.749076  11.737731  0.979312
  10532.480  10532.500  0.500  2.032387  86.739913  11.364876  0.915784
  10532.783  10532.800  0.500  2.066903  86.728611  10.977860  0.852408
  10533.091  10533.100  0.500  2.107174  86.722701  10.543836  0.784029
  10533.380  10533.400  0.500  2.147569  86.713044  10.125285  0.721049
  10533.683  10533.700  0.500  2.194087  86.706507  9.664333  0.655092
  10533.995  10534.000  0.500  2.247812  86.700863  9.158224  0.586655
  10534.293  10534.300  0.500  2.306819  86.696759  8.633051  0.519680
  10534.587  10534.600  0.500  2.370397  86.687195  8.100366  0.455937
  10534.895  10534.900  0.500  2.444301  86.679124  7.522601  0.392304
  10535.198  10535.200  0.500  2.527323  86.670222  6.922570  0.331431
  10535.506  10535.500  0.500  2.620198  86.662688  6.308041  0.274588
  10535.799  10535.800  0.500  2.720624  86.655084  5.704822  0.224235
  10536.093  10536.100  0.500  2.833688  86.651844  5.094747  0.178715
  10536.401  10536.400  0.500  2.968225  86.644025  4.453024  0.136526
  10536.690  10536.700  0.500  3.111223  86.633010  3.859192  0.102643
  10536.988  10537.000  0.500  3.268142  86.625527  3.298451  0.075197
  10537.282  10537.300  0.500  3.437492  86.620170  2.784422  0.053956
  10537.585  10537.600  0.500  3.622726  86.609395  2.313317  0.037232
  10537.893  10537.900  0.500  3.831880  86.600011  1.876522  0.024634
  10538.201  10538.200  0.500  4.051223  86.595601  1.506858  0.015893
  10538.495  10538.500  0.500  4.274981  86.585867  1.204610  0.010287
  10538.798  10538.800  0.500  4.514912  86.576494  0.947542  0.006227
  10539.097  10539.100  0.500  4.758335  86.561500  0.742688  0.003903
  10539.405  10539.400  0.500  5.003989  86.538426  0.580770  0.002338
  10539.699  10539.700  0.500  5.247021  86.510662  0.455321  0.001559
  10540.016  10540.000  0.500  5.476284  86.476688  0.361892  0.000933
  10540.296  10540.300  0.500  5.687461  86.452703  0.292918  0.000740
  10540.599  10540.600  0.500  5.880599  86.434770  0.241422  0.000481
  10540.893  10540.900  0.500  6.054450  86.433544  0.202893  0.000524
  10541.187  10541.200  0.500  6.206699  86.445611  0.174264  0.000341
  10541.495  10541.500  0.500  6.335703  86.465426  0.153208  0.000499
  10541.789  10541.800  0.500  6.428726  86.478015  0.139619  0.000212
  10542.102  10542.100  0.500  6.488828  86.480328  0.131479  0.000217
  10542.401  10542.400  0.500  6.512407  86.714139  0.128762  0.000252
  10542.700  10542.700  0.500  6.498319  86.714134  0.130589  0.000242
  10543.003  10543.000  0.500  6.449768  86.710197  0.137079  0.000178
  10543.302  10543.300  0.500  6.367301  86.701224  0.148848  0.000349
  10543.605  10543.600  0.500  6.247594  86.694613  0.167763  0.000289
  10543.899  10543.900  0.500  6.103324  86.690410  0.193790  0.000383
  10544.203  10544.200  0.500  5.938952  86.680330  0.228384  0.000566
  10544.502  10544.500  0.500  5.756972  86.674233  0.273949  0.000518
  10544.796  10544.800  0.500  5.561817  86.673454  0.332981  0.000861
  10545.090  10545.100  0.500  5.364217  86.659512  0.405664  0.001198
  10545.389  10545.400  0.500  5.163183  86.652482  0.495951  0.001783
  10545.688  10545.700  0.500  4.967229  86.646565  0.603269  0.002330
  10545.996  10546.000  0.500  4.775872  86.639392  0.730433  0.003555
  10546.295  10546.300  0.500  4.598759  86.628861  0.871860  0.004801
  10546.589  10546.600  0.500  4.438421  86.624681  1.023434  0.006686
  10546.913  10546.900  0.500  4.286166  86.619359  1.191672  0.008823
  10547.211  10547.200  0.500  4.149337  86.609618  1.366256  0.011559
  10547.511  10547.500  0.500  4.028930  86.598452  1.540877  0.014608
  10547.805  10547.800  0.500  3.923317  86.588462  1.712321  0.018127
  10548.099  10548.100  0.500  3.827947  86.585446  1.883599  0.022026
  10548.393  10548.400  0.500  3.741124  86.573363  2.054162  0.026073
  10548.683  10548.700  0.500  3.662730  86.569282  2.221573  0.030408
  10548.996  10549.000  0.500  3.591277  86.558729  2.385827  0.035124
  10549.300  10549.300  0.500  3.528821  86.549101  2.539307  0.039866
  10549.609  10549.600  0.500  3.475314  86.540131  2.678601  0.044564
  10549.903  10549.900  0.500  3.429444  86.528058  2.803938  0.048892
  10550.202  10550.200  0.500  3.390412  86.520534  2.915290  0.052943
  10550.506  10550.500  0.500  3.357064  86.515235  3.013965  0.056693
  10550.801  10550.800  0.500  3.330089  86.505759  3.096035  0.059761
  10551.105  10551.100  0.500  3.306903  86.500203  3.168454  0.062893
  10551.409  10551.400  0.500  3.288861  86.490134  3.225762  0.065202
  10551.703  10551.700  0.500  3.274168  86.484095  3.273279  0.067314
  10551.998  10552.000  0.500  3.262037  86.477133  3.312962  0.069023
  10552.297  10552.300  0.500  3.252504  86.469204  3.344390  0.070268
  10552.596  10552.600  0.500  3.244571  86.468518  3.371000  0.071467
  10552.891  10552.900  0.500  3.237521  86.455256  3.394328  0.072431
  10553.190  10553.200  0.500  3.231612  86.450688  3.414265  0.073276
  10553.499  10553.500  0.500  3.225818  86.445865  3.433913  0.074432
  10553.808  10553.800  0.500  3.220482  86.437304  3.451944  0.075243
  10554.098  10554.100  0.500  3.215071  86.429571  3.470361  0.076212
  10554.407  10554.400  0.500  3.209024  86.417639  3.490927  0.077134
  10554.706  10554.700  0.500  3.202743  86.411308  3.512668  0.077926
  10555.006  10555.000  0.500  3.196455  86.387435  3.533848  0.079167
  10555.300  10555.300  0.500  3.189683  86.352020  3.556403  0.080272
  10555.605  10555.600  0.500  3.182093  86.324332  3.582347  0.081516
  10555.895  10555.900  0.500  3.174440  86.294910  3.608639  0.082847
  10556.194  10556.200  0.500  3.165843  86.274131  3.638919  0.084227
  10556.503  10556.500  0.500  3.157144  86.266773  3.670399  0.085627
  10556.803  10556.800  0.500  3.147948  86.266850  3.704312  0.087526
  10557.107  10557.100  0.500  3.138771  86.272471  3.738707  0.089265
  10557.416  10557.400  0.500  3.129267  86.285087  3.774961  0.091043
  10557.706  10557.700  0.500  3.120177  86.270290  3.808777  0.092754
  10558.016  10558.000  0.500  3.110803  86.223665  3.842572  0.094742
  10558.311  10558.300  0.500  3.101565  86.160749  3.875404  0.096278
  10558.605  10558.600  0.500  3.092298  86.112561  3.909295  0.098052
  10558.900  10558.900  0.500  3.083389  86.093937  3.943425  0.100134
  10559.205  10559.200  0.500  3.074583  86.120416  3.979528  0.101931
  10559.495  10559.500  0.500  3.066581  86.172525  4.013929  0.103383
  10559.799  10559.800  0.500  3.058889  86.229534  4.047600  0.105362
  10560.099  10560.100  0.500  3.051887  86.261610  4.077556  0.106805
  10560.297  10560.300  0.500  3.047320  86.274831  4.096846  0.108004
  10561.308  10561.290  0.500  3.031107  86.265429  4.163357  0.111610
  10562.294  10562.290  0.500  3.023780  86.246450  4.193052  0.113158
  10563.310  10563.310  0.500  3.024029  86.229507  4.191186  0.112962
  10564.375  10564.360  0.500  3.030480  86.207259  4.163161  0.111224
  10565.429  10565.420  0.500  3.038645  86.184348  4.128210  0.109203
  10566.514  10566.500  0.500  3.045673  86.162667  4.098265  0.107718
  10567.627  10567.600  0.500  3.050444  86.138067  4.077597  0.106394
  10568.731  10568.720  0.500  3.052987  86.113637  4.066084  0.105701
  10569.879  10569.860  0.500  3.054819  86.091077  4.057580  0.105411
  10571.042  10571.010  0.500  3.055825  86.069726  4.052496  0.104939
  10572.204  10572.190  0.500  3.057333  86.048150  4.045376  0.104520
  10573.387  10573.380  0.500  3.059970  86.020818  4.033439  0.103894
  10574.623  10574.600  0.500  3.064371  85.998975  4.014706  0.102604
  10575.860  10575.830  0.500  3.071356  85.971628  3.985496  0.101342
  10577.096  10577.080  0.500  3.080500  85.953808  3.948400  0.099310
  10578.367  10578.350  0.500  3.091873  85.925709  3.902473  0.096586
  10579.658  10579.640  0.500  3.106771  85.896914  3.843475  0.093934
  10580.959  10580.950  0.500  3.125940  85.871318  3.769376  0.089957
  10582.294  10582.280  0.500  3.148944  85.845831  3.682563  0.085581
  10583.644  10583.630  0.500  3.178161  85.816129  3.575288  0.080370
  10585.018  10585.000  0.500  3.211435  85.777724  3.456734  0.074993
  10586.388  10586.380  0.500  3.243705  85.594673  3.339825  0.069670
  10587.807  10587.790  0.500  3.274720  85.650497  3.239939  0.065245
  10589.237  10589.210  0.500  3.300859  85.726471  3.159149  0.061868
  10590.652  10590.650  0.500  3.318826  85.700446  3.101954  0.059566
  10592.130  10592.110  0.500  3.327244  85.668995  3.074822  0.058342
  10593.604  10593.590  0.500  3.324205  85.650649  3.083521  0.058947
  10595.089  10595.090  0.500  3.310314  85.622031  3.125609  0.060616
  10596.622  10596.610  0.500  3.289365  85.594954  3.190766  0.063351
  10598.166  10598.150  0.500  3.263152  85.536404  3.273271  0.067167
  10599.715  10599.710  0.500  3.235842  85.456261  3.360744  0.071081
  10601.308  10601.280  0.500  3.210169  85.514881  3.450506  0.075073
  10602.902  10602.880  0.500  3.186938  85.491194  3.530626  0.078723
  10604.496  10604.490  0.500  3.166227  85.455727  3.603015  0.082513
  10606.144  10606.130  0.500  3.147992  85.331323  3.663977  0.085424
  10607.793  10607.780  0.500  3.132198  85.394531  3.725066  0.088501
  10609.452  10609.450  0.500  3.117747  85.379474  3.778621  0.091228
  10611.161  10611.140  0.500  3.105436  85.295919  3.821684  0.093829
  10612.865  10612.850  0.500  3.095255  85.267076  3.859482  0.095446
  10614.594  10614.580  0.500  3.087882  85.286350  3.888923  0.097177
  10616.343  10616.330  0.500  3.083128  85.263513  3.906409  0.097835
  10618.103  10618.090  0.500  3.079826  85.201534  3.916482  0.098613
  10619.883  10619.880  0.500  3.078384  84.982406  3.912045  0.098522
  10621.707  10621.680  0.500  3.078501  85.120726  3.917954  0.098872
  10623.523  10623.510  0.500  3.080505  85.147304  3.911330  0.098281
  10625.358  10625.350  0.500  3.084220  85.119455  3.895551  0.097728
  10627.224  10627.210  0.500  3.089215  85.083664  3.874513  0.096268
  10629.100  10629.090  0.500  3.094962  85.048859  3.850733  0.095012
  10631.001  10630.990  0.500  3.099562  85.017382  3.831641  0.094110
  10632.932  10632.910  0.500  3.103210  84.984503  3.816215  0.093415
  10634.860  10634.850  0.500  3.104872  84.947561  3.808220  0.092862
  10636.817  10636.810  0.500  3.105024  84.912900  3.806088  0.092967
  10638.799  10638.780  0.500  3.103264  84.875102  3.811094  0.093044
  10640.788  10640.780  0.500  3.101006  84.826040  3.817504  0.093323
  10642.806  10642.790  0.500  3.098920  84.487633  3.810213  0.093444
  10644.840  10644.820  0.500  3.097395  84.661336  3.823874  0.093941
  10646.890  10646.880  0.500  3.098625  84.754043  3.823355  0.093817
  10648.964  10648.950  0.500  3.102416  84.709070  3.806869  0.092772
  10651.055  10651.040  0.500  3.110101  84.672592  3.776098  0.091524
  10653.146  10653.150  0.500  3.120279  84.624420  3.735731  0.089151
  10655.297  10655.280  0.500  3.132305  84.581349  3.689197  0.086988
  10657.430  10657.420  0.500  3.144161  84.537473  3.643824  0.084576
  10659.612  10659.590  0.500  3.155085  84.488419  3.602143  0.082834
  10661.791  10661.780  0.500  3.163031  84.213050  3.561989  0.081107
  10663.985  10663.980  0.500  3.168185  84.331380  3.548657  0.080221
  10666.220  10666.200  0.500  3.170133  84.395189  3.544431  0.079874
  10668.470  10668.450  0.500  3.168807  84.347238  3.547116  0.080050
  10670.717  10670.710  0.500  3.165697  84.297656  3.556073  0.080640
  10673.009  10672.990  0.500  3.160378  84.248574  3.572958  0.081413
  10675.287  10675.290  0.500  3.154433  84.200220  3.592199  0.082446
  10677.625  10677.610  0.500  3.147554  84.105418  3.612921  0.083488
  10679.979  10679.950  0.500  3.139930  83.766063  3.625884  0.084400
  10682.300  10682.300  0.500  3.131999  84.081264  3.668508  0.086212
  10684.686  10684.680  0.500  3.123571  84.039715  3.697729  0.087878
  10687.068  10687.070  0.500  3.114825  83.985556  3.727807  0.089309
  10689.506  10689.490  0.500  3.106272  83.943741  3.757956  0.091044
  10691.940  10691.920  0.500  3.099104  83.888595  3.782501  0.092204
  10694.380  10694.370  0.500  3.093228  83.834959  3.802359  0.093533
  10696.871  10696.850  0.500  3.088407  83.770221  3.817785  0.094248
  10699.348  10699.340  0.500  3.084181  83.190803  3.807435  0.094452
  10701.856  10701.850  0.500  3.080546  83.723369  3.845765  0.095546
  10704.395  10704.370  0.500  3.077200  83.671325  3.856254  0.096265
  10706.920  10706.920  0.500  3.074780  83.619888  3.863223  0.096748
  10709.512  10709.490  0.500  3.073018  83.566286  3.867555  0.096945
  10712.069  10712.070  0.500  3.072485  83.518601  3.867408  0.096965
  10714.708  10714.680  0.500  3.072888  83.466265  3.863425  0.096960
  10717.308  10717.300  0.500  3.073604  83.412901  3.858191  0.096767
  10719.964  10719.950  0.500  3.074521  83.366636  3.852520  0.096398
  10722.627  10722.610  0.500  3.075386  83.310266  3.846584  0.096109
  10725.301  10725.290  0.500  3.075287  83.260492  3.844668  0.096179
  10728.011  10727.990  0.500  3.074521  83.204589  3.845029  0.096194
  10730.722  10730.710  0.500  3.072893  83.153859  3.848946  0.096434
  10733.460  10733.450  0.500  3.071180  83.103426  3.853206  0.096588
  10736.215  10736.200  0.500  3.070464  83.055899  3.853762  0.096840
  10738.990  10738.980  0.500  3.069689  82.998292  3.854077  0.096748
  10741.793  10741.770  0.500  3.070477  82.811448  3.842371  0.096374
  10744.601  10744.590  0.500  3.071489  82.879618  3.841644  0.096173
  10747.432  10747.420  0.500  3.073518  82.833635  3.831730  0.095829
  10750.274  10750.270  0.500  3.075340  82.769120  3.821775  0.095149
  10753.157  10753.150  0.500  3.076667  82.717578  3.814332  0.095020
  10756.042  10756.040  0.500  3.076940  82.663733  3.810809  0.094625
  10758.959  10758.950  0.500  3.076831  82.608909  3.808695  0.094676
  10761.893  10761.870  0.500  3.075863  82.551147  3.809716  0.094628
  10764.823  10764.820  0.500  3.073871  82.488081  3.814398  0.094967
  10767.810  10767.790  0.500  3.071805  82.427881  3.819497  0.095432
  10770.778  10770.770  0.500  3.069249  82.371353  3.826647  0.095636
  10773.804  10773.780  0.500  3.066074  82.310850  3.835996  0.096022
  10776.806  10776.800  0.500  3.062691  82.261778  3.846702  0.096835
  10779.871  10779.850  0.500  3.058149  82.204179  3.861504  0.097798
  10782.917  10782.910  0.500  3.052987  82.136986  3.878316  0.098621
  10786.020  10785.990  0.500  3.047474  81.794452  3.883494  0.099415
