# XDI/1.0 BlueSky/1.10.0 BMM/2023-1.0-py310-tiled
# Beamline.name: BMM (06BM) -- Beamline for Materials Measurement (NIST)
# Beamline.xray_source: NSLS-II three-pole wiggler
# Beamline.collimation: paraboloid mirror, 5 nm Rh on 30 nm Pt
# Beamline.focusing: not in use
# Beamline.harmonic_rejection: flat mirror, Si stripe, pitch = 7.0 mrad relative to beam
# Beamline.software: Bluesky 1.10.0, Ophyd 1.7.0, DataBroker 2.0.0b13, Python 3.10.8, 2023-1.0-py310-tiled
# Detector.I0: 10 cm N2
# Detector.I1: 25 cm N2
# Detector.I2: 25 cm N2
# Element.symbol: Nd
# Element.edge: L1
# Element.reference: Nd
# Element.reference_material: Nd2O3
# Facility.name: NSLS-II
# Facility.energy: 3.0
# Facility.current: 399.0
# Facility.mode: top-off
# Facility.GUP: 123456
# Facility.SAF: 301027
# Facility.cycle: 2023-2
# Mono.name: Si(111)
# Mono.d_spacing: 3.1351860
# Mono.encoder_resolution: 0.0000050 deg/ct
# Mono.angle_offset: 16.0754326 deg
# Mono.scan_mode: pseudo channel cut
# Mono.scan_type: step
# Mono.direction: forward in energy
# Sample.name: Nd(OH)3
# Sample.prep: Powder in PEG pellet
# Sample.x: 149.848 mm
# Sample.y: 114.690 mm
# Sample.SDD_position: 205.000 mm
# Scan.experimenters: Bruce Ravel
# Scan.edge_energy: 7126.0
# Scan.start_time: 2023-05-08T20:30:51
# Scan.end_time: 2023-05-08T20:36:40
# Scan.transient_id: 75586
# Scan.uid: f69ae175-dc34-4b99-9302-0dbb4bdee89c
# Scan.plot_hint: ln(I0/It)  --  ln($5/$6)
# Column.1: energy eV
# Column.2: requested_energy eV
# Column.3: measurement_time seconds
# Column.4: xmu 
# Column.5: I0 nA
# Column.6: It nA
# Column.7: Ir nA
# ///////////
# sample courtesy Martin Stennett, University of Sheffield
# -----------
# energy  requested_energy  measurement_time  xmu  I0  It  Ir
  6926.012  6926.000  0.500  2.485233  149.886572  12.486476  2.423325
  6936.012  6936.000  0.500  2.474177  149.865544  12.623518  2.465224
  6946.019  6946.000  0.500  2.463332  149.929450  12.766609  2.507246
  6956.008  6956.000  0.500  2.454657  149.972901  12.881570  2.543837
  6966.016  6966.000  0.500  2.444312  150.585780  13.068715  2.595260
  6976.015  6976.000  0.500  2.429884  150.588664  13.258890  2.652240
  6986.030  6986.000  0.500  2.416673  150.599399  13.436170  2.706040
  6996.011  6996.000  0.500  2.405588  150.590541  13.585145  2.752003
  7006.011  7006.000  0.500  2.396635  150.572037  13.705624  2.791009
  7016.014  7016.000  0.500  2.386955  150.532844  13.835344  2.833423
  7026.013  7026.000  0.500  2.375167  150.528274  13.998976  2.884278
  7036.017  7036.000  0.500  2.363796  150.474627  14.154021  2.933710
  7046.010  7046.000  0.500  2.353361  150.435443  14.298766  2.980846
  7056.008  7056.000  0.500  2.343700  150.380771  14.432326  3.025247
  7066.017  7066.000  0.500  2.333870  150.274214  14.564572  3.069120
  7075.998  7076.000  0.500  2.323663  149.548032  14.642886  3.103690
  7086.002  7086.000  0.500  2.311467  150.024233  14.869760  3.171521
  7095.992  7096.000  0.500  2.300881  149.973272  15.022905  3.222958
  7097.995  7098.000  0.500  2.299324  149.983333  15.047328  3.231440
  7099.990  7100.000  0.500  2.297251  149.962944  15.076496  3.241231
  7101.995  7102.000  0.500  2.295787  149.926521  15.094917  3.248467
  7103.995  7104.000  0.500  2.293820  149.886458  15.120595  3.256568
  7105.995  7106.000  0.500  2.291981  149.879568  15.147734  3.265768
  7107.993  7108.000  0.500  2.290181  149.847371  15.171761  3.275105
  7110.003  7110.000  0.500  2.288311  149.800955  15.195460  3.282795
  7111.992  7112.000  0.500  2.286828  149.645391  15.202205  3.288520
  7113.998  7114.000  0.500  2.285355  149.508473  15.210678  3.292878
  7115.991  7116.000  0.500  2.284007  149.478579  15.228155  3.299281
  7116.483  7116.500  0.500  2.283794  149.446258  15.228114  3.300144
  7116.981  7117.000  0.500  2.283375  149.452593  15.235135  3.301942
  7117.484  7117.500  0.500  2.283374  149.417938  15.231611  3.301745
  7117.980  7118.000  0.500  2.282912  149.388769  15.235687  3.304282
  7118.487  7118.500  0.500  2.282871  149.360085  15.233382  3.304271
  7118.983  7119.000  0.500  2.282420  149.313128  15.235462  3.304443
  7119.484  7119.500  0.500  2.282295  149.300015  15.236032  3.305502
  7119.982  7120.000  0.500  2.282116  149.288567  15.237591  3.306916
  7120.481  7120.500  0.500  2.281934  149.236202  15.235007  3.306641
  7120.984  7121.000  0.500  2.281782  149.249858  15.238719  3.307915
  7121.490  7121.500  0.500  2.281668  149.227257  15.238157  3.307534
  7121.986  7122.000  0.500  2.281748  149.202370  15.234399  3.307494
  7122.485  7122.500  0.500  2.281698  149.162587  15.231097  3.307202
  7122.991  7123.000  0.500  2.281773  149.130773  15.226703  3.307344
  7123.486  7123.500  0.500  2.281854  149.103419  15.222680  3.305677
  7123.987  7124.000  0.500  2.282157  149.097773  15.217490  3.305569
  7124.486  7124.500  0.500  2.282091  149.066332  15.215282  3.305105
  7124.988  7125.000  0.500  2.282280  149.018929  15.207571  3.303255
  7125.489  7125.500  0.500  2.282512  148.986046  15.200689  3.302568
  7125.995  7126.000  0.500  2.283016  148.964351  15.190811  3.300054
  7126.497  7126.500  0.500  2.284047  148.933834  15.172058  3.295967
  7126.992  7127.000  0.500  2.284687  148.906958  15.159614  3.292427
  7127.498  7127.500  0.500  2.285732  148.874284  15.140451  3.288264
  7127.994  7128.000  0.500  2.286937  148.825773  15.117300  3.282444
  7128.489  7128.500  0.500  2.288280  148.785095  15.092873  3.275695
  7128.989  7129.000  0.500  2.290408  148.769827  15.059252  3.266589
  7129.496  7129.500  0.500  2.293335  148.717348  15.009940  3.253681
  7129.994  7130.000  0.500  2.296710  148.675671  14.955178  3.238411
  7130.496  7130.500  0.500  2.300632  148.640274  14.893080  3.222383
  7131.001  7131.000  0.500  2.304273  148.596657  14.834606  3.205467
  7131.496  7131.500  0.500  2.307888  148.552105  14.776644  3.189465
  7131.993  7132.000  0.500  2.310886  148.500783  14.727313  3.176931
  7132.495  7132.500  0.500  2.313709  148.500366  14.685768  3.165235
  7132.996  7133.000  0.500  2.316333  148.510414  14.648274  3.155860
  7133.492  7133.500  0.500  2.318863  148.510832  14.611297  3.144497
  7133.995  7134.000  0.500  2.321763  148.485427  14.566490  3.133737
  7134.500  7134.500  0.500  2.324996  148.452338  14.516234  3.119888
  7134.996  7135.000  0.500  2.328976  148.462577  14.459580  3.103789
  7135.501  7135.500  0.500  2.333881  148.488947  14.391388  3.085434
  7135.992  7136.000  0.500  2.339895  148.489634  14.305155  3.061443
  7136.495  7136.500  0.500  2.346315  148.486503  14.213309  3.036259
  7136.994  7137.000  0.500  2.353770  148.476863  14.106827  3.007500
  7137.495  7137.500  0.500  2.362044  148.471432  13.990087  2.975672
  7137.998  7138.000  0.500  2.371548  148.471471  13.857756  2.938887
  7138.502  7138.500  0.500  2.382160  148.473125  13.711628  2.898590
  7139.001  7139.000  0.500  2.393808  148.448984  13.550629  2.855018
  7139.498  7139.500  0.500  2.406347  148.441193  13.381086  2.808869
  7139.995  7140.000  0.500  2.419431  148.441964  13.207218  2.761119
  7140.497  7140.500  0.500  2.433152  148.425734  13.025806  2.712097
  7140.999  7141.000  0.500  2.446222  148.413356  12.855602  2.666190
  7141.503  7141.500  0.500  2.458708  148.433284  12.697781  2.622723
  7142.002  7142.000  0.500  2.470358  148.419181  12.549525  2.583152
  7142.504  7142.500  0.500  2.481023  148.424331  12.416819  2.546779
  7143.000  7143.000  0.500  2.489913  148.441167  12.308323  2.518772
  7143.499  7143.500  0.500  2.496524  148.424863  12.225875  2.496107
  7144.002  7144.000  0.500  2.501365  148.411638  12.165747  2.480247
  7144.499  7144.500  0.500  2.503975  148.398895  12.132994  2.471416
  7145.006  7145.000  0.500  2.504281  148.396294  12.129077  2.470486
  7145.506  7145.500  0.500  2.502832  148.402499  12.147164  2.475900
  7146.000  7146.000  0.500  2.499638  148.418709  12.187366  2.487512
  7146.502  7146.500  0.500  2.495187  148.398991  12.240096  2.500798
  7147.001  7147.000  0.500  2.489971  148.398915  12.304111  2.519142
  7147.495  7147.500  0.500  2.484170  148.395244  12.375383  2.538645
  7147.997  7148.000  0.500  2.477825  148.402576  12.454769  2.560378
  7148.498  7148.500  0.500  2.471064  148.383931  12.537691  2.583020
  7149.001  7149.000  0.500  2.464676  148.414885  12.620661  2.604852
  7149.499  7149.500  0.500  2.458720  148.385230  12.693516  2.625897
  7150.002  7150.000  0.500  2.452713  148.383468  12.769855  2.646717
  7150.495  7150.500  0.500  2.447809  148.393629  12.833509  2.664479
  7151.000  7151.000  0.500  2.443116  148.380073  12.892700  2.681375
  7151.993  7151.990  0.500  2.435764  148.372998  12.987212  2.707588
  7153.002  7152.990  0.500  2.430084  148.361301  13.060161  2.728698
  7154.020  7154.010  0.500  2.426086  148.360638  13.112418  2.743745
  7155.062  7155.060  0.500  2.422115  148.329525  13.161836  2.757981
  7156.135  7156.120  0.500  2.417844  148.321279  13.217436  2.773346
  7157.209  7157.200  0.500  2.413259  148.325091  13.278520  2.791591
  7158.306  7158.300  0.500  2.407812  148.325586  13.351089  2.811964
  7159.430  7159.420  0.500  2.401688  148.299862  13.430775  2.834511
  7160.576  7160.560  0.500  2.395036  148.275954  13.518224  2.859452
  7161.716  7161.710  0.500  2.388863  148.275280  13.601871  2.883540
  7162.902  7162.890  0.500  2.383131  148.229393  13.675829  2.905436
  7164.099  7164.080  0.500  2.378180  148.203836  13.741338  2.924935
  7165.303  7165.300  0.500  2.373764  148.177213  13.799671  2.942149
  7166.538  7166.530  0.500  2.370650  148.161991  13.841285  2.954877
  7167.791  7167.780  0.500  2.368296  148.104295  13.868505  2.962506
  7169.064  7169.050  0.500  2.366726  148.076882  13.887728  2.969359
  7170.344  7170.340  0.500  2.366078  148.042120  13.893474  2.972754
  7171.662  7171.650  0.500  2.366299  148.042021  13.890390  2.972678
  7172.987  7172.980  0.500  2.368099  148.015709  13.862950  2.966409
  7174.340  7174.330  0.500  2.371217  148.007241  13.818991  2.954459
  7175.716  7175.700  0.500  2.375593  147.958693  13.754150  2.938477
  7177.084  7177.080  0.500  2.379496  147.901360  13.695261  2.921570
  7178.503  7178.490  0.500  2.383019  147.931624  13.649884  2.910123
  7179.922  7179.910  0.500  2.385338  147.936836  13.618746  2.901940
  7181.361  7181.350  0.500  2.387052  147.899131  13.591956  2.895698
  7182.821  7182.810  0.500  2.388309  147.872160  13.572412  2.891631
  7184.297  7184.290  0.500  2.389232  147.851770  13.558015  2.888868
  7185.802  7185.790  0.500  2.389151  147.828466  13.556975  2.888944
  7187.320  7187.310  0.500  2.388598  147.811484  13.562927  2.891650
  7188.855  7188.850  0.500  2.387794  147.794057  13.572234  2.895690
  7190.423  7190.410  0.500  2.387003  147.729187  13.577005  2.898258
  7191.992  7191.980  0.500  2.385833  145.277610  13.367323  2.856288
  7193.588  7193.580  0.500  2.384351  147.480326  13.590129  2.905834
  7195.207  7195.190  0.500  2.382042  147.571611  13.629984  2.917129
  7196.840  7196.830  0.500  2.379746  147.558179  13.660059  2.926956
  7198.495  7198.480  0.500  2.376595  147.496560  13.697452  2.939191
  7200.156  7200.150  0.500  2.372464  147.494621  13.753968  2.956515
  7201.855  7201.840  0.500  2.367335  147.441268  13.819698  2.976223
  7203.559  7203.550  0.500  2.362176  147.415219  13.888728  2.997567
  7205.290  7205.280  0.500  2.356375  147.401599  13.968238  3.021140
  7207.044  7207.030  0.500  2.350541  147.318599  14.042055  3.044303
  7208.797  7208.790  0.500  2.345152  147.277489  14.113991  3.066107
  7210.595  7210.580  0.500  2.341078  147.240469  14.168052  3.083429
  7212.394  7212.380  0.500  2.337379  147.184392  14.215128  3.098402
  7214.221  7214.210  0.500  2.334393  147.171625  14.256410  3.110991
  7216.059  7216.050  0.500  2.331763  147.126485  14.289566  3.122005
  7217.925  7217.910  0.500  2.329522  147.074729  14.316592  3.132020
  7219.805  7219.790  0.500  2.328006  147.011955  14.332190  3.137009
  7221.704  7221.690  0.500  2.326989  146.975562  14.343224  3.141799
  7223.624  7223.610  0.500  2.326285  146.919858  14.347875  3.144944
  7225.565  7225.550  0.500  2.325980  146.836401  14.344102  3.145925
  7227.522  7227.510  0.500  2.325443  145.197733  14.191652  3.114746
  7229.487  7229.480  0.500  2.325271  146.967934  14.367131  3.154681
  7231.494  7231.480  0.500  2.324903  146.917758  14.367517  3.155725
  7233.501  7233.490  0.500  2.324012  146.837245  14.372446  3.159271
  7235.534  7235.520  0.500  2.322285  146.833602  14.396929  3.167787
  7237.593  7237.580  0.500  2.319869  146.788842  14.427360  3.178671
  7239.660  7239.650  0.500  2.317265  146.748645  14.461012  3.189698
  7241.752  7241.740  0.500  2.314752  146.729271  14.495480  3.201366
  7243.863  7243.850  0.500  2.312076  146.590301  14.520566  3.211207
  7245.996  7245.980  0.500  2.309731  146.013972  14.497431  3.208777
  7248.135  7248.120  0.500  2.307705  146.540852  14.579244  3.231057
  7250.304  7250.290  0.500  2.305999  146.517014  14.601770  3.239703
  7252.489  7252.480  0.500  2.304273  146.384085  14.613719  3.245556
  7254.695  7254.680  0.500  2.302698  144.125153  14.410888  3.203799
  7256.910  7256.900  0.500  2.300277  146.531749  14.687034  3.268582
  7259.156  7259.150  0.500  2.298112  146.375162  14.703140  3.275827
  7261.428  7261.410  0.500  2.295957  145.997353  14.696822  3.278713
  7263.699  7263.690  0.500  2.293365  139.220166  14.050974  3.140333
  7266.006  7265.990  0.500  2.291638  145.571840  14.717421  3.291111
  7268.327  7268.310  0.500  2.288616  146.767218  14.883188  3.333274
  7270.659  7270.650  0.500  2.285354  146.765365  14.931620  3.348942
  7273.015  7273.000  0.500  2.281922  147.050243  15.012032  3.372387
  7275.390  7275.380  0.500  2.278572  147.279147  15.085856  3.394820
  7277.783  7277.770  0.500  2.275224  147.287746  15.137327  3.411971
  7280.207  7280.190  0.500  2.271535  147.235322  15.187877  3.427820
  7282.639  7282.620  0.500  2.268380  147.187367  15.230898  3.443969
  7285.082  7285.070  0.500  2.264857  145.290165  15.087644  3.415901
  7287.560  7287.550  0.500  2.261832  146.940252  15.305218  3.471176
  7290.059  7290.040  0.500  2.259554  146.960438  15.342241  3.483849
  7292.561  7292.550  0.500  2.257364  146.931486  15.372835  3.494745
  7295.081  7295.070  0.500  2.255094  146.884085  15.402812  3.505678
  7297.643  7297.620  0.500  2.253499  146.793432  15.417869  3.512069
  7300.201  7300.190  0.500  2.251853  146.564734  15.419215  3.516979
  7302.780  7302.770  0.500  2.249841  146.887301  15.484276  3.535982
  7305.394  7305.380  0.500  2.247528  146.791943  15.510057  3.545941
  7308.012  7308.000  0.500  2.245972  146.723009  15.526911  3.553874
  7310.667  7310.650  0.500  2.243751  146.696494  15.558614  3.565695
  7313.319  7313.310  0.500  2.241066  146.639138  15.594349  3.578194
  7316.008  7315.990  0.500  2.238355  146.594465  15.631925  3.591259
  7318.704  7318.690  0.500  2.235350  146.533499  15.672449  3.606728
  7321.425  7321.410  0.500  2.232250  146.508936  15.718463  3.623073
  7324.164  7324.150  0.500  2.229066  146.413991  15.758377  3.637418
  7326.917  7326.900  0.500  2.226010  146.401660  15.805276  3.654446
  7329.696  7329.680  0.500  2.223057  146.344314  15.845806  3.668385
  7332.485  7332.470  0.500  2.220233  146.282251  15.883880  3.682789
  7335.302  7335.290  0.500  2.217582  146.261299  15.923768  3.698483
  7338.131  7338.120  0.500  2.214453  145.988719  15.943898  3.708297
  7340.984  7340.970  0.500  2.211666  145.986069  15.988114  3.724164
  7343.869  7343.850  0.500  2.208949  146.020146  16.035348  3.741110
  7346.754  7346.740  0.500  2.206251  145.980272  16.074274  3.755259
  7349.662  7349.650  0.500  2.203407  145.942491  16.115882  3.770636
  7352.577  7352.570  0.500  2.200938  145.873573  16.148101  3.784493
  7355.529  7355.520  0.500  2.197837  145.821627  16.192476  3.800508
  7358.502  7358.490  0.500  2.194340  145.745697  16.240740  3.818504
  7361.477  7361.470  0.500  2.190976  145.698327  16.290178  3.835513
  7364.485  7364.480  0.500  2.187251  145.619521  16.342125  3.854455
  7367.504  7367.500  0.500  2.183793  145.558908  16.391912  3.872875
  7370.563  7370.550  0.500  2.180190  145.507241  16.445237  3.892557
  7373.620  7373.610  0.500  2.176840  145.426059  16.491212  3.909871
  7376.701  7376.690  0.500  2.173402  145.364641  16.541023  3.928096
  7379.800  7379.790  0.500  2.170320  145.267372  16.580979  3.944097
  7382.919  7382.910  0.500  2.167638  145.215365  16.619559  3.959384
  7386.058  7386.050  0.500  2.164763  145.140417  16.658807  3.974651
  7389.219  7389.200  0.500  2.161959  145.075957  16.698162  3.990314
  7392.388  7392.380  0.500  2.159214  145.020947  16.737711  4.004853
  7395.575  7395.570  0.500  2.156555  144.952503  16.774349  4.019812
  7398.803  7398.790  0.500  2.153879  144.882002  16.811119  4.034966
  7402.029  7402.020  0.500  2.151202  144.789007  16.845359  4.048789
  7405.290  7405.270  0.500  2.148258  144.722278  16.887247  4.065742
  7408.559  7408.550  0.500  2.145453  144.566950  16.916501  4.078875
  7411.853  7411.840  0.500  2.142548  144.592160  16.968671  4.097990
  7415.163  7415.150  0.500  2.139118  144.523453  17.018881  4.117790
  7418.474  7418.470  0.500  2.135334  144.449637  17.074677  4.138122
  7421.835  7421.820  0.500  2.132032  144.337908  17.117912  4.156349
  7425.203  7425.190  0.500  2.128220  144.261006  17.174133  4.177473
  7428.582  7428.570  0.500  2.124423  144.200059  17.232179  4.198740
  7431.995  7431.980  0.500  2.120801  144.071732  17.279316  4.218177
  7435.411  7435.400  0.500  2.117389  143.975407  17.326777  4.236873
  7438.863  7438.850  0.500  2.114012  143.878621  17.373702  4.255855
  7442.321  7442.310  0.500  2.110879  143.725323  17.409657  4.272383
  7445.820  7445.790  0.500  2.107101  141.005510  17.144849  4.215957
  7449.306  7449.290  0.500  2.104268  143.669434  17.518322  4.312875
  7452.828  7452.810  0.500  2.101007  143.171071  17.514563  4.319393
  7456.364  7456.350  0.500  2.097948  143.486703  17.606955  4.349740
  7459.919  7459.900  0.500  2.094633  139.931164  17.227687  4.262860
  7463.494  7463.480  0.500  2.090835  143.264566  17.705192  4.388779
  7467.095  7467.080  0.500  2.087288  142.268334  17.644552  4.382098
  7470.720  7470.690  0.500  2.083910  143.237457  17.824857  4.434792
  7474.354  7474.320  0.500  2.080488  143.086354  17.867079  4.453034
  7477.998  7477.980  0.500  2.076590  142.960139  17.921040  4.474076
  7481.647  7481.650  0.500  2.072860  142.843693  17.973367  4.496669
  7485.361  7485.340  0.500  2.069140  142.714656  18.024059  4.517580
  7489.062  7489.050  0.500  2.065626  142.627152  18.076416  4.538657
  7492.795  7492.780  0.500  2.062032  142.510010  18.126603  4.558846
  7496.540  7496.520  0.500  2.059006  142.400458  18.167558  4.577164
  7500.310  7500.290  0.500  2.055573  142.301656  18.217378  4.598062
  7504.089  7504.080  0.500  2.052345  142.168082  18.259126  4.616958
  7507.900  7507.880  0.500  2.048976  142.098481  18.311777  4.638859
  7511.733  7511.710  0.500  2.045290  141.991199  18.365514  4.660698
  7515.569  7515.550  0.500  2.041869  141.815345  18.405640  4.679178
  7519.429  7519.410  0.500  2.038418  141.700949  18.454370  4.700124
  7523.312  7523.290  0.500  2.034654  141.613392  18.512511  4.723151
  7527.206  7527.190  0.500  2.031051  141.489274  18.563053  4.744589
  7531.127  7531.110  0.500  2.027496  141.328787  18.608034  4.766197
  7535.066  7535.050  0.500  2.024080  141.211007  18.656148  4.787228
  7539.038  7539.010  0.500  2.020055  141.083261  18.714435  4.810938
  7542.994  7542.980  0.500  2.016398  140.953860  18.765782  4.833197
  7546.987  7546.980  0.500  2.012539  140.791489  18.816629  4.855662
