# XDI/1.0 BlueSky/1.10.0 BMM/2023-1.0-py310-tiled
# Beamline.name: BMM (06BM) -- Beamline for Materials Measurement (NIST)
# Beamline.xray_source: NSLS-II three-pole wiggler
# Beamline.collimation: paraboloid mirror, 5 nm Rh on 30 nm Pt
# Beamline.focusing: not in use
# Beamline.harmonic_rejection: flat mirror, Si stripe, pitch = 7.0 mrad relative to beam
# Beamline.software: Bluesky 1.10.0, Ophyd 1.7.0, DataBroker 2.0.0b13, Python 3.10.8, 2023-1.0-py310-tiled
# Detector.I0: 10 cm N2
# Detector.I1: 25 cm N2
# Detector.I2: 25 cm N2
# Element.symbol: Sm
# Element.edge: L3
# Element.reference: Sm
# Element.reference_material: Sm2O3
# Facility.name: NSLS-II
# Facility.energy: 3.0
# Facility.current: 400.2
# Facility.mode: top-off
# Facility.GUP: 123456
# Facility.SAF: 301027
# Facility.cycle: 2023-2
# Mono.name: Si(111)
# Mono.d_spacing: 3.1351860
# Mono.encoder_resolution: 0.0000050 deg/ct
# Mono.angle_offset: 16.0754326 deg
# Mono.scan_mode: pseudo channel cut
# Mono.scan_type: step
# Mono.direction: forward in energy
# Sample.name: Sm2Ti2O7
# Sample.prep: Powder in PEG pellet
# Sample.x: 149.848 mm
# Sample.y: 114.690 mm
# Sample.SDD_position: 205.000 mm
# Scan.experimenters: Bruce Ravel
# Scan.edge_energy: 6716.2
# Scan.start_time: 2023-05-08T17:18:15
# Scan.end_time: 2023-05-08T17:24:16
# Scan.transient_id: 75439
# Scan.uid: 8e06aea0-65bd-4882-b850-229de59ca69b
# Scan.plot_hint: ln(I0/It)  --  ln($5/$6)
# Column.1: energy eV
# Column.2: requested_energy eV
# Column.3: measurement_time seconds
# Column.4: xmu 
# Column.5: I0 nA
# Column.6: It nA
# Column.7: Ir nA
# ///////////
# sample courtesy Martin Stennett, University of Sheffield
# -----------
# energy  requested_energy  measurement_time  xmu  I0  It  Ir
  6516.203  6516.200  0.500  1.378892  150.991799  38.028407  3.231670
  6526.209  6526.200  0.500  1.369687  151.197503  38.432354  3.299572
  6536.220  6536.200  0.500  1.360569  151.380556  38.831365  3.368812
  6546.217  6546.200  0.500  1.351536  151.537923  39.224444  3.437751
  6556.214  6556.200  0.500  1.343019  151.666168  39.593424  3.504871
  6566.223  6566.200  0.500  1.333969  151.824448  39.995064  3.575586
  6576.214  6576.200  0.500  1.325141  152.015645  40.400497  3.648567
  6586.212  6586.200  0.500  1.316562  151.877072  40.711435  3.713718
  6596.215  6596.200  0.500  1.308181  152.305511  41.169911  3.793685
  6606.212  6606.200  0.500  1.299769  152.414613  41.547429  3.867122
  6616.214  6616.200  0.500  1.291093  152.582438  41.955608  3.943168
  6626.214  6626.200  0.500  1.282526  152.707709  42.351322  4.018487
  6636.209  6636.200  0.500  1.274155  152.843962  42.745456  4.095637
  6646.211  6646.200  0.500  1.266127  152.963810  43.123751  4.169377
  6656.199  6656.200  0.500  1.257938  153.059454  43.505544  4.243881
  6666.201  6666.200  0.500  1.250000  153.170424  43.884075  4.315412
  6676.193  6676.200  0.500  1.242144  153.258161  44.255497  4.382370
  6686.195  6686.200  0.500  1.234523  153.361993  44.624293  4.437600
  6688.197  6688.200  0.500  1.232351  153.380369  44.726654  4.448890
  6690.191  6690.200  0.500  1.231250  153.382081  44.776449  4.453262
  6692.196  6692.200  0.500  1.230242  153.393705  44.825003  4.454904
  6694.194  6694.200  0.500  1.228362  153.406633  44.913128  4.458336
  6696.198  6696.200  0.500  1.226779  153.404235  44.983583  4.455493
  6698.197  6698.200  0.500  1.225535  153.418078  45.043634  4.448356
  6700.195  6700.200  0.500  1.224417  153.425039  45.096067  4.432510
  6702.191  6702.200  0.500  1.223152  153.442066  45.158182  4.408597
  6704.196  6704.200  0.500  1.222126  153.444366  45.205217  4.368692
  6706.198  6706.200  0.500  1.221853  153.463619  45.223193  4.301668
  6706.687  6706.700  0.500  1.222319  153.447693  45.197436  4.276811
  6707.184  6707.200  0.500  1.222078  153.455873  45.210748  4.251994
  6707.683  6707.700  0.500  1.221912  153.445325  45.215146  4.222229
  6708.182  6708.200  0.500  1.222393  153.448052  45.194199  4.184940
  6708.683  6708.700  0.500  1.222355  153.447959  45.195908  4.143020
  6709.185  6709.200  0.500  1.222652  153.449008  45.182808  4.091942
  6709.686  6709.700  0.500  1.223108  153.452065  45.163080  4.035103
  6710.183  6710.200  0.500  1.223541  153.447527  45.142225  3.972452
  6710.690  6710.700  0.500  1.224177  153.445055  45.112771  3.909980
  6711.184  6711.200  0.500  1.224645  153.447587  45.092426  3.851484
  6711.686  6711.700  0.500  1.225183  153.451885  45.069415  3.791286
  6712.187  6712.200  0.500  1.226072  153.446785  45.027865  3.715504
  6712.689  6712.700  0.500  1.227466  153.455338  44.967653  3.619519
  6713.189  6713.200  0.500  1.228667  153.450047  44.912128  3.510511
  6713.691  6713.700  0.500  1.230203  153.454651  44.844554  3.388011
  6714.187  6714.200  0.500  1.232000  153.454851  44.764085  3.254283
  6714.691  6714.700  0.500  1.234279  153.455370  44.662363  3.103239
  6715.187  6715.200  0.500  1.237026  153.455450  44.539842  2.935585
  6715.689  6715.700  0.500  1.240469  153.453687  44.386251  2.741151
  6716.193  6716.200  0.500  1.245146  153.453800  44.179184  2.509679
  6716.698  6716.700  0.500  1.251000  153.447242  43.919410  2.248612
  6717.196  6717.200  0.500  1.257616  153.442836  43.628547  1.987740
  6717.689  6717.700  0.500  1.265189  153.442259  43.299259  1.729034
  6718.188  6718.200  0.500  1.273829  153.440288  42.926216  1.479179
  6718.696  6718.700  0.500  1.282961  153.438625  42.535537  1.262552
  6719.199  6719.200  0.500  1.291718  153.426888  42.161425  1.092420
  6719.698  6719.700  0.500  1.300034  153.417313  41.809666  0.960713
  6720.193  6720.200  0.500  1.307293  153.415051  41.506676  0.863707
  6720.698  6720.700  0.500  1.312702  153.418191  41.283588  0.797935
  6721.193  6721.200  0.500  1.316247  153.429785  41.140608  0.757003
  6721.695  6721.700  0.500  1.318565  153.425342  41.044185  0.736252
  6722.196  6722.200  0.500  1.318360  153.422068  41.051710  0.734229
  6722.701  6722.700  0.500  1.316083  153.418055  41.144226  0.749324
  6723.202  6723.200  0.500  1.313027  153.424365  41.271842  0.778597
  6723.696  6723.700  0.500  1.308556  153.422166  41.456189  0.823790
  6724.196  6724.200  0.500  1.303042  153.443414  41.691183  0.884437
  6724.698  6724.700  0.500  1.297112  153.437634  41.937573  0.957174
  6725.197  6725.200  0.500  1.291087  153.430261  42.188975  1.041621
  6725.699  6725.700  0.500  1.284707  153.438727  42.461344  1.136655
  6726.197  6726.200  0.500  1.278698  153.441434  42.718036  1.238269
  6726.701  6726.700  0.500  1.273256  153.441021  42.951019  1.340160
  6727.198  6727.200  0.500  1.268366  153.438321  43.160789  1.439866
  6727.696  6727.700  0.500  1.264120  153.438269  43.344431  1.537623
  6728.196  6728.200  0.500  1.260273  153.429894  43.509149  1.627145
  6728.704  6728.700  0.500  1.257288  153.429270  43.639025  1.702945
  6729.203  6729.200  0.500  1.255205  153.423759  43.728442  1.765665
  6729.699  6729.700  0.500  1.253030  153.426187  43.824332  1.816781
  6730.194  6730.200  0.500  1.251100  153.490336  43.927363  1.857076
  6730.699  6730.700  0.500  1.249735  153.495930  43.988989  1.886788
  6731.198  6731.200  0.500  1.248112  153.647868  44.104021  1.910967
  6731.702  6731.700  0.500  1.247018  153.707650  44.169488  1.928718
  6732.205  6732.200  0.500  1.245924  153.693699  44.213843  1.941389
  6732.702  6732.700  0.500  1.245000  153.696660  44.255570  1.952472
  6733.201  6733.200  0.500  1.243765  153.691675  44.308810  1.961973
  6733.701  6733.700  0.500  1.242575  153.687090  44.360265  1.971299
  6734.202  6734.200  0.500  1.241956  153.684826  44.387046  1.978370
  6734.703  6734.700  0.500  1.241329  153.683753  44.414578  1.985502
  6735.203  6735.200  0.500  1.240849  153.683431  44.435802  1.991914
  6735.704  6735.700  0.500  1.240478  153.683119  44.452200  1.996941
  6736.208  6736.200  0.500  1.240296  153.675922  44.458223  2.001903
  6736.704  6736.700  0.500  1.239801  153.670102  44.478534  2.005398
  6737.201  6737.200  0.500  1.239488  153.669177  44.492188  2.009891
  6737.699  6737.700  0.500  1.239528  153.668364  44.490200  2.012846
  6738.201  6738.200  0.500  1.239697  153.663599  44.481282  2.014621
  6738.703  6738.700  0.500  1.239845  153.659340  44.473462  2.016550
  6739.201  6739.200  0.500  1.240038  153.664529  44.466404  2.017498
  6739.705  6739.700  0.500  1.240311  153.668889  44.455504  2.018734
  6740.206  6740.200  0.500  1.240627  153.666491  44.440800  2.018682
  6740.698  6740.700  0.500  1.240737  153.661785  44.434520  2.018882
  6741.199  6741.200  0.500  1.241051  153.659717  44.419970  2.017377
  6742.194  6742.190  0.500  1.240762  153.656285  44.431842  2.015908
  6743.199  6743.190  0.500  1.240290  153.656715  44.452933  2.012763
  6744.218  6744.210  0.500  1.239480  153.662956  44.490768  2.004408
  6745.270  6745.260  0.500  1.238482  153.657493  44.533612  1.989391
  6746.328  6746.320  0.500  1.237904  153.655156  44.558694  1.967888
  6747.407  6747.400  0.500  1.237355  153.652163  44.582259  1.939716
  6748.506  6748.500  0.500  1.237218  153.645602  44.586490  1.906316
  6749.642  6749.620  0.500  1.237114  153.644616  44.590822  1.869263
  6750.748  6750.760  0.500  1.236943  153.617277  44.590542  1.834278
  6751.904  6751.910  0.500  1.237192  153.626096  44.581971  1.800407
  6753.082  6753.090  0.500  1.237362  153.623382  44.573632  1.769787
  6754.273  6754.280  0.500  1.237200  153.621968  44.580409  1.745837
  6755.498  6755.500  0.500  1.236468  153.618778  44.612123  1.730412
  6756.729  6756.730  0.500  1.235552  153.619469  44.653229  1.724979
  6757.981  6757.980  0.500  1.234458  153.620868  44.702505  1.729726
  6759.257  6759.250  0.500  1.233502  153.622537  44.745756  1.744276
  6760.544  6760.540  0.500  1.232218  153.609343  44.799409  1.768661
  6761.858  6761.850  0.500  1.230568  153.613147  44.874504  1.799537
  6763.186  6763.180  0.500  1.228901  153.614079  44.949627  1.835522
  6764.535  6764.530  0.500  1.227075  153.621452  45.033941  1.874042
  6765.911  6765.900  0.500  1.224818  153.619421  45.135108  1.909654
  6767.289  6767.280  0.500  1.223260  153.619259  45.205450  1.940026
  6768.700  6768.690  0.500  1.221260  153.623978  45.297328  1.966508
  6770.116  6770.110  0.500  1.219467  153.616882  45.376518  1.987142
  6771.554  6771.550  0.500  1.217785  153.624935  45.455302  2.002184
  6773.019  6773.010  0.500  1.216408  153.623257  45.517430  2.013608
  6774.493  6774.490  0.500  1.215295  153.641530  45.573552  2.019722
  6776.004  6775.990  0.500  1.214109  153.641174  45.627512  2.024571
  6777.517  6777.510  0.500  1.213028  153.650068  45.679524  2.028116
  6779.060  6779.050  0.500  1.211915  153.669615  45.736187  2.030955
  6780.623  6780.610  0.500  1.211754  153.676068  45.745500  2.031159
  6782.191  6782.180  0.500  1.211092  153.678463  45.776481  2.032404
  6783.788  6783.780  0.500  1.210568  153.685887  45.802702  2.032328
  6785.395  6785.390  0.500  1.210060  153.698261  45.829662  2.031957
  6787.040  6787.030  0.500  1.209333  153.718517  45.869032  2.031350
  6788.684  6788.680  0.500  1.208443  153.738364  45.915782  2.030413
  6790.359  6790.350  0.500  1.207384  153.752283  45.968610  2.028658
  6792.044  6792.040  0.500  1.205872  153.769633  46.043370  2.027163
  6793.756  6793.750  0.500  1.204007  152.458735  45.736057  2.007646
  6795.484  6795.480  0.500  1.203808  146.829196  44.056025  1.917268
  6797.237  6797.230  0.500  1.201205  152.856646  45.984114  2.003526
  6798.993  6798.990  0.500  1.199799  153.256265  46.169198  2.007962
  6800.790  6800.780  0.500  1.198093  153.371661  46.282838  2.011955
  6802.589  6802.580  0.500  1.195966  153.424698  46.397428  2.018164
  6804.418  6804.410  0.500  1.193979  153.448879  46.497026  2.024732
  6806.255  6806.250  0.500  1.192577  153.473085  46.569603  2.029755
  6808.118  6808.110  0.500  1.191107  153.442268  46.628737  2.034178
  6809.996  6809.990  0.500  1.189931  152.744807  46.471430  2.030271
  6811.892  6811.890  0.500  1.189966  144.720512  44.028556  1.917387
  6813.817  6813.810  0.500  1.188025  153.017361  46.643181  2.043230
  6815.757  6815.750  0.500  1.187115  153.301298  46.772272  2.053561
  6817.716  6817.710  0.500  1.186005  153.372783  46.846042  2.060478
  6819.691  6819.680  0.500  1.184772  153.378154  46.905473  2.069038
  6821.686  6821.680  0.500  1.183332  153.015364  46.861946  2.073946
  6823.697  6823.690  0.500  1.181963  142.598773  43.731629  1.938208
  6825.728  6825.720  0.500  1.180208  152.846876  46.956839  2.089615
  6827.793  6827.780  0.500  1.178411  153.162710  47.138486  2.103890
  6829.853  6829.850  0.500  1.176609  153.240411  47.247448  2.115991
  6831.953  6831.940  0.500  1.175020  153.272865  47.332636  2.128132
  6834.059  6834.050  0.500  1.173157  153.294912  47.427695  2.141587
  6836.183  6836.180  0.500  1.171407  153.297352  47.511547  2.156209
  6838.336  6838.320  0.500  1.169795  152.996114  47.494678  2.167638
  6840.500  6840.490  0.500  1.167568  142.268424  44.262942  2.033290
  6842.691  6842.680  0.500  1.166490  152.215392  47.408719  2.182889
  6844.894  6844.880  0.500  1.164665  152.752970  47.663054  2.199935
  6847.108  6847.100  0.500  1.163347  152.884781  47.767116  2.206360
  6849.357  6849.350  0.500  1.162155  152.931772  47.838770  2.208740
  6851.621  6851.610  0.500  1.160972  152.959225  47.903994  2.209358
  6853.898  6853.890  0.500  1.159433  152.972459  47.981963  2.209562
  6856.195  6856.190  0.500  1.157897  152.988096  48.060596  2.211082
  6858.522  6858.510  0.500  1.156707  152.989630  48.118313  2.210516
  6860.857  6860.850  0.500  1.154952  152.724554  48.119318  2.207309
  6863.209  6863.200  0.500  1.153184  152.983454  48.286176  2.212195
  6865.593  6865.580  0.500  1.151208  153.035854  48.398283  2.216060
  6867.978  6867.970  0.500  1.149490  153.045367  48.484516  2.219762
  6870.393  6870.390  0.500  1.147735  153.060965  48.574643  2.227687
  6872.830  6872.820  0.500  1.145604  153.073991  48.682383  2.240713
  6875.285  6875.270  0.500  1.143593  153.092952  48.786445  2.254744
  6877.756  6877.750  0.500  1.141644  153.104063  48.885181  2.269661
  6880.252  6880.240  0.500  1.139774  153.095432  48.973893  2.286699
  6882.766  6882.750  0.500  1.137896  153.089547  49.064058  2.301173
  6885.284  6885.270  0.500  1.135923  153.078365  49.157400  2.314532
  6887.827  6887.820  0.500  1.133952  153.093598  49.259256  2.325978
  6890.401  6890.390  0.500  1.132127  153.095013  49.349685  2.335750
  6892.985  6892.970  0.500  1.130519  153.084821  49.425846  2.342024
  6895.590  6895.580  0.500  1.128770  153.085002  49.512407  2.348296
  6898.216  6898.200  0.500  1.127058  153.069382  49.592163  2.353124
  6900.865  6900.850  0.500  1.125422  153.042139  49.664551  2.358840
  6903.522  6903.510  0.500  1.123822  153.038588  49.742907  2.364473
  6906.208  6906.190  0.500  1.121706  153.006313  49.837751  2.372309
  6908.899  6908.890  0.500  1.119865  152.964612  49.915980  2.380545
  6911.619  6911.610  0.500  1.118053  152.887035  49.981174  2.388935
  6914.364  6914.350  0.500  1.116281  152.834206  50.052509  2.399231
  6917.113  6917.100  0.500  1.114196  152.799599  50.145640  2.413276
  6919.892  6919.880  0.500  1.112240  152.711139  50.214694  2.426057
  6922.682  6922.670  0.500  1.110103  152.682068  50.312548  2.440464
  6925.505  6925.490  0.500  1.108363  152.643287  50.387358  2.453638
  6928.336  6928.320  0.500  1.106429  152.616436  50.476055  2.466692
  6931.184  6931.170  0.500  1.104358  152.577149  50.567674  2.480013
  6934.063  6934.050  0.500  1.102010  152.538737  50.673754  2.492664
  6936.952  6936.940  0.500  1.099684  152.525307  50.787305  2.505582
  6939.861  6939.850  0.500  1.097950  152.491230  50.864111  2.513890
  6942.779  6942.770  0.500  1.095680  152.468658  50.972107  2.523082
  6945.736  6945.720  0.500  1.093405  152.432457  51.076102  2.531891
  6948.705  6948.690  0.500  1.091261  152.380749  51.168359  2.539344
  6951.685  6951.670  0.500  1.089145  152.340203  51.263111  2.546873
  6954.690  6954.680  0.500  1.086918  152.320631  51.370799  2.555946
  6957.708  6957.700  0.500  1.084913  152.276857  51.459075  2.565123
  6960.761  6960.750  0.500  1.082985  152.261024  51.553058  2.575341
  6963.824  6963.810  0.500  1.081094  152.237330  51.642565  2.586684
  6966.903  6966.890  0.500  1.079077  152.219654  51.740843  2.598926
  6970.000  6969.990  0.500  1.076980  152.208360  51.845621  2.613424
  6973.123  6973.110  0.500  1.075030  152.189078  51.940225  2.627333
  6976.263  6976.250  0.500  1.072901  152.145255  52.035951  2.641292
  6979.412  6979.400  0.500  1.071188  152.095994  52.108296  2.654173
  6982.588  6982.580  0.500  1.069311  152.062036  52.194507  2.669145
  6985.776  6985.770  0.500  1.066715  152.021016  52.316105  2.683656
  6988.994  6988.990  0.500  1.064062  151.979479  52.440747  2.696499
  6992.232  6992.220  0.500  1.061856  151.952887  52.547330  2.708485
  6995.480  6995.470  0.500  1.059484  151.895068  52.652068  2.718214
  6998.759  6998.750  0.500  1.057469  151.841139  52.739551  2.727419
  7002.046  7002.040  0.500  1.055222  151.798661  52.843398  2.737708
  7005.365  7005.350  0.500  1.052907  151.753374  52.950061  2.749235
  7008.680  7008.670  0.500  1.050620  151.698922  53.052302  2.762158
  7012.033  7012.020  0.500  1.048666  151.646609  53.137728  2.775989
  7015.409  7015.390  0.500  1.046865  151.606180  53.219289  2.789827
  7018.785  7018.770  0.500  1.044525  151.564264  53.329253  2.805275
  7022.193  7022.180  0.500  1.042137  151.521513  53.441647  2.821549
  7025.614  7025.600  0.500  1.040072  151.465181  53.532197  2.835222
  7029.062  7029.050  0.500  1.037627  151.421535  53.647789  2.851237
  7032.521  7032.510  0.500  1.035355  151.350298  53.744534  2.866125
  7035.998  7035.990  0.500  1.032913  151.268600  53.846848  2.883022
  7039.501  7039.490  0.500  1.030636  151.232825  53.956819  2.900419
  7043.019  7043.010  0.500  1.028248  151.173314  54.064552  2.916758
  7046.561  7046.550  0.500  1.025836  151.091075  54.165643  2.932755
  7050.107  7050.100  0.500  1.023367  151.021811  54.274648  2.947451
  7053.687  7053.680  0.500  1.020843  150.968224  54.392485  2.962568
  7057.289  7057.280  0.500  1.018417  150.910459  54.503744  2.976464
  7060.901  7060.890  0.500  1.015978  150.875423  54.624175  2.991278
  7064.528  7064.520  0.500  1.013487  150.702124  54.697502  3.003634
  7068.190  7068.180  0.500  1.011178  150.699070  54.822847  3.018742
  7071.852  7071.850  0.500  1.008757  150.566014  54.907207  3.030239
  7075.548  7075.540  0.500  1.006669  149.143597  54.502182  3.017121
  7079.256  7079.250  0.500  1.004124  150.437471  55.115105  3.061337
  7082.977  7082.980  0.500  1.001665  149.116054  54.765469  3.052770
  7086.721  7086.720  0.500  0.999122  150.233433  55.316326  3.093681
  7090.490  7090.490  0.500  0.997059  150.173434  55.408461  3.108824
  7094.281  7094.280  0.500  0.994524  150.081484  55.515067  3.126439
  7098.082  7098.080  0.500  0.992068  150.702075  55.881719  3.159811
  7101.914  7101.910  0.500  0.989706  150.625887  55.985530  3.178528
  7105.753  7105.750  0.500  0.986996  150.531624  56.102297  3.197526
  7109.613  7109.610  0.500  0.984675  150.422869  56.192052  3.214997
  7113.493  7113.490  0.500  0.982309  150.115476  56.210053  3.227715
  7117.394  7117.390  0.500  0.979952  149.971383  56.288623  3.243916
  7121.315  7121.310  0.500  0.977524  149.755997  56.344411  3.257607
  7125.250  7125.250  0.500  0.975114  149.546089  56.401185  3.272080
  7129.213  7129.210  0.500  0.972612  149.249842  56.430467  3.285790
  7133.186  7133.180  0.500  0.970164  148.971343  56.463271  3.300030
  7137.184  7137.180  0.500  0.967691  148.909531  56.579597  3.317686
