# XDI/1.0 BlueSky/1.10.0 BMM/2023-1.0-py310-tiled
# Beamline.name: BMM (06BM) -- Beamline for Materials Measurement (NIST)
# Beamline.xray_source: NSLS-II three-pole wiggler
# Beamline.collimation: paraboloid mirror, 5 nm Rh on 30 nm Pt
# Beamline.focusing: not in use
# Beamline.harmonic_rejection: flat mirror, Pt stripe, pitch = 7.0 mrad relative to beam
# Beamline.software: Bluesky 1.10.0, Ophyd 1.7.0, DataBroker 2.0.0b13, Python 3.10.8, 2023-1.0-py310-tiled
# Detector.I0: 10 cm N2
# Detector.I1: 25 cm N2
# Detector.I2: 25 cm N2
# Element.symbol: Lu
# Element.edge: L3
# Element.reference: Lu
# Element.reference_material: Lu2O3
# Facility.name: NSLS-II
# Facility.energy: 3.0
# Facility.current: 399.5
# Facility.mode: top-off
# Facility.GUP: 301027
# Facility.SAF: 310583
# Facility.cycle: 2023-2
# Mono.name: Si(111)
# Mono.d_spacing: 3.1351860
# Mono.encoder_resolution: 0.0000050 deg/ct
# Mono.angle_offset: 16.0754326 deg
# Mono.scan_mode: pseudo channel cut
# Mono.scan_type: step
# Mono.direction: forward in energy
# Sample.name: Lu2O3
# Sample.prep: PEG pellet
# Sample.x: 109.138 mm
# Sample.y: 153.150 mm
# Sample.SDD_position: 205.000 mm
# Scan.experimenters: Bruce Ravel
# Scan.edge_energy: 9244.1
# Scan.start_time: 2023-05-28T16:22:06
# Scan.end_time: 2023-05-28T16:30:12
# Scan.transient_id: 78833
# Scan.uid: 6c8b3984-5d01-40f2-9543-0493543933b8
# Scan.plot_hint: ln(It/Ir)  --  ln($6/$7)
# Column.1: energy eV
# Column.2: requested_energy eV
# Column.3: measurement_time seconds
# Column.4: xmu 
# Column.5: I0 nA
# Column.6: It nA
# Column.7: Ir nA
# ///////////
# sample courtesy Martin Stennett, University of Sheffield
# -----------
# energy  requested_energy  measurement_time  xmu  I0  It  Ir
  9044.107  9044.100  0.500  1.443225  116.903669  164.296289  38.801008
  9054.126  9054.100  0.500  1.438914  116.840795  164.382337  38.989043
  9064.168  9064.100  0.500  1.434694  115.409171  162.551132  38.717760
  9074.166  9074.100  0.500  1.430389  116.493045  164.285066  39.299592
  9084.111  9084.100  0.500  1.426174  116.244265  164.082318  39.416875
  9094.125  9094.100  0.500  1.421981  116.129788  164.106697  39.588396
  9104.133  9104.100  0.500  1.417978  114.990295  162.662756  39.397434
  9114.118  9114.100  0.500  1.413650  115.737505  163.913565  39.872606
  9124.132  9124.100  0.500  1.409519  115.533318  163.791337  40.007800
  9134.125  9134.100  0.500  1.405348  115.344006  163.691623  40.150557
  9144.119  9144.100  0.500  1.401671  114.140376  162.163560  39.922291
  9154.150  9154.100  0.500  1.397588  114.876177  163.387227  40.388078
  9164.124  9164.100  0.500  1.393772  114.815571  163.479373  40.565366
  9174.132  9174.100  0.500  1.390318  114.760274  163.561395  40.726138
  9184.121  9184.100  0.500  1.387011  114.292894  163.058621  40.735434
  9194.115  9194.100  0.500  1.384683  114.325890  163.274419  40.884433
  9204.124  9204.100  0.500  1.383607  114.065169  163.067339  40.876541
  9214.133  9214.100  0.500  1.385140  113.898141  163.001372  40.797409
  9216.095  9216.100  0.500  1.385958  113.861347  162.971558  40.756586
  9218.098  9218.100  0.500  1.387208  113.808985  162.937694  40.697222
  9220.084  9220.100  0.500  1.388856  113.758320  162.906451  40.622423
  9222.089  9222.100  0.500  1.391122  113.713502  162.888164  40.525913
  9224.080  9224.100  0.500  1.394008  113.665104  162.869177  40.404433
  9226.094  9226.100  0.500  1.397882  113.635144  162.841865  40.241468
  9228.091  9228.100  0.500  1.402826  113.596407  162.822133  40.038144
  9230.092  9230.100  0.500  1.409582  113.567717  162.799635  39.763054
  9232.094  9232.100  0.500  1.419036  113.496738  162.728315  39.371666
  9234.134  9234.100  0.500  1.432541  113.450765  162.712385  38.839721
  9234.365  9234.400  0.500  1.434404  113.457833  162.722268  38.769772
  9234.667  9234.700  0.500  1.436929  113.452580  162.695979  38.665739
  9234.968  9235.000  0.500  1.439665  113.786396  163.190122  38.677240
  9235.266  9235.300  0.500  1.442503  113.813390  163.210067  38.572335
  9235.567  9235.600  0.500  1.445539  113.813858  163.222498  38.458325
  9235.869  9235.900  0.500  1.448884  113.794272  163.209288  38.326803
  9236.167  9236.200  0.500  1.452421  113.791600  163.223605  38.194815
  9236.472  9236.500  0.500  1.456294  113.766704  163.213120  38.044738
  9236.770  9236.800  0.500  1.460042  113.793987  163.249500  37.910865
  9237.079  9237.100  0.500  1.464428  113.767042  163.198169  37.733072
  9237.373  9237.400  0.500  1.468717  113.747091  163.178729  37.567135
  9237.686  9237.700  0.500  1.473735  113.743194  163.189141  37.381448
  9237.977  9238.000  0.500  1.478655  113.726311  163.169496  37.193520
  9238.286  9238.300  0.500  1.484387  113.717945  163.164082  36.979723
  9238.584  9238.600  0.500  1.490462  113.708166  163.165540  36.756083
  9238.889  9238.900  0.500  1.496949  113.714054  163.172204  36.519883
  9239.187  9239.200  0.500  1.504026  113.696512  163.159856  36.259594
  9239.489  9239.500  0.500  1.511826  113.683756  163.132748  35.971921
  9239.783  9239.800  0.500  1.519967  113.669612  163.123344  35.678207
  9240.093  9240.100  0.500  1.529377  113.663686  163.121498  35.343647
  9240.394  9240.400  0.500  1.539360  113.670350  163.126052  34.993526
  9240.689  9240.700  0.500  1.549705  113.654221  163.092085  34.626184
  9240.994  9241.000  0.500  1.561375  113.643780  163.080573  34.222037
  9241.293  9241.300  0.500  1.574004  113.639793  163.068825  33.790111
  9241.587  9241.600  0.500  1.587380  113.645994  163.087595  33.344990
  9241.882  9241.900  0.500  1.602467  113.620838  163.051751  32.838474
  9242.184  9242.200  0.500  1.619466  113.612797  163.047208  32.284057
  9242.482  9242.500  0.500  1.638446  113.619072  163.061089  31.679787
  9242.777  9242.800  0.500  1.659371  113.585562  163.018689  31.015720
  9243.071  9243.100  0.500  1.683556  113.585004  163.020378  30.274894
  9243.377  9243.400  0.500  1.711115  113.587933  163.052226  29.457706
  9243.727  9243.700  0.500  1.744887  113.567221  163.030841  28.475734
  9244.022  9244.000  0.500  1.779801  113.574076  163.032210  27.498920
  9244.291  9244.300  0.500  1.815648  113.541565  162.989499  26.523684
  9244.600  9244.600  0.500  1.860001  113.545028  162.985330  25.372341
  9244.943  9244.900  0.500  1.917128  113.544287  162.992424  23.964559
  9245.164  9245.200  0.500  1.960125  113.494651  162.957957  22.951132
  9245.473  9245.500  0.500  2.024744  113.479928  162.922599  21.510292
  9245.813  9245.800  0.500  2.106950  113.473096  162.934286  19.814156
  9246.122  9246.100  0.500  2.192903  113.471985  162.943532  18.183249
  9246.424  9246.400  0.500  2.287045  113.448698  162.913522  16.546495
  9246.727  9246.700  0.500  2.389308  113.457173  162.945798  14.941002
  9247.018  9247.000  0.500  2.495407  113.434485  162.919952  13.434851
  9247.316  9247.300  0.500  2.610127  113.425862  162.906720  11.977755
  9247.608  9247.600  0.500  2.719458  113.431007  162.904666  10.737120
  9247.917  9247.900  0.500  2.823951  113.419025  162.879460  9.670300
  9248.220  9248.200  0.500  2.915565  113.428793  162.912417  8.825523
  9248.511  9248.500  0.500  2.988718  113.425077  162.921434  8.203415
  9248.817  9248.800  0.500  3.049502  113.404438  162.900126  7.718619
  9249.112  9249.100  0.500  3.096155  113.401937  162.891198  7.366385
  9249.418  9249.400  0.500  3.133530  113.396524  162.889125  7.096059
  9249.702  9249.700  0.500  3.162384  113.397563  162.909648  6.895108
  9250.009  9250.000  0.500  3.188804  113.377384  162.878770  6.714047
  9250.296  9250.300  0.500  3.211052  113.374639  162.885915  6.566614
  9250.603  9250.600  0.500  3.231962  113.363187  162.870373  6.430115
  9250.901  9250.900  0.500  3.246751  113.356524  162.856428  6.335176
  9251.204  9251.200  0.500  3.254309  113.344424  162.815012  6.285880
  9251.496  9251.500  0.500  3.251780  113.350638  162.827417  6.302277
  9251.802  9251.800  0.500  3.236735  113.330794  162.800267  6.396742
  9252.104  9252.100  0.500  3.209149  113.322732  162.810077  6.576059
  9252.407  9252.400  0.500  3.168682  113.322255  162.827206  6.848346
  9252.702  9252.700  0.500  3.115751  113.314187  162.818739  7.220232
  9253.005  9253.000  0.500  3.053717  113.294948  162.804047  7.681622
  9253.308  9253.300  0.500  2.981702  113.286690  162.810839  8.255557
  9253.607  9253.600  0.500  2.907838  113.274832  162.804801  8.888105
  9253.906  9253.900  0.500  2.830375  113.275400  162.784422  9.602773
  9254.205  9254.200  0.500  2.754806  113.254400  162.743565  10.353969
  9254.511  9254.500  0.500  2.679609  113.245810  162.729386  11.161604
  9254.807  9254.800  0.500  2.612136  113.243039  162.731792  11.940871
  9255.110  9255.100  0.500  2.549345  113.219434  162.711291  12.713096
  9255.405  9255.400  0.500  2.494875  113.227148  162.746795  13.427708
  9255.704  9255.700  0.500  2.445168  113.221582  162.737308  14.111207
  9256.007  9256.000  0.500  2.401338  113.207925  162.694213  14.739546
  9256.303  9256.300  0.500  2.364194  113.201845  162.702859  15.298142
  9256.609  9256.600  0.500  2.329320  113.215597  162.722701  15.842992
  9256.894  9256.900  0.500  2.300152  113.199078  162.708096  16.310450
  9257.208  9257.200  0.500  2.272024  113.175003  162.675804  16.772411
  9257.496  9257.500  0.500  2.248038  113.160616  162.668427  17.178801
  9257.795  9257.800  0.500  2.225678  113.147283  162.632541  17.563368
  9258.095  9258.100  0.500  2.206174  113.151746  162.638536  17.909942
  9258.394  9258.400  0.500  2.187898  113.127953  162.643587  18.240851
  9258.690  9258.700  0.500  2.171606  113.126831  162.650804  18.541278
  9258.989  9259.000  0.500  2.157150  113.114092  162.631380  18.809013
  9259.300  9259.300  0.500  2.144041  113.120012  162.645174  19.058827
  9259.595  9259.600  0.500  2.132342  113.117548  162.649864  19.283660
  9259.902  9259.900  0.500  2.121695  113.097443  162.640849  19.488977
  9260.194  9260.200  0.500  2.112682  113.097746  162.636801  19.664952
  9260.508  9260.500  0.500  2.104031  113.078280  162.619738  19.833724
  9260.808  9260.800  0.500  2.096635  113.072111  162.609980  19.979748
  9261.115  9261.100  0.500  2.089835  113.069099  162.614281  20.116621
  9261.400  9261.400  0.500  2.084022  113.067745  162.605200  20.232764
  9261.707  9261.700  0.500  2.078693  113.064569  162.593847  20.339460
  9261.999  9262.000  0.500  2.074199  113.034985  162.549546  20.425489
  9262.313  9262.300  0.500  2.070193  113.046549  162.571300  20.510229
  9262.613  9262.600  0.500  2.067142  113.020835  162.541966  20.569193
  9262.901  9262.900  0.500  2.065031  113.012164  162.546347  20.613206
  9263.205  9263.200  0.500  2.063424  113.035955  162.593296  20.652326
  9263.501  9263.500  0.500  2.063038  113.008744  162.554948  20.655417
  9263.804  9263.800  0.500  2.063594  112.992589  162.527052  20.640395
  9264.097  9264.100  0.500  2.065189  112.989156  162.528672  20.607722
  9264.400  9264.400  0.500  2.067600  112.982569  162.519290  20.556894
  9264.692  9264.700  0.500  2.071055  112.965430  162.490928  20.482427
  9265.000  9265.000  0.500  2.075529  112.960546  162.510628  20.393454
  9265.299  9265.300  0.500  2.080444  112.961985  162.516200  20.294172
  9265.588  9265.600  0.500  2.085789  112.955878  162.513691  20.185674
  9265.884  9265.900  0.500  2.091113  112.943405  162.503491  20.077238
  9266.199  9266.200  0.500  2.096381  112.941917  162.506819  19.972162
  9266.491  9266.500  0.500  2.100899  112.919566  162.461960  19.876631
  9266.795  9266.800  0.500  2.104777  112.927412  162.460541  19.799521
  9267.099  9267.100  0.500  2.107839  112.918068  162.457273  19.738596
  9267.399  9267.400  0.500  2.110137  112.899775  162.446866  19.692037
  9267.710  9267.700  0.500  2.111939  112.898936  162.443334  19.656141
  9268.002  9268.000  0.500  2.113023  112.885569  162.430721  19.633320
  9268.306  9268.300  0.500  2.113389  112.879207  162.431111  19.626183
  9268.602  9268.600  0.500  2.113259  112.868339  162.430210  19.628635
  9268.906  9268.900  0.500  2.112531  112.859897  162.442422  19.644413
  9269.102  9269.100  0.500  2.111664  112.854271  162.425749  19.659427
  9270.106  9270.090  0.500  2.104009  112.847257  162.405246  19.807998
  9271.092  9271.090  0.500  2.092085  112.825817  162.382646  20.042816
  9272.119  9272.110  0.500  2.077987  112.791306  162.349705  20.323247
  9273.164  9273.160  0.500  2.066049  112.764528  162.336141  20.565611
  9274.240  9274.220  0.500  2.060843  112.723457  162.297605  20.668042
  9275.323  9275.300  0.500  2.064186  112.658280  162.219784  20.589181
  9276.410  9276.400  0.500  2.075051  111.813140  161.030075  20.217337
  9277.534  9277.520  0.500  2.090968  112.519470  162.086022  20.028553
  9278.670  9278.660  0.500  2.108480  112.692027  162.347693  19.712647
  9279.817  9279.810  0.500  2.126391  112.673659  162.342734  19.362122
  9281.006  9280.990  0.500  2.145962  112.629968  162.294272  18.981202
  9282.195  9282.180  0.500  2.167692  112.597834  162.259815  18.569256
  9283.417  9283.400  0.500  2.192858  112.560924  162.221811  18.103519
  9284.655  9284.630  0.500  2.219303  112.538540  162.191411  17.627754
  9285.893  9285.880  0.500  2.240804  112.528901  162.194492  17.253115
  9287.161  9287.150  0.500  2.254499  112.485244  162.157193  17.014523
  9288.448  9288.440  0.500  2.257583  112.456279  162.142717  16.960624
  9289.765  9289.750  0.500  2.250232  112.417343  162.114239  17.082751
  9291.098  9291.080  0.500  2.235342  112.365874  162.072579  17.334558
  9292.449  9292.430  0.500  2.216521  112.040666  161.603860  17.612815
  9293.809  9293.800  0.500  2.196861  111.791573  161.260250  17.924321
  9295.183  9295.180  0.500  2.178414  112.339915  162.092379  18.352246
  9296.603  9296.590  0.500  2.162679  112.281406  162.041555  18.637470
  9298.023  9298.010  0.500  2.151282  112.161573  161.884396  18.832813
  9299.459  9299.450  0.500  2.142619  111.534455  160.987862  18.891459
  9300.910  9300.910  0.500  2.133600  110.318390  159.248557  18.856656
  9302.387  9302.390  0.500  2.126014  112.604873  162.574413  19.397074
  9303.892  9303.890  0.500  2.117149  112.581530  162.565402  19.568704
  9305.415  9305.410  0.500  2.109457  112.500133  162.482691  19.709779
  9306.954  9306.950  0.500  2.103016  111.680291  161.325596  19.695864
  9308.523  9308.510  0.500  2.097789  112.486211  162.529746  19.946867
  9310.093  9310.080  0.500  2.093644  112.479195  162.535952  20.030474
  9311.689  9311.680  0.500  2.090012  112.443918  162.530068  20.102645
  9313.301  9313.290  0.500  2.087303  112.412421  162.498029  20.153204
  9314.955  9314.930  0.500  2.085602  112.355300  162.410316  20.176612
  9316.594  9316.580  0.500  2.085322  112.336311  162.411975  20.182467
  9318.246  9318.250  0.500  2.086416  112.297308  162.403233  20.159316
  9319.942  9319.940  0.500  2.088896  112.263548  162.387235  20.107393
  9321.655  9321.650  0.500  2.092926  112.203191  162.345295  20.021353
  9323.398  9323.380  0.500  2.098192  112.114227  162.236171  19.902822
  9325.130  9325.130  0.500  2.104697  111.642906  161.579909  19.693770
  9326.897  9326.890  0.500  2.111949  112.152719  162.349821  19.644640
  9328.694  9328.680  0.500  2.119073  112.118650  162.309228  19.500308
  9330.478  9330.480  0.500  2.125440  112.066714  162.243485  19.368690
  9332.307  9332.310  0.500  2.130782  112.031752  162.237262  19.264767
  9334.167  9334.150  0.500  2.134705  111.985397  162.203608  19.185354
  9336.016  9336.010  0.500  2.137057  111.949593  162.176221  19.137056
  9337.892  9337.890  0.500  2.137979  111.919422  162.166021  19.118209
  9339.807  9339.790  0.500  2.137955  111.871358  162.123553  19.113666
  9341.719  9341.710  0.500  2.137154  111.825095  162.087743  19.124754
  9343.650  9343.650  0.500  2.136157  111.786718  162.055763  19.140056
  9345.628  9345.610  0.500  2.135808  111.754801  162.032430  19.143982
  9347.595  9347.580  0.500  2.136236  111.713230  161.996061  19.131496
  9349.589  9349.580  0.500  2.136503  111.668853  161.964950  19.122712
  9351.596  9351.590  0.500  2.136058  111.627604  161.945916  19.128976
  9353.641  9353.620  0.500  2.134643  111.596818  161.931556  19.154364
  9355.687  9355.680  0.500  2.132322  111.573623  161.915034  19.196911
  9357.756  9357.750  0.500  2.130120  111.501210  161.854013  19.231988
  9359.849  9359.840  0.500  2.127939  111.462294  161.835880  19.271824
  9361.951  9361.950  0.500  2.126045  111.424046  161.805721  19.304759
  9364.088  9364.080  0.500  2.124430  111.395999  161.796660  19.334877
  9366.237  9366.220  0.500  2.122878  111.342637  161.746524  19.358908
  9368.395  9368.390  0.500  2.121047  111.291504  161.717521  19.390895
  9370.595  9370.580  0.500  2.117836  111.255476  161.700249  19.451199
  9372.796  9372.780  0.500  2.113232  111.197056  161.658180  19.535860
  9374.999  9375.000  0.500  2.106979  111.157917  161.646321  19.656972
  9377.263  9377.250  0.500  2.100244  111.109031  161.599819  19.784117
  9379.521  9379.510  0.500  2.093479  111.083685  161.595159  19.917837
  9381.795  9381.790  0.500  2.086995  111.017038  161.533395  20.039723
  9384.112  9384.090  0.500  2.081249  110.972510  161.502445  20.151341
  9386.426  9386.410  0.500  2.077987  110.932960  161.483756  20.214855
  9388.764  9388.750  0.500  2.077865  110.896675  161.468084  20.215361
  9391.111  9391.100  0.500  2.080762  110.843981  161.439777  20.153335
  9393.486  9393.480  0.500  2.084597  110.799379  161.404162  20.071783
  9395.889  9395.870  0.500  2.088314  110.741712  161.359384  19.991756
  9398.305  9398.290  0.500  2.091008  110.704451  161.343978  19.936067
  9400.726  9400.720  0.500  2.093202  110.664817  161.316817  19.889022
  9403.193  9403.170  0.500  2.095137  110.610836  161.283104  19.846425
  9405.655  9405.650  0.500  2.097382  110.564195  161.261515  19.799280
  9408.167  9408.140  0.500  2.100804  110.518564  161.219058  19.726448
  9410.654  9410.650  0.500  2.104823  110.465549  161.160367  19.640160
  9413.184  9413.170  0.500  2.109068  110.422311  161.124997  19.552672
  9415.735  9415.720  0.500  2.112371  110.366439  161.104079  19.485677
  9418.299  9418.290  0.500  2.113816  110.310047  161.080739  19.454722
  9420.895  9420.870  0.500  2.112510  110.254216  161.031503  19.474189
  9423.492  9423.480  0.500  2.108645  110.224052  161.018069  19.547978
  9426.118  9426.100  0.500  2.102253  110.161609  160.985626  19.669358
  9428.757  9428.750  0.500  2.094953  110.107948  160.954429  19.809628
  9431.427  9431.410  0.500  2.088665  110.048735  160.887345  19.926280
  9434.104  9434.090  0.500  2.084139  110.009522  160.863001  20.013642
  9436.797  9436.790  0.500  2.081011  109.585004  160.283136  20.003962
  9439.530  9439.510  0.500  2.078530  109.856746  160.741252  20.110976
  9442.257  9442.250  0.500  2.077410  109.817168  160.723957  20.131354
  9445.021  9445.000  0.500  2.077652  109.770361  160.688797  20.122084
  9447.782  9447.780  0.500  2.078237  109.702636  160.620605  20.101766
  9450.591  9450.570  0.500  2.078645  109.677440  160.620501  20.093567
  9453.394  9453.390  0.500  2.078762  109.618605  160.567300  20.084564
  9456.241  9456.220  0.500  2.079119  109.558410  160.544562  20.074551
  9459.075  9459.070  0.500  2.079597  109.499803  160.481616  20.057079
  9461.972  9461.950  0.500  2.080391  109.438077  160.443206  20.036375
  9464.848  9464.840  0.500  2.080378  109.378991  160.388045  20.029730
  9467.783  9467.750  0.500  2.078785  109.314028  160.329971  20.054415
  9470.670  9470.670  0.500  2.075613  109.259068  160.278956  20.111727
  9473.644  9473.620  0.500  2.071588  109.188091  160.237381  20.187597
  9476.597  9476.590  0.500  2.067594  109.125391  160.189241  20.262293
