# XDI/1.0 BlueSky/1.10.0 BMM/2023-1.0-py310-tiled
# Beamline.name: BMM (06BM) -- Beamline for Materials Measurement (NIST)
# Beamline.xray_source: NSLS-II three-pole wiggler
# Beamline.collimation: paraboloid mirror, 5 nm Rh on 30 nm Pt
# Beamline.focusing: not in use
# Beamline.harmonic_rejection: flat mirror, Pt stripe, pitch = 7.0 mrad relative to beam
# Beamline.software: Bluesky 1.10.0, Ophyd 1.7.0, DataBroker 2.0.0b13, Python 3.10.8, 2023-1.0-py310-tiled
# Detector.I0: 10 cm N2
# Detector.I1: 25 cm N2
# Detector.I2: 25 cm N2
# Element.symbol: Pb
# Element.edge: L1
# Element.reference: Pb
# Element.reference_material: Pb foil
# Facility.name: NSLS-II
# Facility.energy: 3.0
# Facility.current: 399.2
# Facility.mode: top-off
# Facility.GUP: 301027
# Facility.SAF: 310583
# Facility.cycle: 2023-2
# Mono.name: Si(111)
# Mono.d_spacing: 3.1351860
# Mono.encoder_resolution: 0.0000050 deg/ct
# Mono.angle_offset: 16.0754326 deg
# Mono.scan_mode: pseudo channel cut
# Mono.scan_type: step
# Mono.direction: forward in energy
# Sample.name: PbS2
# Sample.prep: powder on tape
# Sample.x: 143.785 mm
# Sample.y: 114.695 mm
# Sample.SDD_position: 205.000 mm
# Scan.experimenters: Bruce Ravel
# Scan.edge_energy: 15860.8
# Scan.start_time: 2023-06-23T18:12:36
# Scan.end_time: 2023-06-23T18:21:04
# Scan.transient_id: 84926
# Scan.uid: c3effb82-334f-41ff-9cca-50278b76da4f
# Scan.plot_hint: ln(I0/It)  --  ln($5/$6)
# Column.1: energy eV
# Column.2: requested_energy eV
# Column.3: measurement_time seconds
# Column.4: xmu 
# Column.5: I0 nA
# Column.6: It nA
# Column.7: Ir nA
# ///////////
# BMM standards collection
# -----------
# energy  requested_energy  measurement_time  xmu  I0  It  Ir
  15660.752  15660.800  0.500  0.335755  24.711682  17.663874  4.935482
  15670.873  15670.800  0.500  0.334202  24.562898  17.584803  4.921974
  15680.868  15680.800  0.500  0.333069  24.575351  17.613668  4.940369
  15690.865  15690.800  0.500  0.331709  24.537960  17.610808  4.948700
  15700.853  15700.800  0.500  0.330077  24.470395  17.590989  4.950553
  15710.876  15710.800  0.500  0.328895  24.400873  17.561763  4.951042
  15720.900  15720.800  0.500  0.327558  24.354919  17.552133  4.957226
  15730.927  15730.800  0.500  0.326080  24.288868  17.530422  4.959619
  15740.825  15740.800  0.500  0.324773  24.237468  17.516205  4.963370
  15750.856  15750.800  0.500  0.323521  24.168080  17.487946  4.963090
  15760.889  15760.800  0.500  0.322317  24.112758  17.468942  4.964803
  15770.869  15770.800  0.500  0.321275  24.059627  17.448621  4.964798
  15780.851  15780.800  0.500  0.320260  24.007204  17.428281  4.965643
  15790.878  15790.800  0.500  0.319252  23.943411  17.399500  4.963561
  15800.919  15800.800  0.500  0.318524  23.887251  17.371319  4.957625
  15810.742  15810.800  0.500  0.318040  23.829114  17.337435  4.951753
  15820.764  15820.800  0.500  0.318283  23.767822  17.288637  4.935809
  15830.777  15830.800  0.500  0.319442  23.763496  17.265476  4.921157
  15832.730  15832.800  0.500  0.319716  23.790129  17.280078  4.920778
  15834.728  15834.800  0.500  0.320450  23.788178  17.265984  4.914855
  15836.705  15836.800  0.500  0.321070  23.779004  17.248628  4.903303
  15838.715  15838.800  0.500  0.322005  23.763780  17.221475  4.889931
  15840.736  15840.800  0.500  0.323195  23.749191  17.190441  4.872642
  15842.769  15842.800  0.500  0.324588  23.735367  17.156513  4.852636
  15844.726  15844.800  0.500  0.326602  23.721030  17.111654  4.827611
  15846.727  15846.800  0.500  0.328946  23.703263  17.058812  4.795115
  15848.729  15848.800  0.500  0.332784  23.698577  16.990099  4.754595
  15850.720  15850.800  0.500  0.337443  23.674939  16.894269  4.697436
  15851.006  15851.100  0.500  0.338255  23.669237  16.876479  4.688505
  15851.314  15851.400  0.500  0.339364  23.668664  16.857375  4.676056
  15851.611  15851.700  0.500  0.340218  23.665418  16.840675  4.667372
  15851.908  15852.000  0.500  0.341021  23.662287  16.824932  4.656489
  15852.238  15852.300  0.500  0.342036  23.656679  16.803867  4.642277
  15852.535  15852.600  0.500  0.343330  23.659077  16.783843  4.631555
  15852.799  15852.900  0.500  0.344562  23.660868  16.764449  4.620140
  15853.130  15853.200  0.500  0.345587  23.658616  16.745682  4.606481
  15853.460  15853.500  0.500  0.347089  23.658096  16.720178  4.591492
  15853.768  15853.800  0.500  0.348176  23.656310  16.700760  4.576541
  15854.043  15854.100  0.500  0.349600  23.652043  16.673986  4.562423
  15854.362  15854.400  0.500  0.351300  23.657554  16.649533  4.546472
  15854.659  15854.700  0.500  0.352703  23.654291  16.623903  4.528941
  15854.946  15855.000  0.500  0.354386  23.655726  16.596953  4.512614
  15855.276  15855.300  0.500  0.356355  23.657113  16.565285  4.491815
  15855.584  15855.600  0.500  0.358297  23.653466  16.530598  4.472062
  15855.870  15855.900  0.500  0.360150  23.649932  16.497517  4.451772
  15856.168  15856.200  0.500  0.362414  23.653866  16.462957  4.429955
  15856.476  15856.500  0.500  0.364608  23.651336  16.425109  4.406035
  15856.751  15856.800  0.500  0.366850  23.648188  16.386145  4.381629
  15857.059  15857.100  0.500  0.369336  23.639322  16.339339  4.354668
  15857.390  15857.400  0.500  0.372220  23.642559  16.294514  4.327171
  15857.687  15857.700  0.500  0.374915  23.639919  16.248846  4.300713
  15857.962  15858.000  0.500  0.377599  23.636638  16.203049  4.272370
  15858.271  15858.300  0.500  0.380677  23.630810  16.149257  4.241469
  15858.579  15858.600  0.500  0.383824  23.632295  16.099531  4.210759
  15858.854  15858.900  0.500  0.386934  23.629617  16.047717  4.181015
  15859.174  15859.200  0.500  0.390187  23.626383  15.993416  4.147689
  15859.482  15859.500  0.500  0.393855  23.627991  15.935946  4.114175
  15859.758  15859.800  0.500  0.397133  23.623946  15.881077  4.083554
  15860.077  15860.100  0.500  0.400849  23.619439  15.819155  4.048536
  15860.352  15860.400  0.500  0.404421  23.623340  15.765352  4.016485
  15860.661  15860.700  0.500  0.407626  23.622087  15.714070  3.985739
  15860.958  15861.000  0.500  0.411245  23.617051  15.653958  3.952228
  15861.289  15861.300  0.500  0.414805  23.611616  15.594747  3.920585
  15861.553  15861.600  0.500  0.418044  23.616460  15.547504  3.892783
  15861.873  15861.900  0.500  0.421205  23.615883  15.498058  3.863795
  15862.192  15862.200  0.500  0.423962  23.610817  15.452073  3.837447
  15862.457  15862.500  0.500  0.426566  23.611241  15.412164  3.817406
  15862.798  15862.800  0.500  0.429053  23.607961  15.371743  3.793515
  15863.096  15863.100  0.500  0.431092  23.601392  15.336156  3.771791
  15863.371  15863.400  0.500  0.432834  23.603365  15.310755  3.759166
  15863.702  15863.700  0.500  0.434378  23.600820  15.285488  3.742770
  15864.010  15864.000  0.500  0.435449  23.602224  15.270028  3.732914
  15864.286  15864.300  0.500  0.436414  23.594313  15.250184  3.723308
  15864.627  15864.600  0.500  0.437013  23.595843  15.242046  3.716756
  15864.914  15864.900  0.500  0.437261  23.594736  15.237549  3.712131
  15865.201  15865.200  0.500  0.437138  23.591180  15.237132  3.710685
  15865.509  15865.500  0.500  0.436916  23.588489  15.238775  3.709902
  15865.796  15865.800  0.500  0.436495  23.591881  15.247387  3.712168
  15866.093  15866.100  0.500  0.435865  23.587339  15.254045  3.713667
  15866.424  15866.400  0.500  0.435104  23.580843  15.261461  3.718065
  15866.711  15866.700  0.500  0.434149  23.577173  15.273659  3.724391
  15866.986  15867.000  0.500  0.433068  23.578929  15.291329  3.730769
  15867.328  15867.300  0.500  0.431882  23.579514  15.309853  3.739088
  15867.604  15867.600  0.500  0.430518  23.574551  15.327524  3.747225
  15867.879  15867.900  0.500  0.429322  23.571747  15.344029  3.755688
  15868.199  15868.200  0.500  0.427839  23.570393  15.365924  3.765347
  15868.497  15868.500  0.500  0.426756  23.572910  15.384225  3.773816
  15868.784  15868.800  0.500  0.425485  23.565029  15.398640  3.781888
  15869.103  15869.100  0.500  0.424240  23.562629  15.416244  3.791267
  15869.368  15869.400  0.500  0.423012  23.560263  15.433639  3.798150
  15869.699  15869.700  0.500  0.421642  23.556722  15.452482  3.808204
  15869.997  15870.000  0.500  0.420528  23.554716  15.468388  3.816022
  15870.261  15870.300  0.500  0.419705  23.555781  15.481824  3.822971
  15870.581  15870.600  0.500  0.418460  23.551623  15.498367  3.829654
  15870.868  15870.900  0.500  0.417660  23.552004  15.511019  3.836821
  15871.166  15871.200  0.500  0.416825  23.543015  15.518058  3.842141
  15871.508  15871.500  0.500  0.415925  23.547146  15.534755  3.849461
  15871.784  15871.800  0.500  0.415196  23.547995  15.546643  3.854137
  15872.092  15872.100  0.500  0.414619  23.543766  15.552824  3.857726
  15872.412  15872.400  0.500  0.413879  23.538112  15.560604  3.862058
  15872.677  15872.700  0.500  0.413231  23.537248  15.570119  3.865215
  15873.008  15873.000  0.500  0.412743  23.532089  15.574304  3.868260
  15873.317  15873.300  0.500  0.412151  23.529786  15.582000  3.869846
  15873.593  15873.600  0.500  0.411726  23.525271  15.585627  3.872644
  15873.913  15873.900  0.500  0.411290  23.525370  15.592497  3.874958
  15874.211  15874.200  0.500  0.410932  23.523628  15.596922  3.875986
  15874.498  15874.500  0.500  0.410573  23.526388  15.604352  3.877349
  15874.829  15874.800  0.500  0.410320  23.523977  15.606699  3.877632
  15875.105  15875.100  0.500  0.409998  23.521358  15.609987  3.877218
  15875.392  15875.400  0.500  0.409533  23.519796  15.616217  3.877964
  15875.701  15875.700  0.500  0.409391  23.520389  15.618825  3.879051
  15876.010  15876.000  0.500  0.409008  23.511271  15.618749  3.878325
  15876.308  15876.300  0.500  0.408806  23.514433  15.624001  3.878175
  15876.628  15876.600  0.500  0.408561  23.508757  15.624054  3.877984
  15876.904  15876.900  0.500  0.408354  23.510355  15.628363  3.877460
  15877.191  15877.200  0.500  0.408152  23.511018  15.631954  3.878087
  15877.489  15877.500  0.500  0.407885  23.507429  15.633745  3.876396
  15877.798  15877.800  0.500  0.407510  23.502338  15.636214  3.876114
  15878.085  15878.100  0.500  0.407475  23.507241  15.640031  3.876528
  15878.405  15878.400  0.500  0.407336  23.503380  15.639635  3.876055
  15878.692  15878.700  0.500  0.407087  23.504035  15.643961  3.875506
  15878.968  15879.000  0.500  0.406688  23.496819  15.645406  3.874912
  15879.277  15879.300  0.500  0.406735  23.500622  15.647195  3.875186
  15879.587  15879.600  0.500  0.406333  23.490787  15.646934  3.874653
  15879.874  15879.900  0.500  0.405992  23.494118  15.654490  3.875369
  15880.183  15880.200  0.500  0.405934  23.493690  15.655123  3.876104
  15880.481  15880.500  0.500  0.405662  23.488951  15.656215  3.876316
  15880.757  15880.800  0.500  0.405584  23.490194  15.658273  3.878455
  15881.089  15881.100  0.500  0.405321  23.483421  15.657868  3.877647
  15881.387  15881.400  0.500  0.405264  23.478918  15.655755  3.877981
  15881.696  15881.700  0.500  0.405058  23.482795  15.661565  3.879253
  15882.005  15882.000  0.500  0.404884  23.478891  15.661695  3.879589
  15882.303  15882.300  0.500  0.404900  23.479246  15.661680  3.881428
  15882.580  15882.600  0.500  0.404659  23.473729  15.661777  3.882092
  15882.900  15882.900  0.500  0.404591  23.468992  15.659672  3.882562
  15883.198  15883.200  0.500  0.404495  23.465224  15.658671  3.882885
  15883.508  15883.500  0.500  0.404661  23.469590  15.658975  3.885638
  15883.817  15883.800  0.500  0.404491  23.464417  15.658186  3.884821
  15884.115  15884.100  0.500  0.404527  23.457891  15.653267  3.886458
  15884.403  15884.400  0.500  0.404696  23.458409  15.650972  3.888039
  15884.723  15884.700  0.500  0.404880  23.459548  15.648848  3.888559
  15885.021  15885.000  0.500  0.404871  23.454973  15.645940  3.890693
  15885.286  15885.300  0.500  0.405175  23.454290  15.640737  3.890946
  15885.596  15885.600  0.500  0.405210  23.455524  15.641004  3.891602
  15885.839  15885.800  0.500  0.405459  23.451001  15.634089  3.891234
  15886.845  15886.790  0.500  0.405624  23.445741  15.628007  3.893313
  15887.806  15887.790  0.500  0.406388  23.439031  15.611613  3.893718
  15888.834  15888.810  0.500  0.406858  23.431775  15.599447  3.893331
  15889.885  15889.860  0.500  0.407355  23.426667  15.588291  3.894050
  15890.924  15890.920  0.500  0.407858  23.417953  15.574651  3.891810
  15892.008  15892.000  0.500  0.407839  23.411858  15.570898  3.889863
  15893.103  15893.100  0.500  0.407755  23.402643  15.566075  3.887958
  15894.231  15894.220  0.500  0.407739  23.394588  15.560967  3.884445
  15895.393  15895.360  0.500  0.407579  23.385873  15.557666  3.880745
  15896.544  15896.510  0.500  0.407582  23.380902  15.554309  3.878019
  15897.728  15897.690  0.500  0.407668  23.377251  15.550542  3.872754
  15898.890  15898.880  0.500  0.407768  23.367493  15.542490  3.867574
  15900.086  15900.100  0.500  0.408084  23.361285  15.533453  3.863569
  15901.315  15901.330  0.500  0.408204  23.348678  15.523210  3.857263
  15902.577  15902.580  0.500  0.408861  23.345032  15.510600  3.854505
  15903.840  15903.850  0.500  0.408787  23.333269  15.503928  3.853006
  15905.169  15905.140  0.500  0.408655  23.319416  15.496771  3.851982
  15906.476  15906.450  0.500  0.408192  23.308918  15.496962  3.855058
  15907.795  15907.780  0.500  0.407425  23.297957  15.501565  3.861165
  15909.147  15909.130  0.500  0.406598  23.285451  15.506054  3.864321
  15910.510  15910.500  0.500  0.405499  23.223392  15.481733  3.862365
  15911.885  15911.880  0.500  0.404702  23.066648  15.389505  3.845030
  15913.304  15913.290  0.500  0.403886  23.104555  15.427378  3.859142
  15914.724  15914.710  0.500  0.402744  23.239739  15.535375  3.888646
  15916.166  15916.150  0.500  0.402289  23.269561  15.562396  3.898507
  15917.642  15917.610  0.500  0.401638  23.261364  15.567034  3.898760
  15919.129  15919.090  0.500  0.401062  23.248439  15.567346  3.898713
  15920.594  15920.590  0.500  0.400643  23.240305  15.568423  3.899185
  15922.126  15922.110  0.500  0.400365  23.229278  15.565370  3.897682
  15923.658  15923.650  0.500  0.400277  23.218763  15.559692  3.895837
  15925.202  15925.210  0.500  0.400354  23.211904  15.553899  3.893208
  15926.812  15926.780  0.500  0.400734  23.198050  15.538702  3.889180
  15928.401  15928.380  0.500  0.401076  23.191816  15.529223  3.886878
  15930.023  15929.990  0.500  0.401628  23.180118  15.512826  3.883570
  15931.624  15931.630  0.500  0.402161  23.169447  15.497418  3.880287
  15933.324  15933.280  0.500  0.402391  23.155949  15.484831  3.877738
  15934.914  15934.950  0.500  0.402424  23.139829  15.473539  3.876662
  15936.649  15936.640  0.500  0.402717  23.134332  15.465337  3.877077
  15938.284  15938.350  0.500  0.402507  23.122167  15.460451  3.879389
  15940.087  15940.080  0.500  0.402178  23.112883  15.459325  3.881476
  15941.790  15941.830  0.500  0.401475  23.099637  15.461333  3.882901
  15943.604  15943.590  0.500  0.400976  23.083672  15.458348  3.885529
  15945.352  15945.380  0.500  0.400536  23.066180  15.453439  3.887237
  15947.134  15947.180  0.500  0.400079  23.048878  15.448903  3.887889
  15948.960  15949.010  0.500  0.399421  22.913136  15.368029  3.868927
  15950.810  15950.850  0.500  0.398789  22.852962  15.337368  3.863507
  15952.682  15952.710  0.500  0.398473  23.016652  15.452103  3.893319
  15955.168  15954.590  0.500  0.398014  23.023412  15.463738  3.897533
  15956.383  15956.490  0.500  0.397733  23.091174  15.513611  3.912082
  15958.435  15958.410  0.500  0.397086  23.063875  15.505297  3.910312
  15960.231  15960.350  0.500  0.396585  23.054575  15.506802  3.911430
  15962.205  15962.310  0.500  0.396065  23.030278  15.498519  3.910019
  15964.359  15964.280  0.500  0.395620  23.024725  15.501678  3.913766
  15966.424  15966.280  0.500  0.395159  23.013415  15.501206  3.913935
  15968.200  15968.290  0.500  0.394773  23.002294  15.499707  3.914540
  15970.244  15970.320  0.500  0.394511  22.983158  15.490874  3.913934
  15972.321  15972.380  0.500  0.393985  22.969880  15.490068  3.916665
  15974.377  15974.450  0.500  0.393793  22.957485  15.484684  3.916375
  15976.479  15976.540  0.500  0.393421  22.947956  15.484009  3.918378
  15978.592  15978.650  0.500  0.393522  22.938020  15.475741  3.918180
  15980.716  15980.780  0.500  0.393171  22.914285  15.465155  3.916450
  15982.842  15982.920  0.500  0.392985  22.891895  15.452917  3.916498
  15985.024  15985.090  0.500  0.392871  22.736615  15.349842  3.893019
  15987.240  15987.280  0.500  0.392908  22.755792  15.362223  3.898865
  15989.434  15989.480  0.500  0.392575  22.881108  15.451968  3.922946
  15991.662  15991.700  0.500  0.392564  22.869116  15.444043  3.922232
  15993.903  15993.950  0.500  0.392106  22.855612  15.441996  3.923699
  15996.166  15996.210  0.500  0.391851  22.843749  15.437912  3.925493
  15998.441  15998.490  0.500  0.391426  22.830653  15.435616  3.925828
  16000.751  16000.790  0.500  0.390953  22.809871  15.428865  3.926832
  16003.072  16003.110  0.500  0.390221  22.796499  15.431114  3.929416
  16005.405  16005.450  0.500  0.389820  22.784259  15.429018  3.930627
  16007.762  16007.800  0.500  0.389451  22.773564  15.427472  3.932362
  16010.130  16010.180  0.500  0.388783  22.757668  15.427001  3.934472
  16012.544  16012.570  0.500  0.388297  22.743452  15.424850  3.936155
  16014.993  16014.990  0.500  0.387776  22.724350  15.419937  3.937492
  16017.397  16017.420  0.500  0.387352  22.711045  15.417433  3.938670
  16019.880  16019.870  0.500  0.387003  22.686460  15.406131  3.938365
  16022.309  16022.350  0.500  0.386576  22.655732  15.391837  3.936860
  16024.816  16024.840  0.500  0.386279  22.442589  15.251557  3.902465
  16027.336  16027.350  0.500  0.385651  22.556646  15.338693  3.927160
  16029.845  16029.870  0.500  0.385297  22.602397  15.375255  3.938196
  16032.400  16032.420  0.500  0.384769  22.613274  15.390775  3.945456
  16035.012  16034.990  0.500  0.384282  22.616785  15.400664  3.948224
  16037.547  16037.570  0.500  0.383914  22.605715  15.398786  3.950498
  16040.183  16040.180  0.500  0.383551  22.591824  15.394911  3.951068
  16042.820  16042.800  0.500  0.383173  22.578382  15.391575  3.951385
  16045.425  16045.450  0.500  0.382921  22.560457  15.383229  3.950755
  16048.075  16048.110  0.500  0.382786  22.543058  15.373433  3.951168
  16050.782  16050.790  0.500  0.382326  22.529394  15.371182  3.952044
  16053.480  16053.490  0.500  0.382165  22.512214  15.361941  3.952384
  16056.234  16056.210  0.500  0.381704  22.494339  15.356816  3.953106
  16058.956  16058.950  0.500  0.381345  22.475649  15.349568  3.953615
  16061.701  16061.700  0.500  0.380998  22.459183  15.343652  3.954024
  16064.504  16064.480  0.500  0.380528  22.443720  15.340286  3.957285
  16067.251  16067.270  0.500  0.380144  22.430893  15.337413  3.958732
  16070.067  16070.090  0.500  0.379596  22.413337  15.333802  3.960265
  16072.895  16072.920  0.500  0.379160  22.396337  15.328856  3.960912
  16075.769  16075.770  0.500  0.378580  22.333404  15.294660  3.953483
  16078.668  16078.650  0.500  0.378167  22.338133  15.304216  3.958606
  16081.544  16081.540  0.500  0.377744  22.352454  15.320504  3.964279
  16084.490  16084.450  0.500  0.377060  22.326757  15.313361  3.965070
  16087.369  16087.370  0.500  0.376528  22.314833  15.313325  3.966973
  16090.316  16090.320  0.500  0.376277  22.298797  15.306167  3.968579
  16093.277  16093.290  0.500  0.375727  22.278858  15.300898  3.968661
  16096.283  16096.270  0.500  0.375263  22.261942  15.296373  3.969352
  16099.302  16099.280  0.500  0.374808  22.231402  15.282336  3.967957
  16102.323  16102.300  0.500  0.374551  22.219730  15.278236  3.969526
  16105.344  16105.350  0.500  0.373903  22.211849  15.282717  3.973859
