# XDI/1.0 BlueSky/1.10.0 BMM/2023-1.0-py310-tiled
# Beamline.name: BMM (06BM) -- Beamline for Materials Measurement (NIST)
# Beamline.xray_source: NSLS-II three-pole wiggler
# Beamline.collimation: paraboloid mirror, 5 nm Rh on 30 nm Pt
# Beamline.focusing: not in use
# Beamline.harmonic_rejection: flat mirror, Pt stripe, pitch = 7.0 mrad relative to beam
# Beamline.software: Bluesky 1.10.0, Ophyd 1.7.0, DataBroker 2.0.0b13, Python 3.10.8, 2023-1.0-py310-tiled
# Detector.I0: 10 cm N2
# Detector.I1: 25 cm N2
# Detector.I2: 25 cm N2
# Element.symbol: Pb
# Element.edge: L3
# Element.reference: Pb
# Element.reference_material: Pb foil
# Facility.name: NSLS-II
# Facility.energy: 3.0
# Facility.current: 400.9
# Facility.mode: top-off
# Facility.GUP: 301027
# Facility.SAF: 310583
# Facility.cycle: 2023-2
# Mono.name: Si(111)
# Mono.d_spacing: 3.1351860
# Mono.encoder_resolution: 0.0000050 deg/ct
# Mono.angle_offset: 16.0754326 deg
# Mono.scan_mode: pseudo channel cut
# Mono.scan_type: step
# Mono.direction: forward in energy
# Sample.name: PbSO4
# Sample.prep: powder on tape
# Sample.x: 143.785 mm
# Sample.y: 114.695 mm
# Sample.SDD_position: 205.000 mm
# Scan.experimenters: Bruce Ravel
# Scan.edge_energy: 13035.2
# Scan.start_time: 2023-06-23T17:07:19
# Scan.end_time: 2023-06-23T17:15:15
# Scan.transient_id: 84887
# Scan.uid: fadb15ae-21f6-4401-a3e6-e6eb289fed29
# Scan.plot_hint: ln(I0/It)  --  ln($5/$6)
# Column.1: energy eV
# Column.2: requested_energy eV
# Column.3: measurement_time seconds
# Column.4: xmu 
# Column.5: I0 nA
# Column.6: It nA
# Column.7: Ir nA
# ///////////
# BMM standards collection
# -----------
# energy  requested_energy  measurement_time  xmu  I0  It  Ir
  12835.154  12835.200  0.500  -0.056743  50.154528  53.082763  23.785248
  12845.205  12845.200  0.500  -0.058219  50.048828  53.049134  23.811042
  12855.222  12855.200  0.500  -0.059546  49.920871  52.983763  23.821795
  12865.203  12865.200  0.500  -0.060911  49.818080  52.946872  23.844586
  12875.244  12875.200  0.500  -0.062228  49.648534  52.836222  23.834427
  12885.243  12885.200  0.500  -0.063638  49.584447  52.842471  23.877613
  12895.251  12895.200  0.500  -0.064905  49.463667  52.780578  23.886082
  12905.296  12905.200  0.500  -0.066145  49.345106  52.719414  23.896588
  12915.233  12915.200  0.500  -0.067456  48.736813  52.137836  23.668189
  12925.236  12925.200  0.500  -0.068769  49.089723  52.584341  23.911861
  12935.299  12935.200  0.500  -0.070074  48.991517  52.547712  23.927525
  12945.217  12945.200  0.500  -0.071268  48.846294  52.454541  23.916047
  12955.224  12955.200  0.500  -0.072575  48.519291  52.171517  23.818373
  12965.254  12965.200  0.500  -0.073657  48.654030  52.373006  23.937656
  12975.241  12975.200  0.500  -0.074631  48.499637  52.257717  23.902316
  12985.250  12985.200  0.500  -0.075545  48.419242  52.218769  23.892820
  12995.246  12995.200  0.500  -0.076097  48.297680  52.116458  23.840168
  13005.243  13005.200  0.500  -0.076298  48.195594  52.016745  23.754990
  13007.183  13007.200  0.500  -0.076218  48.167453  51.982233  23.726684
  13009.176  13009.200  0.500  -0.076121  48.144987  51.952919  23.696065
  13011.177  13011.200  0.500  -0.075994  48.121161  51.920607  23.655544
  13013.186  13013.200  0.500  -0.075774  48.095773  51.881804  23.612969
  13015.181  13015.200  0.500  -0.075495  48.069920  51.839440  23.560314
  13017.184  13017.200  0.500  -0.075178  48.049090  51.800573  23.499618
  13019.180  13019.200  0.500  -0.074602  48.029452  51.749598  23.423573
  13021.199  13021.200  0.500  -0.074064  48.003145  51.693406  23.334157
  13023.211  13023.200  0.500  -0.073271  47.981215  51.628828  23.222131
  13025.164  13025.200  0.500  -0.072246  47.957709  51.550664  23.075058
  13025.438  13025.500  0.500  -0.072021  47.951665  51.532595  23.048549
  13025.742  13025.800  0.500  -0.071841  47.946993  51.518302  23.022904
  13026.052  13026.100  0.500  -0.071572  47.944949  51.502243  22.992241
  13026.341  13026.400  0.500  -0.071429  47.938119  51.487530  22.961640
  13026.652  13026.700  0.500  -0.071164  47.936449  51.472121  22.926689
  13026.941  13027.000  0.500  -0.071030  47.925897  51.453866  22.897861
  13027.252  13027.300  0.500  -0.070825  47.922671  51.439861  22.864824
  13027.570  13027.600  0.500  -0.070399  47.921844  51.417094  22.822006
  13027.866  13027.900  0.500  -0.070242  47.916758  51.403574  22.788518
  13028.177  13028.200  0.500  -0.069943  47.911496  51.382554  22.746040
  13028.466  13028.500  0.500  -0.069607  47.905480  51.358831  22.705512
  13028.777  13028.800  0.500  -0.069354  47.898113  51.337948  22.659258
  13029.088  13029.100  0.500  -0.069029  47.898185  51.321332  22.609912
  13029.369  13029.400  0.500  -0.068748  47.893059  51.301420  22.565410
  13029.680  13029.700  0.500  -0.068343  47.890453  51.277880  22.509679
  13029.984  13030.000  0.500  -0.068113  47.877476  51.252202  22.454514
  13030.273  13030.300  0.500  -0.067602  47.881568  51.230364  22.395204
  13030.591  13030.600  0.500  -0.067285  47.876361  51.208544  22.325742
  13030.873  13030.900  0.500  -0.066860  47.866869  51.176670  22.259242
  13031.184  13031.200  0.500  -0.066361  47.865871  51.150062  22.181802
  13031.473  13031.500  0.500  -0.065891  47.859584  51.119298  22.102439
  13031.777  13031.800  0.500  -0.065407  47.858828  51.093788  22.019994
  13032.080  13032.100  0.500  -0.064822  47.856372  51.061270  21.925688
  13032.369  13032.400  0.500  -0.064306  47.851583  51.029810  21.828811
  13032.666  13032.700  0.500  -0.063787  47.844866  50.996166  21.718888
  13032.962  13033.000  0.500  -0.063187  47.839571  50.959939  21.606784
  13033.266  13033.300  0.500  -0.062575  47.836692  50.925702  21.476365
  13033.570  13033.600  0.500  -0.061898  47.830177  50.884338  21.342132
  13033.874  13033.900  0.500  -0.061036  47.828346  50.838520  21.199377
  13034.185  13034.200  0.500  -0.060175  47.821534  50.787553  21.038955
  13034.474  13034.500  0.500  -0.059441  47.818947  50.747518  20.885290
  13034.785  13034.800  0.500  -0.058352  47.818023  50.691294  20.704723
  13035.074  13035.100  0.500  -0.057582  47.811903  50.645793  20.538408
  13035.393  13035.400  0.500  -0.056560  47.807512  50.589460  20.345164
  13035.689  13035.700  0.500  -0.055483  47.806092  50.533466  20.160808
  13035.993  13036.000  0.500  -0.054353  47.800364  50.470351  19.956396
  13036.297  13036.300  0.500  -0.053077  47.795831  50.401209  19.757094
  13036.594  13036.600  0.500  -0.051829  47.794107  50.336553  19.554431
  13036.898  13036.900  0.500  -0.050563  47.785201  50.263476  19.349073
  13037.194  13037.200  0.500  -0.049049  47.781725  50.183782  19.134787
  13037.498  13037.500  0.500  -0.047380  47.781306  50.099659  18.919006
  13037.802  13037.800  0.500  -0.045692  47.774113  50.007654  18.706380
  13038.092  13038.100  0.500  -0.043829  47.769970  49.910216  18.493937
  13038.411  13038.400  0.500  -0.041895  47.765721  49.809358  18.269559
  13038.700  13038.700  0.500  -0.039874  47.762746  49.705706  18.050640
  13038.996  13039.000  0.500  -0.037676  47.755611  49.589171  17.827259
  13039.278  13039.300  0.500  -0.035278  47.753559  49.468286  17.605562
  13039.582  13039.600  0.500  -0.032615  47.745525  49.328440  17.348611
  13039.879  13039.900  0.500  -0.029815  47.743867  49.188798  17.112388
  13040.191  13040.200  0.500  -0.026556  47.741356  49.026146  16.844497
  13040.487  13040.500  0.500  -0.023403  47.734985  48.865314  16.586500
  13040.792  13040.800  0.500  -0.019647  47.728010  48.674989  16.292483
  13041.096  13041.100  0.500  -0.015674  47.728014  48.482017  16.013321
  13041.392  13041.400  0.500  -0.011436  47.723357  48.272236  15.718353
  13041.704  13041.700  0.500  -0.006488  47.724250  48.034876  15.401135
  13041.993  13042.000  0.500  -0.001415  47.717521  47.785083  15.098804
  13042.298  13042.300  0.500  0.004239  47.712471  47.510661  14.781441
  13042.595  13042.600  0.500  0.010265  47.710920  47.223670  14.466247
  13042.914  13042.900  0.500  0.017166  47.704713  46.892804  14.139929
  13043.196  13043.200  0.500  0.024013  47.701403  46.569609  13.838601
  13043.515  13043.500  0.500  0.031861  47.698255  46.202484  13.519148
  13043.812  13043.800  0.500  0.040468  47.692821  45.801318  13.198207
  13044.094  13044.100  0.500  0.048666  47.685970  45.420869  12.913572
  13044.398  13044.400  0.500  0.058240  47.681928  44.984268  12.609614
  13044.680  13044.700  0.500  0.067571  47.679375  44.564066  12.330733
  13044.992  13045.000  0.500  0.077690  47.676289  44.112532  12.047489
  13045.296  13045.300  0.500  0.087850  47.667259  43.658357  11.775407
  13045.578  13045.600  0.500  0.098040  47.665581  43.214206  11.522334
  13045.898  13045.900  0.500  0.109405  47.660158  42.721014  11.249613
  13046.187  13046.200  0.500  0.119522  47.658735  42.289729  11.020180
  13046.499  13046.500  0.500  0.130436  47.649602  41.822658  10.779394
  13046.796  13046.800  0.500  0.140373  47.644164  41.404380  10.570408
  13047.086  13047.100  0.500  0.150512  47.634960  40.978808  10.365719
  13047.412  13047.400  0.500  0.160645  47.625665  40.557755  10.166901
  13047.695  13047.700  0.500  0.169319  47.603349  40.188636  10.000492
  13048.007  13048.000  0.500  0.178226  47.587321  39.818848  9.836166
  13048.311  13048.300  0.500  0.186042  47.568174  39.492926  9.699281
  13048.616  13048.600  0.500  0.192970  47.555847  39.210114  9.581664
  13048.920  13048.900  0.500  0.199447  47.540452  38.944345  9.472729
  13049.210  13049.200  0.500  0.204975  47.535733  38.725809  9.388377
  13049.514  13049.500  0.500  0.209925  47.528830  38.529014  9.314144
  13049.797  13049.800  0.500  0.213983  47.534590  38.377637  9.260189
  13050.109  13050.100  0.500  0.217557  47.539261  38.244469  9.212781
  13050.391  13050.400  0.500  0.220205  47.550829  38.152612  9.183213
  13050.703  13050.700  0.500  0.222685  47.564388  38.068955  9.158710
  13050.978  13051.000  0.500  0.224203  47.565157  38.011842  9.144641
  13051.298  13051.300  0.500  0.225722  47.570865  37.958688  9.132391
  13051.587  13051.600  0.500  0.226463  47.567665  37.928010  9.129402
  13051.892  13051.900  0.500  0.226949  47.567292  37.909303  9.128921
  13052.175  13052.200  0.500  0.227105  47.566145  37.902474  9.131644
  13052.494  13052.500  0.500  0.227246  47.562727  37.894401  9.137516
  13052.791  13052.800  0.500  0.227034  47.557387  37.898169  9.143846
  13053.096  13053.100  0.500  0.226706  47.553818  37.907760  9.151788
  13053.401  13053.400  0.500  0.226286  47.549894  37.920557  9.158180
  13053.706  13053.700  0.500  0.225731  47.543922  37.936858  9.165134
  13054.003  13054.000  0.500  0.225306  47.544735  37.953619  9.170023
  13054.293  13054.300  0.500  0.224777  47.541202  37.970898  9.172347
  13054.613  13054.600  0.500  0.224204  47.535087  37.987746  9.176189
  13054.903  13054.900  0.500  0.223344  47.527619  38.014475  9.176001
  13055.215  13055.200  0.500  0.222634  47.526996  38.040987  9.175546
  13055.505  13055.500  0.500  0.221770  47.519499  38.067864  9.173076
  13055.832  13055.800  0.500  0.220672  47.514165  38.105412  9.169507
  13056.107  13056.100  0.500  0.219747  47.511669  38.138672  9.165162
  13056.397  13056.400  0.500  0.218355  47.506062  38.187274  9.160100
  13056.695  13056.700  0.500  0.216981  47.499088  38.234153  9.154676
  13057.000  13057.000  0.500  0.215404  47.505356  38.299563  9.147968
  13057.297  13057.300  0.500  0.213687  47.564883  38.413456  9.154203
  13057.587  13057.600  0.500  0.211629  47.564688  38.492422  9.144047
  13057.877  13057.900  0.500  0.209662  47.558620  38.563301  9.130830
  13058.182  13058.200  0.500  0.207500  47.553970  38.642987  9.118313
  13058.480  13058.500  0.500  0.205275  47.547524  38.723815  9.102353
  13058.800  13058.800  0.500  0.202909  47.543085  38.811906  9.086422
  13059.090  13059.100  0.500  0.200645  47.543069  38.899865  9.068190
  13059.395  13059.400  0.500  0.198138  47.537011  38.992551  9.046266
  13059.700  13059.700  0.500  0.195899  47.536686  39.079675  9.026041
  13060.005  13060.000  0.500  0.193617  47.527232  39.161193  9.001038
  13060.213  13060.200  0.500  0.192053  47.524536  39.220244  8.986044
  13061.218  13061.190  0.500  0.185979  47.506953  39.444581  8.911243
  13062.215  13062.190  0.500  0.181798  47.497506  39.601989  8.846148
  13063.243  13063.210  0.500  0.180127  47.489920  39.661889  8.803364
  13064.255  13064.260  0.500  0.180249  47.468785  39.639373  8.785313
  13065.320  13065.320  0.500  0.182229  47.462902  39.556096  8.784325
  13066.430  13066.400  0.500  0.184782  47.446557  39.441634  8.795549
  13067.510  13067.500  0.500  0.187790  47.436295  39.314661  8.817534
  13068.642  13068.620  0.500  0.190266  47.421539  39.205253  8.843727
  13069.790  13069.760  0.500  0.192160  47.405369  39.117715  8.865503
  13070.923  13070.910  0.500  0.193144  47.357829  39.040066  8.871793
  13072.108  13072.090  0.500  0.193515  47.306930  38.983618  8.864912
  13073.286  13073.280  0.500  0.193686  47.311155  38.980430  8.860799
  13074.516  13074.500  0.500  0.194249  47.334190  38.977473  8.853523
  13075.747  13075.730  0.500  0.195767  47.331425  38.916070  8.837310
  13077.022  13076.980  0.500  0.197946  47.301820  38.807094  8.812252
  13078.276  13078.250  0.500  0.200789  47.289432  38.686767  8.781151
  13079.545  13079.540  0.500  0.204284  47.285895  38.548927  8.739496
  13080.851  13080.850  0.500  0.207721  47.272567  38.405821  8.686365
  13082.217  13082.180  0.500  0.211019  47.251908  38.262658  8.622811
  13083.561  13083.530  0.500  0.213356  47.237513  38.161701  8.560879
  13084.928  13084.900  0.500  0.214438  47.224579  38.109981  8.505447
  13086.295  13086.280  0.500  0.214257  47.208678  38.104074  8.467493
  13087.685  13087.690  0.500  0.213135  47.187130  38.129409  8.443111
  13089.112  13089.110  0.500  0.211387  47.171338  38.183365  8.442271
  13090.570  13090.550  0.500  0.209259  47.155315  38.251702  8.464181
  13092.043  13092.010  0.500  0.207107  47.113461  38.300055  8.494622
  13093.509  13093.490  0.500  0.205273  47.050451  38.319058  8.527023
  13094.997  13094.990  0.500  0.203850  47.064769  38.385316  8.571302
  13096.539  13096.510  0.500  0.203013  47.081436  38.431045  8.607684
  13098.066  13098.050  0.500  0.202430  47.061934  38.437533  8.630325
  13099.645  13099.610  0.500  0.201953  47.048149  38.444603  8.652007
  13101.172  13101.180  0.500  0.201396  47.023877  38.446175  8.669679
  13102.768  13102.780  0.500  0.200850  46.990080  38.439542  8.685752
  13104.408  13104.390  0.500  0.200097  46.974737  38.455919  8.700410
  13106.072  13106.030  0.500  0.199189  46.914749  38.441709  8.706381
  13107.698  13107.680  0.500  0.197946  46.931405  38.503200  8.719555
  13109.355  13109.350  0.500  0.196779  46.935852  38.551815  8.724105
  13111.027  13111.040  0.500  0.195439  46.913989  38.585518  8.719385
  13112.752  13112.750  0.500  0.194353  46.892320  38.609585  8.710965
  13114.501  13114.480  0.500  0.193441  46.873732  38.629518  8.695237
  13116.234  13116.230  0.500  0.192905  46.837210  38.620116  8.675595
  13117.976  13117.990  0.500  0.192694  46.758395  38.563266  8.652710
  13119.763  13119.780  0.500  0.192658  46.792948  38.593134  8.653892
  13121.603  13121.580  0.500  0.193223  46.789007  38.568081  8.648849
  13123.429  13123.410  0.500  0.193972  46.770262  38.523769  8.648186
  13125.255  13125.250  0.500  0.194895  46.735364  38.459533  8.647837
  13127.104  13127.110  0.500  0.195798  46.715104  38.408144  8.652264
  13128.984  13128.990  0.500  0.196882  46.701116  38.355029  8.657877
  13130.902  13130.890  0.500  0.197961  46.672437  38.290149  8.660332
  13132.813  13132.810  0.500  0.198903  46.629254  38.218726  8.657101
  13134.740  13134.750  0.500  0.199601  46.633324  38.195366  8.658965
  13136.712  13136.710  0.500  0.199698  46.608600  38.171411  8.659747
  13138.723  13138.680  0.500  0.199600  46.587608  38.157966  8.662200
  13140.667  13140.680  0.500  0.199309  46.562517  38.148506  8.664400
  13142.686  13142.690  0.500  0.198527  46.540633  38.160430  8.668468
  13144.691  13144.720  0.500  0.197497  46.512268  38.176444  8.675011
  13146.757  13146.780  0.500  0.196089  46.489578  38.211614  8.684755
  13148.831  13148.850  0.500  0.194736  46.471523  38.248490  8.696571
  13150.914  13150.940  0.500  0.193125  46.436146  38.280993  8.703662
  13153.035  13153.050  0.500  0.192026  46.400923  38.294015  8.710639
  13155.171  13155.180  0.500  0.190999  46.392173  38.326132  8.718693
  13157.497  13157.320  0.500  0.190180  46.354505  38.326383  8.720428
  13159.431  13159.490  0.500  0.189867  46.336316  38.323330  8.721635
  13161.729  13161.680  0.500  0.189706  46.308503  38.306505  8.722347
  13164.012  13163.880  0.500  0.189515  46.273132  38.284536  8.721755
  13166.273  13166.100  0.500  0.189255  46.247315  38.273127  8.725039
  13168.422  13168.350  0.500  0.188954  46.173467  38.223516  8.719628
  13170.601  13170.610  0.500  0.188732  46.188581  38.244527  8.729830
  13172.880  13172.890  0.500  0.188519  46.176831  38.242948  8.733165
  13175.189  13175.190  0.500  0.188329  46.150123  38.228094  8.733325
  13177.508  13177.510  0.500  0.187991  46.118298  38.214634  8.735083
  13179.827  13179.850  0.500  0.187881  46.089831  38.195273  8.734362
  13182.177  13182.200  0.500  0.187748  46.064800  38.179595  8.735561
  13184.581  13184.580  0.500  0.187596  46.032990  38.159031  8.735654
  13186.986  13186.970  0.500  0.187556  46.007195  38.139167  8.736285
  13189.399  13189.390  0.500  0.187205  45.979741  38.129780  8.739203
  13191.821  13191.820  0.500  0.186987  45.951823  38.114945  8.741807
  13194.244  13194.270  0.500  0.186543  45.919816  38.105314  8.748329
  13196.736  13196.750  0.500  0.185999  45.888926  38.100417  8.754100
  13199.259  13199.240  0.500  0.185648  45.864113  38.093162  8.759567
  13201.769  13201.750  0.500  0.185061  45.828340  38.085808  8.764660
  13204.279  13204.270  0.500  0.184664  45.797897  38.075637  8.768824
  13206.805  13206.820  0.500  0.184527  45.776690  38.063192  8.772101
  13209.371  13209.390  0.500  0.184073  45.741632  38.051335  8.774833
  13211.952  13211.970  0.500  0.183654  45.709159  38.040232  8.776961
  13214.588  13214.580  0.500  0.183311  45.675800  38.025536  8.779388
  13217.210  13217.200  0.500  0.182806  45.642377  38.016904  8.781705
  13219.856  13219.850  0.500  0.182254  45.606171  38.007694  8.781392
  13222.503  13222.510  0.500  0.181825  45.577872  38.000441  8.779993
  13225.174  13225.190  0.500  0.181441  45.528083  37.973500  8.777019
  13227.899  13227.890  0.500  0.180988  45.503245  37.969978  8.778933
  13230.610  13230.610  0.500  0.180763  45.486527  37.964547  8.779701
  13233.369  13233.350  0.500  0.180235  45.453454  37.957012  8.780831
  13236.105  13236.100  0.500  0.179808  45.415721  37.941673  8.780555
  13238.866  13238.880  0.500  0.179356  45.374091  37.924036  8.780427
  13241.650  13241.670  0.500  0.178876  45.339899  37.913665  8.783452
  13244.490  13244.490  0.500  0.178454  45.304213  37.899788  8.783815
  13247.330  13247.320  0.500  0.178082  45.266744  37.882552  8.787172
  13250.165  13250.170  0.500  0.177709  45.225296  37.861992  8.787571
  13253.038  13253.050  0.500  0.177464  45.186856  37.839076  8.788590
  13255.929  13255.940  0.500  0.177090  45.140815  37.814659  8.790441
  13258.843  13258.850  0.500  0.176828  45.094101  37.785411  8.790805
  13261.752  13261.770  0.500  0.176532  45.042535  37.753385  8.787524
  13264.715  13264.720  0.500  0.176072  44.977506  37.716217  8.783754
  13267.680  13267.690  0.500  0.175821  44.889418  37.651818  8.774325
  13270.669  13270.670  0.500  0.175395  44.743726  37.545587  8.752523
