# XDI/1.0 BlueSky/1.10.0 BMM/2023-1.0-py310-tiled
# Beamline.name: BMM (06BM) -- Beamline for Materials Measurement (NIST)
# Beamline.xray_source: NSLS-II three-pole wiggler
# Beamline.collimation: paraboloid mirror, 5 nm Rh on 30 nm Pt
# Beamline.focusing: not in use
# Beamline.harmonic_rejection: flat mirror, Pt stripe, pitch = 7.0 mrad relative to beam
# Beamline.software: Bluesky 1.10.0, Ophyd 1.7.0, DataBroker 2.0.0b13, Python 3.10.8, 2023-1.0-py310-tiled
# Detector.I0: 10 cm N2
# Detector.I1: 25 cm N2
# Detector.I2: 25 cm N2
# Element.symbol: Pb
# Element.edge: L3
# Element.reference: Pb
# Element.reference_material: Pb foil
# Facility.name: NSLS-II
# Facility.energy: 3.0
# Facility.current: 400.0
# Facility.mode: top-off
# Facility.GUP: 301027
# Facility.SAF: 310583
# Facility.cycle: 2023-2
# Mono.name: Si(111)
# Mono.d_spacing: 3.1351860
# Mono.encoder_resolution: 0.0000050 deg/ct
# Mono.angle_offset: 16.0754326 deg
# Mono.scan_mode: pseudo channel cut
# Mono.scan_type: step
# Mono.direction: forward in energy
# Sample.name: PbCl
# Sample.prep: powder on tape
# Sample.x: 143.785 mm
# Sample.y: 114.695 mm
# Sample.SDD_position: 205.000 mm
# Scan.experimenters: Bruce Ravel
# Scan.edge_energy: 13035.2
# Scan.start_time: 2023-06-23T17:24:11
# Scan.end_time: 2023-06-23T17:32:24
# Scan.transient_id: 84897
# Scan.uid: 2970ed40-5b97-41c4-97c5-dec35ca7609c
# Scan.plot_hint: ln(I0/It)  --  ln($5/$6)
# Column.1: energy eV
# Column.2: requested_energy eV
# Column.3: measurement_time seconds
# Column.4: xmu 
# Column.5: I0 nA
# Column.6: It nA
# Column.7: Ir nA
# ///////////
# BMM standards collection
# -----------
# energy  requested_energy  measurement_time  xmu  I0  It  Ir
  12835.140  12835.200  0.500  1.837757  49.979383  7.955424  3.557091
  12845.219  12845.200  0.500  1.832241  49.878921  7.983345  3.574674
  12855.236  12855.200  0.500  1.826826  49.752887  8.006408  3.589910
  12865.225  12865.200  0.500  1.821386  49.651308  8.033648  3.609035
  12875.230  12875.200  0.500  1.816281  49.487215  8.048080  3.621629
  12885.243  12885.200  0.500  1.811082  49.421121  8.079221  3.641531
  12895.251  12895.200  0.500  1.805827  49.296538  8.101318  3.659335
  12905.259  12905.200  0.500  1.800756  49.179925  8.123246  3.672675
  12915.298  12915.200  0.500  1.795838  48.582005  8.064046  3.651339
  12925.214  12925.200  0.500  1.791495  48.931964  8.157483  3.700065
  12935.234  12935.200  0.500  1.786915  48.841715  8.179819  3.716756
  12945.269  12945.200  0.500  1.782334  48.694845  8.192662  3.726451
  12955.261  12955.200  0.500  1.778161  48.372427  8.172455  3.722211
  12965.247  12965.200  0.500  1.774691  48.513024  8.224696  3.749476
  12975.292  12975.200  0.500  1.771842  48.361199  8.222352  3.751843
  12985.169  12985.200  0.500  1.769704  48.273072  8.224931  3.753252
  12995.172  12995.200  0.500  1.769879  48.146456  8.201926  3.742928
  13005.191  13005.200  0.500  1.773747  48.050276  8.153941  3.714480
  13007.154  13007.200  0.500  1.775166  48.029205  8.138800  3.706470
  13009.139  13009.200  0.500  1.776752  48.004250  8.121682  3.694775
  13011.155  13011.200  0.500  1.779028  47.977485  8.098706  3.680319
  13013.149  13013.200  0.500  1.781935  47.957209  8.071779  3.664665
  13015.151  13015.200  0.500  1.785085  47.925515  8.041074  3.645613
  13017.147  13017.200  0.500  1.789061  47.906776  8.006035  3.623118
  13019.143  13019.200  0.500  1.794144  47.885892  7.961977  3.594089
  13021.162  13021.200  0.500  1.800342  47.857257  7.908048  3.561702
  13023.137  13023.200  0.500  1.808039  47.836380  7.843985  3.520093
  13025.150  13025.200  0.500  1.818045  47.811201  7.761808  3.465830
  13025.431  13025.500  0.500  1.819786  47.804010  7.747137  3.456213
  13025.719  13025.800  0.500  1.821734  47.807463  7.732621  3.446758
  13026.038  13026.100  0.500  1.823703  47.799031  7.716046  3.436466
  13026.334  13026.400  0.500  1.825593  47.790932  7.700175  3.425004
  13026.637  13026.700  0.500  1.827589  47.791304  7.684882  3.414975
  13026.956  13027.000  0.500  1.829953  47.785221  7.665756  3.403124
  13027.237  13027.300  0.500  1.831886  47.778635  7.649896  3.391687
  13027.555  13027.600  0.500  1.834309  47.774595  7.630743  3.378862
  13027.859  13027.900  0.500  1.836641  47.769060  7.612084  3.366323
  13028.148  13028.200  0.500  1.839147  47.766809  7.592676  3.351789
  13028.451  13028.500  0.500  1.841903  47.761589  7.570952  3.338380
  13028.755  13028.800  0.500  1.844598  47.759371  7.550223  3.324633
  13029.066  13029.100  0.500  1.847683  47.757291  7.526637  3.308478
  13029.355  13029.400  0.500  1.850501  47.750943  7.504464  3.293481
  13029.651  13029.700  0.500  1.853880  47.744511  7.478137  3.275593
  13029.947  13030.000  0.500  1.857223  47.744163  7.453125  3.257957
  13030.251  13030.300  0.500  1.860843  47.737987  7.425238  3.237352
  13030.562  13030.600  0.500  1.864517  47.734511  7.397465  3.219052
  13030.851  13030.900  0.500  1.868362  47.728097  7.368089  3.198546
  13031.162  13031.200  0.500  1.872844  47.728354  7.335180  3.174792
  13031.451  13031.500  0.500  1.877200  47.718546  7.301798  3.150795
  13031.777  13031.800  0.500  1.882276  47.714446  7.264197  3.123636
  13032.058  13032.100  0.500  1.887055  47.711904  7.229183  3.097661
  13032.369  13032.400  0.500  1.892971  47.709934  7.186244  3.067107
  13032.658  13032.700  0.500  1.898418  47.704403  7.146381  3.037374
  13032.984  13033.000  0.500  1.904813  47.695429  7.099490  3.001374
  13033.288  13033.300  0.500  1.911703  47.697076  7.050981  2.967491
  13033.584  13033.600  0.500  1.918772  47.686798  6.999807  2.930264
  13033.866  13033.900  0.500  1.925344  47.686098  6.953851  2.894446
  13034.192  13034.200  0.500  1.933972  47.684963  6.893948  2.849113
  13034.474  13034.500  0.500  1.942075  47.681359  6.837799  2.809337
  13034.785  13034.800  0.500  1.951082  47.673187  6.775325  2.763053
  13035.096  13035.100  0.500  1.960609  47.673158  6.711077  2.716536
  13035.393  13035.400  0.500  1.971038  47.665573  6.640392  2.666652
  13035.689  13035.700  0.500  1.981528  47.666521  6.571231  2.617941
  13035.979  13036.000  0.500  1.993251  47.659264  6.493655  2.566166
  13036.290  13036.300  0.500  2.005658  47.655642  6.413099  2.512243
  13036.594  13036.600  0.500  2.019452  47.647039  6.324102  2.453252
  13036.876  13036.900  0.500  2.032813  47.646698  6.240128  2.400162
  13037.180  13037.200  0.500  2.048414  47.640689  6.142752  2.340421
  13037.469  13037.500  0.500  2.064266  47.639872  6.046045  2.283303
  13037.788  13037.800  0.500  2.083188  47.634705  5.932071  2.217147
  13038.077  13038.100  0.500  2.100655  47.628999  5.828661  2.158546
  13038.396  13038.400  0.500  2.122305  47.629145  5.703843  2.089457
  13038.692  13038.700  0.500  2.143917  47.625034  5.581413  2.026644
  13038.989  13039.000  0.500  2.168305  47.617946  5.446130  1.954793
  13039.286  13039.300  0.500  2.193326  47.615340  5.311261  1.886818
  13039.597  13039.600  0.500  2.220382  47.611115  5.169025  1.816160
  13039.916  13039.900  0.500  2.250925  47.608070  5.013215  1.739771
  13040.191  13040.200  0.500  2.281173  47.603610  4.863387  1.668969
  13040.532  13040.500  0.500  2.318110  47.595066  4.686188  1.587648
  13040.799  13040.800  0.500  2.353028  47.591689  4.525058  1.513920
  13041.111  13041.100  0.500  2.394373  47.587561  4.341408  1.431985
  13041.407  13041.400  0.500  2.436933  47.582599  4.160080  1.354042
  13041.711  13041.700  0.500  2.483312  47.578047  3.971166  1.273136
  13042.001  13042.000  0.500  2.532325  47.576497  3.781096  1.195535
  13042.305  13042.300  0.500  2.585501  47.568972  3.584718  1.115505
  13042.587  13042.600  0.500  2.639548  47.568100  3.396055  1.041748
  13042.884  13042.900  0.500  2.696877  47.563630  3.206536  0.968907
  13043.196  13043.200  0.500  2.760312  47.559497  3.009185  0.894587
  13043.493  13043.500  0.500  2.822309  47.556803  2.828130  0.828328
  13043.789  13043.800  0.500  2.886268  47.548892  2.652467  0.765391
  13044.079  13044.100  0.500  2.950245  47.547397  2.488008  0.707809
  13044.405  13044.400  0.500  3.018089  47.541939  2.324544  0.651082
  13044.688  13044.700  0.500  3.078577  47.535675  2.187815  0.604021
  13044.992  13045.000  0.500  3.138942  47.536374  2.059685  0.561367
  13045.296  13045.300  0.500  3.192873  47.529243  1.951254  0.525074
  13045.601  13045.600  0.500  3.248385  47.527055  1.845802  0.490321
  13045.890  13045.900  0.500  3.294009  47.519257  1.763193  0.462846
  13046.209  13046.200  0.500  3.339021  47.515431  1.685451  0.437299
  13046.499  13046.500  0.500  3.377920  47.509537  1.620948  0.415919
  13046.804  13046.800  0.500  3.414733  47.507948  1.562307  0.397058
  13047.101  13047.100  0.500  3.448390  47.498056  1.510285  0.380550
  13047.405  13047.400  0.500  3.480576  47.488608  1.462159  0.364877
  13047.710  13047.700  0.500  3.511480  47.466218  1.416995  0.350280
  13048.007  13048.000  0.500  3.539703  47.454788  1.377230  0.338131
  13048.296  13048.300  0.500  3.566328  47.436000  1.340515  0.327270
  13048.593  13048.600  0.500  3.591892  47.417544  1.306171  0.317301
  13048.898  13048.900  0.500  3.617945  47.403792  1.272212  0.307482
  13049.180  13049.200  0.500  3.639076  47.396933  1.245431  0.300163
  13049.500  13049.500  0.500  3.661556  47.393552  1.217659  0.292107
  13049.782  13049.800  0.500  3.681142  47.396008  1.194104  0.285964
  13050.094  13050.100  0.500  3.701339  47.400048  1.170329  0.280052
  13050.376  13050.400  0.500  3.717987  47.412970  1.151319  0.275029
  13050.711  13050.700  0.500  3.734896  47.602941  1.136551  0.270957
  13051.000  13051.000  0.500  3.749172  47.609560  1.120597  0.267610
  13051.305  13051.300  0.500  3.762581  47.614129  1.105778  0.263925
  13051.602  13051.600  0.500  3.773626  47.613101  1.093607  0.260971
  13051.907  13051.900  0.500  3.784242  47.611877  1.082031  0.258695
  13052.204  13052.200  0.500  3.792227  47.611686  1.073421  0.256558
  13052.509  13052.500  0.500  3.799443  47.608249  1.065626  0.255387
  13052.814  13052.800  0.500  3.805479  47.605356  1.059149  0.253465
  13053.111  13053.100  0.500  3.808755  47.599596  1.055558  0.252611
  13053.408  13053.400  0.500  3.812383  47.594880  1.051631  0.252322
  13053.706  13053.700  0.500  3.815258  47.591572  1.048539  0.251437
  13053.996  13054.000  0.500  3.816113  47.581633  1.047424  0.251320
  13054.300  13054.300  0.500  3.816927  47.582467  1.046590  0.251223
  13054.613  13054.600  0.500  3.817242  47.578051  1.046163  0.250977
  13054.903  13054.900  0.500  3.817291  47.573653  1.046016  0.250696
  13055.200  13055.200  0.500  3.817087  47.571455  1.046180  0.250774
  13055.490  13055.500  0.500  3.816669  47.566342  1.046505  0.250453
  13055.795  13055.800  0.500  3.816230  47.564574  1.046926  0.250041
  13056.092  13056.100  0.500  3.816424  47.557145  1.046560  0.250153
  13056.382  13056.400  0.500  3.815969  47.551642  1.046914  0.249633
  13056.680  13056.700  0.500  3.815806  47.547955  1.047004  0.249008
  13057.000  13057.000  0.500  3.816071  47.539516  1.046541  0.248397
  13057.290  13057.300  0.500  3.816760  47.541007  1.045853  0.247494
  13057.602  13057.600  0.500  3.817097  47.537780  1.045429  0.246566
  13057.885  13057.900  0.500  3.817886  47.531966  1.044478  0.245723
  13058.197  13058.200  0.500  3.818803  47.525834  1.043385  0.244410
  13058.502  13058.500  0.500  3.819535  47.522515  1.042549  0.243527
  13058.800  13058.800  0.500  3.820354  47.519430  1.041628  0.242218
  13059.090  13059.100  0.500  3.821733  47.515009  1.040095  0.240854
  13059.410  13059.400  0.500  3.822574  47.510667  1.039126  0.239557
  13059.707  13059.700  0.500  3.823453  47.502204  1.038028  0.238060
  13060.005  13060.000  0.500  3.823921  47.501474  1.037527  0.236907
  13060.213  13060.200  0.500  3.824742  47.498799  1.036617  0.235657
  13061.211  13061.190  0.500  3.826413  47.479696  1.034470  0.232148
  13062.208  13062.190  0.500  3.826730  47.475638  1.034054  0.229299
  13063.213  13063.210  0.500  3.825509  47.462622  1.035033  0.228271
  13064.270  13064.260  0.500  3.823605  47.450898  1.036750  0.228127
  13065.335  13065.320  0.500  3.819964  47.439880  1.040290  0.229191
  13066.445  13066.400  0.500  3.816021  47.423022  1.044028  0.231187
  13067.525  13067.500  0.500  3.811332  47.410007  1.048647  0.233573
  13068.627  13068.620  0.500  3.806113  47.392057  1.053735  0.236043
  13069.753  13069.760  0.500  3.798912  47.377897  1.061034  0.238857
  13070.923  13070.910  0.500  3.790250  47.340771  1.069426  0.241625
  13072.115  13072.090  0.500  3.784013  47.284838  1.074845  0.242883
  13073.316  13073.280  0.500  3.780893  47.286807  1.078249  0.243535
  13074.524  13074.500  0.500  3.782170  47.314563  1.077505  0.243071
  13075.739  13075.730  0.500  3.787612  47.308124  1.071512  0.241524
  13076.985  13076.980  0.500  3.796431  47.281205  1.061499  0.239246
  13078.261  13078.250  0.500  3.807138  47.271489  1.049978  0.236776
  13079.567  13079.540  0.500  3.817754  47.267128  1.038794  0.233650
  13080.873  13080.850  0.500  3.829005  47.250631  1.026815  0.230844
  13082.210  13082.180  0.500  3.838937  47.235484  1.016340  0.227186
  13083.569  13083.530  0.500  3.850364  47.217331  1.004406  0.223949
  13084.906  13084.900  0.500  3.861032  47.199994  0.993384  0.220139
  13086.280  13086.280  0.500  3.872750  47.189988  0.981603  0.216544
  13087.685  13087.690  0.500  3.882449  47.167730  0.971670  0.213587
  13089.127  13089.110  0.500  3.892117  47.157375  0.962110  0.211235
  13090.563  13090.550  0.500  3.898145  47.134764  0.955869  0.209670
  13092.021  13092.010  0.500  3.901283  47.103179  0.952236  0.209685
  13093.471  13093.490  0.500  3.899712  47.031335  0.952278  0.210389
  13094.997  13094.990  0.500  3.896128  47.046426  0.956005  0.211802
  13096.539  13096.510  0.500  3.888359  47.067468  0.963891  0.214421
  13098.080  13098.050  0.500  3.877638  47.047434  0.973865  0.216858
  13099.615  13099.610  0.500  3.865819  47.029384  0.985066  0.220182
  13101.187  13101.180  0.500  3.852764  47.010031  0.997600  0.223395
  13102.783  13102.780  0.500  3.839748  46.979331  1.010009  0.226701
  13104.401  13104.390  0.500  3.827027  46.963188  1.022588  0.230002
  13106.057  13106.030  0.500  3.815002  46.904053  1.033657  0.232870
  13107.706  13107.680  0.500  3.805202  46.921607  1.044226  0.234765
  13109.340  13109.350  0.500  3.799753  46.920116  1.049899  0.236008
  13111.057  13111.040  0.500  3.796543  46.903904  1.052910  0.236510
  13112.775  13112.750  0.500  3.795472  46.884388  1.053600  0.236006
  13114.501  13114.480  0.500  3.796284  46.864795  1.052305  0.235156
  13116.234  13116.230  0.500  3.798299  46.824181  1.049277  0.234365
  13118.013  13117.990  0.500  3.800972  46.747436  1.044761  0.232902
  13119.800  13119.780  0.500  3.804923  46.785916  1.041497  0.232014
  13121.588  13121.580  0.500  3.809155  46.779062  1.036947  0.231020
  13123.429  13123.410  0.500  3.814419  46.759535  1.031072  0.229959
  13125.225  13125.250  0.500  3.819926  46.729714  1.024756  0.228698
  13127.127  13127.110  0.500  3.826003  46.713888  1.018202  0.227760
  13129.007  13128.990  0.500  3.831085  46.697126  1.012678  0.226950
  13130.910  13130.890  0.500  3.835382  46.670442  1.007759  0.226381
  13132.813  13132.810  0.500  3.838882  46.624787  1.003256  0.225498
  13134.740  13134.750  0.500  3.840921  46.623158  1.001177  0.225440
  13136.705  13136.710  0.500  3.840798  46.606564  1.000944  0.225425
  13138.693  13138.680  0.500  3.838763  46.580374  1.002419  0.226057
  13140.674  13140.680  0.500  3.835431  46.562601  1.005381  0.226712
  13142.664  13142.690  0.500  3.830184  46.534336  1.010057  0.228071
  13144.729  13144.720  0.500  3.823457  46.514178  1.016433  0.229236
  13146.787  13146.780  0.500  3.816696  46.488115  1.022756  0.230856
  13148.854  13148.850  0.500  3.811491  46.465191  1.027586  0.232018
  13150.936  13150.940  0.500  3.806691  46.435948  1.031881  0.233059
  13153.065  13153.050  0.500  3.802302  46.400867  1.035636  0.233981
  13155.186  13155.180  0.500  3.798828  46.388317  1.038960  0.234460
  13157.308  13157.320  0.500  3.795478  46.370810  1.042052  0.235240
  13159.484  13159.490  0.500  3.792092  46.343498  1.044971  0.236072
  13161.698  13161.680  0.500  3.789382  46.316647  1.047200  0.236907
  13163.861  13163.880  0.500  3.785977  46.290866  1.050186  0.237655
  13166.054  13166.100  0.500  3.783899  46.263031  1.051738  0.238070
  13168.308  13168.350  0.500  3.781865  46.196144  1.052356  0.238383
  13170.571  13170.610  0.500  3.781472  46.201342  1.052888  0.238836
  13172.857  13172.890  0.500  3.781348  46.188043  1.052715  0.238889
  13175.258  13175.190  0.500  3.782311  46.159291  1.051047  0.238505
  13177.432  13177.510  0.500  3.783003  46.132944  1.049721  0.238128
  13179.917  13179.850  0.500  3.783812  46.096690  1.048048  0.238060
  13182.313  13182.200  0.500  3.784616  46.067059  1.046532  0.237693
  13184.748  13184.580  0.500  3.785351  46.039520  1.045138  0.237967
  13187.077  13186.970  0.500  3.784334  46.010308  1.045538  0.237946
  13189.399  13189.390  0.500  3.783337  45.977560  1.045836  0.237897
  13191.775  13191.820  0.500  3.782461  45.954356  1.046225  0.238256
  13194.236  13194.270  0.500  3.781007  45.929022  1.047169  0.238842
  13196.713  13196.750  0.500  3.778619  45.903792  1.049096  0.239340
  13199.199  13199.240  0.500  3.776654  45.870476  1.050396  0.240011
  13201.723  13201.750  0.500  3.774702  45.836410  1.051668  0.240542
  13204.241  13204.270  0.500  3.772763  45.810922  1.053122  0.241029
  13206.798  13206.820  0.500  3.770270  45.777351  1.054977  0.241531
  13209.371  13209.390  0.500  3.767793  45.747773  1.056911  0.241944
  13211.952  13211.970  0.500  3.765462  45.713024  1.058572  0.242702
  13214.550  13214.580  0.500  3.762650  45.684315  1.060887  0.242781
  13217.187  13217.200  0.500  3.760152  45.651078  1.062767  0.243450
  13219.841  13219.850  0.500  3.757861  45.623737  1.064566  0.244290
  13222.503  13222.510  0.500  3.755345  45.588618  1.066427  0.244856
  13225.174  13225.190  0.500  3.752640  45.535859  1.068078  0.245154
  13227.861  13227.890  0.500  3.750943  45.507335  1.069221  0.245395
  13230.595  13230.610  0.500  3.749323  45.493658  1.070633  0.246086
  13233.346  13233.350  0.500  3.747313  45.459608  1.071984  0.246315
  13236.097  13236.100  0.500  3.745990  45.426842  1.072629  0.246587
  13238.866  13238.880  0.500  3.744593  45.390930  1.073280  0.246778
  13241.635  13241.670  0.500  3.743748  45.351620  1.073257  0.246823
  13244.467  13244.490  0.500  3.742405  45.314232  1.073814  0.247004
  13247.307  13247.320  0.500  3.741883  45.278598  1.073529  0.247184
  13250.157  13250.170  0.500  3.741067  45.241589  1.073528  0.247534
  13253.046  13253.050  0.500  3.740461  45.196691  1.073112  0.247558
  13255.921  13255.940  0.500  3.740241  45.154441  1.072345  0.247654
  13258.828  13258.850  0.500  3.738898  45.103979  1.072586  0.247998
  13261.759  13261.770  0.500  3.737858  45.053734  1.072506  0.248175
  13264.715  13264.720  0.500  3.736525  44.995488  1.072548  0.248177
  13267.687  13267.690  0.500  3.735177  44.910806  1.071973  0.247954
  13270.646  13270.670  0.500  3.733789  44.771102  1.070123  0.248033
  13273.667  13273.680  0.500  3.731578  44.468093  1.065233  0.246797
  13276.705  13276.700  0.500  3.729666  44.299852  1.063235  0.246346
  13279.744  13279.750  0.500  3.728105  44.325013  1.065500  0.247188
  13282.800  13282.810  0.500  3.726263  44.289990  1.066621  0.247583
  13285.866  13285.890  0.500  3.723711  44.199180  1.067154  0.247646
  13288.963  13288.990  0.500  3.721878  44.114039  1.067052  0.247943
