# XDI/1.0 BlueSky/1.10.0 BMM/2023-1.0-py310-tiled
# Beamline.name: BMM (06BM) -- Beamline for Materials Measurement (NIST)
# Beamline.xray_source: NSLS-II three-pole wiggler
# Beamline.collimation: paraboloid mirror, 5 nm Rh on 30 nm Pt
# Beamline.focusing: not in use
# Beamline.harmonic_rejection: flat mirror, Pt stripe, pitch = 7.0 mrad relative to beam
# Beamline.software: Bluesky 1.10.0, Ophyd 1.7.0, DataBroker 2.0.0b13, Python 3.10.8, 2023-1.0-py310-tiled
# Detector.I0: 10 cm N2
# Detector.I1: 25 cm N2
# Detector.I2: 25 cm N2
# Element.symbol: Pb
# Element.edge: L3
# Element.reference: Pb
# Element.reference_material: Pb foil
# Facility.name: NSLS-II
# Facility.energy: 3.0
# Facility.current: 400.7
# Facility.mode: top-off
# Facility.GUP: 301027
# Facility.SAF: 310583
# Facility.cycle: 2023-2
# Mono.name: Si(111)
# Mono.d_spacing: 3.1351860
# Mono.encoder_resolution: 0.0000050 deg/ct
# Mono.angle_offset: 16.0754326 deg
# Mono.scan_mode: pseudo channel cut
# Mono.scan_type: step
# Mono.direction: forward in energy
# Sample.name: PbO2
# Sample.prep: powder in PEG pellet
# Sample.x: 143.785 mm
# Sample.y: 114.695 mm
# Sample.SDD_position: 205.000 mm
# Scan.experimenters: Bruce Ravel
# Scan.edge_energy: 13035.2
# Scan.start_time: 2023-06-23T16:50:03
# Scan.end_time: 2023-06-23T16:58:06
# Scan.transient_id: 84877
# Scan.uid: 863f7c54-7f7a-4c38-b9fa-66488bd74ece
# Scan.plot_hint: ln(I0/It)  --  ln($5/$6)
# Column.1: energy eV
# Column.2: requested_energy eV
# Column.3: measurement_time seconds
# Column.4: xmu 
# Column.5: I0 nA
# Column.6: It nA
# Column.7: Ir nA
# ///////////
# BMM standards collection
# -----------
# energy  requested_energy  measurement_time  xmu  I0  It  Ir
  12835.075  12835.200  0.500  0.242681  50.148362  39.342478  17.571763
  12845.198  12845.200  0.500  0.240839  50.038801  39.328915  17.598868
  12855.200  12855.200  0.500  0.238890  49.904795  39.300083  17.615746
  12865.225  12865.200  0.500  0.237185  49.806557  39.289684  17.640227
  12875.252  12875.200  0.500  0.235386  49.634902  39.224773  17.641812
  12885.258  12885.200  0.500  0.233500  49.569935  39.247359  17.681189
  12895.287  12895.200  0.500  0.231928  49.450481  39.214391  17.696161
  12905.288  12905.200  0.500  0.230050  49.325852  39.189079  17.709797
  12915.254  12915.200  0.500  0.228246  48.701720  38.763095  17.543745
  12925.243  12925.200  0.500  0.226717  49.076745  39.121344  17.736299
  12935.248  12935.200  0.500  0.225080  48.977803  39.106437  17.754410
  12945.298  12945.200  0.500  0.223532  48.827246  39.046641  17.750758
  12955.187  12955.200  0.500  0.221992  48.499958  38.844690  17.682358
  12965.195  12965.200  0.500  0.220589  48.633678  39.006468  17.773528
  12975.204  12975.200  0.500  0.219687  48.480881  38.919014  17.750614
  12985.221  12985.200  0.500  0.219004  48.396481  38.877773  17.740741
  12995.209  12995.200  0.500  0.218770  48.271522  38.786485  17.694125
  13005.235  13005.200  0.500  0.219823  48.161363  38.657256  17.603806
  13007.169  13007.200  0.500  0.220165  48.136133  38.623797  17.576165
  13009.147  13009.200  0.500  0.220764  48.117264  38.585517  17.545801
  13011.140  13011.200  0.500  0.221551  48.091499  38.534513  17.505756
  13013.149  13013.200  0.500  0.222340  48.065275  38.483140  17.465328
  13015.174  13015.200  0.500  0.223489  48.036236  38.415702  17.410197
  13017.169  13017.200  0.500  0.224741  48.017980  38.353049  17.346279
  13019.150  13019.200  0.500  0.226584  47.994302  38.263557  17.270492
  13021.177  13021.200  0.500  0.228775  47.972051  38.162118  17.172511
  13023.166  13023.200  0.500  0.231728  47.944803  38.027985  17.050525
  13025.157  13025.200  0.500  0.235906  47.923412  37.852539  16.890536
  13025.453  13025.500  0.500  0.236777  47.921000  37.817687  16.859698
  13025.742  13025.800  0.500  0.237537  47.918400  37.786890  16.828917
  13026.030  13026.100  0.500  0.238222  47.907466  37.752416  16.799041
  13026.341  13026.400  0.500  0.239209  47.907075  37.714866  16.767035
  13026.630  13026.700  0.500  0.240127  47.896998  37.672319  16.729269
  13026.948  13027.000  0.500  0.241154  47.896855  37.633546  16.691096
  13027.237  13027.300  0.500  0.242281  47.896078  37.590534  16.655296
  13027.533  13027.600  0.500  0.243250  47.887957  37.547785  16.614877
  13027.859  13027.900  0.500  0.244419  47.884384  37.501094  16.572683
  13028.133  13028.200  0.500  0.245784  47.884164  37.449774  16.526541
  13028.451  13028.500  0.500  0.247278  47.879405  37.390140  16.475161
  13028.762  13028.800  0.500  0.248789  47.872308  37.328183  16.422198
  13029.051  13029.100  0.500  0.250407  47.865743  37.262701  16.367515
  13029.369  13029.400  0.500  0.252335  47.860139  37.186593  16.302208
  13029.643  13029.700  0.500  0.254147  47.854769  37.115084  16.241342
  13029.969  13030.000  0.500  0.256245  47.853264  37.036146  16.170247
  13030.265  13030.300  0.500  0.258648  47.852577  36.946739  16.095632
  13030.554  13030.600  0.500  0.260986  47.845369  36.854897  16.015487
  13030.880  13030.900  0.500  0.264097  47.838879  36.735443  15.921657
  13031.177  13031.200  0.500  0.267046  47.835733  36.624839  15.829860
  13031.488  13031.500  0.500  0.270400  47.823931  36.493225  15.721377
  13031.784  13031.800  0.500  0.274202  47.827090  36.357113  15.608599
  13032.095  13032.100  0.500  0.278153  47.818861  36.207548  15.487597
  13032.399  13032.400  0.500  0.282862  47.816291  36.035506  15.352510
  13032.680  13032.700  0.500  0.287481  47.811591  35.865897  15.215540
  13032.999  13033.000  0.500  0.293017  47.802743  35.661295  15.051362
  13033.288  13033.300  0.500  0.298532  47.805625  35.467289  14.895646
  13033.592  13033.600  0.500  0.304496  47.794816  35.248450  14.720674
  13033.881  13033.900  0.500  0.310527  47.791965  35.034412  14.545447
  13034.185  13034.200  0.500  0.317104  47.785429  34.799988  14.352065
  13034.481  13034.500  0.500  0.323559  47.784738  34.575565  14.161746
  13034.778  13034.800  0.500  0.329633  47.776103  34.359980  13.976419
  13035.082  13035.100  0.500  0.335843  47.774101  34.145827  13.786883
  13035.356  13035.400  0.500  0.341273  47.772513  33.959804  13.607362
  13035.689  13035.700  0.500  0.346768  47.765672  33.768856  13.412422
  13035.979  13036.000  0.500  0.351150  47.760890  33.617837  13.243534
  13036.282  13036.300  0.500  0.355317  47.757206  33.475461  13.067181
  13036.572  13036.600  0.500  0.358417  47.753203  33.369065  12.911879
  13036.890  13036.900  0.500  0.361070  47.745747  33.275446  12.750590
  13037.180  13037.200  0.500  0.362770  47.740215  33.215072  12.614519
  13037.484  13037.500  0.500  0.364085  47.734190  33.167259  12.472157
  13037.780  13037.800  0.500  0.365024  47.734623  33.136404  12.345881
  13038.106  13038.100  0.500  0.365543  47.725521  33.112926  12.205308
  13038.388  13038.400  0.500  0.366015  47.721274  33.094352  12.082279
  13038.692  13038.700  0.500  0.366526  47.720510  33.076916  11.948886
  13038.996  13039.000  0.500  0.367163  47.712041  33.049976  11.821067
  13039.301  13039.300  0.500  0.368144  47.707635  33.014528  11.677886
  13039.590  13039.600  0.500  0.369448  47.709376  32.972685  11.536367
  13039.901  13039.900  0.500  0.371246  47.701537  32.908063  11.376316
  13040.198  13040.200  0.500  0.373683  47.694239  32.822933  11.213878
  13040.502  13040.500  0.500  0.376838  47.693006  32.718691  11.028028
  13040.806  13040.800  0.500  0.380329  47.685472  32.599520  10.848690
  13041.088  13041.100  0.500  0.384710  47.678897  32.452538  10.654825
  13041.400  13041.400  0.500  0.389956  47.677114  32.281552  10.446649
  13041.682  13041.700  0.500  0.395344  47.676197  32.107443  10.240753
  13041.986  13042.000  0.500  0.401700  47.669072  31.899255  10.025223
  13042.275  13042.300  0.500  0.408657  47.665351  31.675633  9.808378
  13042.587  13042.600  0.500  0.416713  47.660874  31.418542  9.578165
  13042.884  13042.900  0.500  0.425508  47.657025  31.140908  9.347954
  13043.181  13043.200  0.500  0.435203  47.652512  30.837520  9.112834
  13043.478  13043.500  0.500  0.445151  47.640834  30.524798  8.890223
  13043.804  13043.800  0.500  0.456870  47.639921  30.168574  8.647311
  13044.079  13044.100  0.500  0.468045  47.637595  29.831877  8.433284
  13044.405  13044.400  0.500  0.481511  47.629343  29.427744  8.195918
  13044.695  13044.700  0.500  0.493900  47.626701  29.063791  7.992375
  13044.999  13045.000  0.500  0.507950  47.621027  28.654913  7.774349
  13045.296  13045.300  0.500  0.521362  47.616997  28.270763  7.577284
  13045.616  13045.600  0.500  0.535424  47.612302  27.873238  7.376794
  13045.890  13045.900  0.500  0.548051  47.605097  27.519332  7.204718
  13046.217  13046.200  0.500  0.562329  47.600933  27.126820  7.017636
  13046.506  13046.500  0.500  0.573940  47.594624  26.810122  6.867202
  13046.826  13046.800  0.500  0.586044  47.595790  26.488222  6.716246
  13047.101  13047.100  0.500  0.595932  47.580775  26.219337  6.592876
  13047.412  13047.400  0.500  0.605934  47.566878  25.950815  6.466466
  13047.687  13047.700  0.500  0.613993  47.551931  25.734429  6.367628
  13047.999  13048.000  0.500  0.621985  47.527056  25.516207  6.268744
  13048.281  13048.300  0.500  0.628299  47.515155  25.349257  6.194258
  13048.586  13048.600  0.500  0.634718  47.500085  25.179071  6.117958
  13048.876  13048.900  0.500  0.639841  47.481478  25.040608  6.061100
  13049.188  13049.200  0.500  0.645008  47.478203  24.909846  6.007142
  13049.485  13049.500  0.500  0.649315  47.476925  24.802107  5.965434
  13049.804  13049.800  0.500  0.653955  47.477238  24.687463  5.924396
  13050.094  13050.100  0.500  0.658177  47.486892  24.588446  5.892441
  13050.406  13050.400  0.500  0.662307  47.496096  24.491863  5.862825
  13050.673  13050.700  0.500  0.666347  47.506214  24.398312  5.838109
  13051.008  13051.000  0.500  0.670949  47.511537  24.288998  5.810319
  13051.298  13051.300  0.500  0.675452  47.516446  24.182377  5.785564
  13051.602  13051.600  0.500  0.680284  47.516831  24.066008  5.760377
  13051.892  13051.900  0.500  0.685037  47.513266  23.950081  5.735870
  13052.227  13052.200  0.500  0.690542  47.505414  23.814668  5.706987
  13052.509  13052.500  0.500  0.695957  47.506893  23.686796  5.678173
  13052.806  13052.800  0.500  0.701977  47.504135  23.543265  5.647463
  13053.096  13053.100  0.500  0.707845  47.498341  23.402673  5.616637
  13053.408  13053.400  0.500  0.714369  47.496778  23.249723  5.581688
  13053.713  13053.700  0.500  0.720959  47.491772  23.094558  5.546230
  13053.996  13054.000  0.500  0.727673  47.488737  22.938560  5.509099
  13054.300  13054.300  0.500  0.734218  47.481006  22.785208  5.470728
  13054.598  13054.600  0.500  0.741496  47.477591  22.618366  5.430625
  13054.903  13054.900  0.500  0.748306  47.467754  22.460203  5.389160
  13055.200  13055.200  0.500  0.755143  47.469506  22.307974  5.347036
  13055.490  13055.500  0.500  0.761822  47.464802  22.157277  5.307172
  13055.787  13055.800  0.500  0.768406  47.458606  22.009007  5.264313
  13056.092  13056.100  0.500  0.774688  47.452478  21.868355  5.222375
  13056.397  13056.400  0.500  0.780938  47.453409  21.732530  5.182012
  13056.695  13056.700  0.500  0.786683  47.444575  21.604023  5.139886
  13057.000  13057.000  0.500  0.791896  47.443822  21.491348  5.100723
  13057.312  13057.300  0.500  0.797416  47.433881  21.368553  5.058394
  13057.602  13057.600  0.500  0.802319  47.429727  21.262182  5.019203
  13057.907  13057.900  0.500  0.807156  47.427599  21.158645  4.976553
  13058.205  13058.200  0.500  0.811670  47.427964  21.063514  4.937695
  13058.517  13058.500  0.500  0.816226  47.417766  20.963252  4.894669
  13058.807  13058.800  0.500  0.820057  47.415309  20.882015  4.856349
  13059.112  13059.100  0.500  0.824347  47.415119  20.792544  4.812862
  13059.402  13059.400  0.500  0.827819  47.404357  20.715770  4.776153
  13059.722  13059.700  0.500  0.831829  47.403305  20.632410  4.733133
  13060.005  13060.000  0.500  0.835005  47.397674  20.564542  4.697840
  13060.198  13060.200  0.500  0.837187  47.396478  20.519195  4.670158
  13061.218  13061.190  0.500  0.847545  47.383206  20.302068  4.554942
  13062.193  13062.190  0.500  0.856452  47.370482  20.116643  4.464325
  13063.198  13063.210  0.500  0.865819  47.360487  19.924880  4.395095
  13064.255  13064.260  0.500  0.874914  47.342886  19.737143  4.347848
  13065.335  13065.320  0.500  0.882395  47.330715  19.585013  4.324308
  13066.430  13066.400  0.500  0.886170  47.324220  19.508529  4.325954
  13067.517  13067.500  0.500  0.884450  47.307248  19.535107  4.356469
  13068.620  13068.620  0.500  0.878542  47.293946  19.645333  4.407069
  13069.753  13069.760  0.500  0.869663  47.277731  19.813751  4.466738
  13070.938  13070.910  0.500  0.859037  47.234257  20.007001  4.521219
  13072.108  13072.090  0.500  0.848843  47.181548  20.189437  4.566206
  13073.301  13073.280  0.500  0.839151  47.186061  20.388017  4.608273
  13074.516  13074.500  0.500  0.830030  47.209803  20.585181  4.648873
  13075.739  13075.730  0.500  0.821198  47.191631  20.759794  4.689052
  13076.970  13076.980  0.500  0.812963  47.170941  20.922287  4.724808
  13078.276  13078.250  0.500  0.805557  47.157347  21.071733  4.757730
  13079.567  13079.540  0.500  0.799413  47.186973  21.214931  4.783474
  13080.881  13080.850  0.500  0.794100  47.228395  21.346669  4.801042
  13082.195  13082.180  0.500  0.789070  47.215911  21.448631  4.806299
  13083.524  13083.530  0.500  0.783921  47.204881  21.554323  4.808053
  13084.898  13084.900  0.500  0.778804  47.181659  21.654241  4.805324
  13086.288  13086.280  0.500  0.774310  47.164752  21.743982  4.803935
  13087.685  13087.690  0.500  0.771155  47.150381  21.806041  4.800817
  13089.120  13089.110  0.500  0.769389  47.132193  21.836167  4.801382
  13090.540  13090.550  0.500  0.769180  47.118643  21.834448  4.804566
  13092.021  13092.010  0.500  0.770346  47.076620  21.789550  4.805662
  13093.486  13093.490  0.500  0.772610  47.008927  21.709009  4.802913
  13095.012  13094.990  0.500  0.776105  47.025429  21.640870  4.804701
  13096.516  13096.510  0.500  0.780128  47.045655  21.563249  4.802082
  13098.051  13098.050  0.500  0.784499  47.023958  21.459293  4.791273
  13099.570  13099.610  0.500  0.789463  47.008775  21.346154  4.776834
  13101.172  13101.180  0.500  0.794085  46.986221  21.237509  4.761491
  13102.760  13102.780  0.500  0.798237  46.955278  21.135592  4.747947
  13104.386  13104.390  0.500  0.802115  46.932559  21.043611  4.734006
  13106.012  13106.030  0.500  0.805859  46.873478  20.938577  4.712793
  13107.638  13107.680  0.500  0.809306  46.892694  20.875070  4.700220
  13109.782  13109.350  0.500  0.812329  46.883427  20.807949  4.681974
  13110.975  13111.040  0.500  0.813925  46.865998  20.767040  4.667622
  13112.812  13112.750  0.500  0.815525  46.840305  20.722489  4.646584
  13114.411  13114.480  0.500  0.816718  46.821120  20.689293  4.630346
  13116.287  13116.230  0.500  0.818438  46.775506  20.633619  4.608016
  13117.991  13117.990  0.500  0.820231  46.704693  20.565480  4.586877
  13119.740  13119.780  0.500  0.822238  46.741012  20.540191  4.578179
  13121.573  13121.580  0.500  0.824433  46.730646  20.490630  4.567504
  13123.399  13123.410  0.500  0.825919  46.710272  20.451281  4.563739
  13125.248  13125.250  0.500  0.826789  46.683133  20.421626  4.565969
  13127.082  13127.110  0.500  0.826906  46.661749  20.409883  4.571713
  13128.992  13128.990  0.500  0.826496  46.646522  20.411585  4.581379
  13130.850  13130.890  0.500  0.825656  46.614548  20.414737  4.591758
  13132.791  13132.810  0.500  0.823159  46.573012  20.447536  4.604834
  13134.717  13134.750  0.500  0.819700  46.574894  20.519211  4.626108
  13136.720  13136.710  0.500  0.814180  46.548716  20.621191  4.651265
  13138.678  13138.680  0.500  0.808537  46.530069  20.729578  4.679262
  13140.697  13140.680  0.500  0.802615  46.508999  20.843269  4.707471
  13142.686  13142.690  0.500  0.797222  46.483589  20.944529  4.732567
  13144.714  13144.720  0.500  0.792302  46.457412  21.035966  4.752700
  13146.750  13146.780  0.500  0.788428  46.435727  21.107761  4.770573
  13148.846  13148.850  0.500  0.785275  46.409566  21.162506  4.784181
  13150.929  13150.940  0.500  0.782834  46.379964  21.200693  4.794967
  13153.065  13153.050  0.500  0.781250  46.341367  21.216625  4.798842
  13155.194  13155.180  0.500  0.780726  46.328838  21.222005  4.800566
  13157.316  13157.320  0.500  0.781273  46.310239  21.201893  4.797449
  13159.477  13159.490  0.500  0.782322  46.284086  21.167702  4.791382
  13161.661  13161.680  0.500  0.783823  46.256625  21.123402  4.782845
  13163.876  13163.880  0.500  0.785289  46.228568  21.079673  4.776643
  13166.107  13166.100  0.500  0.786371  46.194568  21.041392  4.769690
  13168.346  13168.350  0.500  0.787155  46.129908  20.995460  4.762364
  13170.624  13170.610  0.500  0.787662  46.148371  20.993227  4.764708
  13172.880  13172.890  0.500  0.787975  46.125657  20.976323  4.763489
  13175.174  13175.190  0.500  0.788499  46.098998  20.953223  4.759975
  13177.508  13177.510  0.500  0.789099  46.069762  20.927361  4.757665
  13179.857  13179.850  0.500  0.790046  46.039902  20.894011  4.752793
  13182.215  13182.200  0.500  0.791222  46.009878  20.855852  4.744706
  13184.596  13184.580  0.500  0.792508  45.981673  20.816271  4.739578
  13186.955  13186.970  0.500  0.793708  45.955901  20.779643  4.733719
  13189.369  13189.390  0.500  0.794895  45.923330  20.740283  4.726727
  13191.813  13191.820  0.500  0.795873  45.897763  20.708476  4.723509
  13194.274  13194.270  0.500  0.796348  45.869463  20.685876  4.722321
  13196.759  13196.750  0.500  0.796535  45.837185  20.667467  4.723030
  13199.252  13199.240  0.500  0.796248  45.802109  20.657577  4.724178
  13201.738  13201.750  0.500  0.795714  45.777041  20.657292  4.728033
  13204.264  13204.270  0.500  0.794722  45.735041  20.658819  4.732580
  13206.805  13206.820  0.500  0.793263  45.711920  20.678526  4.738525
  13209.401  13209.390  0.500  0.791722  45.685255  20.698344  4.746995
  13211.983  13211.970  0.500  0.789822  45.648562  20.721060  4.754326
  13214.604  13214.580  0.500  0.788582  45.619033  20.733339  4.760037
  13217.203  13217.200  0.500  0.787542  45.584786  20.739338  4.763080
  13219.856  13219.850  0.500  0.786648  45.539379  20.737210  4.765105
  13222.518  13222.510  0.500  0.785761  45.515377  20.744665  4.767326
  13225.197  13225.190  0.500  0.784600  45.459506  20.743274  4.769092
  13227.892  13227.890  0.500  0.783063  45.436373  20.764598  4.775391
  13230.603  13230.610  0.500  0.781429  45.413437  20.788070  4.781284
  13233.323  13233.350  0.500  0.780148  45.387615  20.802881  4.785559
  13236.097  13236.100  0.500  0.779456  45.355171  20.802406  4.788696
  13238.889  13238.880  0.500  0.779152  45.322425  20.793688  4.788497
  13241.658  13241.670  0.500  0.778796  45.285979  20.784384  4.788431
  13244.490  13244.490  0.500  0.778225  45.247317  20.778488  4.790218
  13247.323  13247.320  0.500  0.776855  45.206090  20.788016  4.794888
  13250.165  13250.170  0.500  0.775246  45.165778  20.802934  4.801136
  13253.069  13253.050  0.500  0.773374  45.119780  20.820687  4.809800
  13255.921  13255.940  0.500  0.771730  45.079018  20.836089  4.816225
  13258.851  13258.850  0.500  0.770664  45.032263  20.836693  4.820036
  13261.790  13261.770  0.500  0.770425  44.977802  20.816468  4.817917
  13264.723  13264.720  0.500  0.770611  44.915452  20.783739  4.814462
  13267.695  13267.690  0.500  0.771446  44.829993  20.726882  4.802626
  13270.669  13270.670  0.500  0.772414  44.678882  20.637020  4.785557
  13273.682  13273.680  0.500  0.773375  44.373781  20.476415  4.750529
