# XDI/1.0 BlueSky/1.10.0 BMM/2023-1.0-py310-tiled
# Beamline.name: BMM (06BM) -- Beamline for Materials Measurement (NIST)
# Beamline.xray_source: NSLS-II three-pole wiggler
# Beamline.collimation: paraboloid mirror, 5 nm Rh on 30 nm Pt
# Beamline.focusing: not in use
# Beamline.harmonic_rejection: flat mirror, Pt stripe, pitch = 7.0 mrad relative to beam
# Beamline.software: Bluesky 1.10.0, Ophyd 1.7.0, DataBroker 2.0.0b13, Python 3.10.8, 2023-1.0-py310-tiled
# Detector.I0: 10 cm N2
# Detector.I1: 25 cm N2
# Detector.I2: 25 cm N2
# Element.symbol: Pb
# Element.edge: L3
# Element.reference: Pb
# Element.reference_material: Pb foil
# Facility.name: NSLS-II
# Facility.energy: 3.0
# Facility.current: 399.7
# Facility.mode: top-off
# Facility.GUP: 301027
# Facility.SAF: 310583
# Facility.cycle: 2023-2
# Mono.name: Si(111)
# Mono.d_spacing: 3.1351860
# Mono.encoder_resolution: 0.0000050 deg/ct
# Mono.angle_offset: 16.0754326 deg
# Mono.scan_mode: pseudo channel cut
# Mono.scan_type: step
# Mono.direction: forward in energy
# Sample.name: PbS2
# Sample.prep: powder on tape
# Sample.x: 143.785 mm
# Sample.y: 114.695 mm
# Sample.SDD_position: 205.000 mm
# Scan.experimenters: Bruce Ravel
# Scan.edge_energy: 13035.2
# Scan.start_time: 2023-06-23T16:58:38
# Scan.end_time: 2023-06-23T17:06:47
# Scan.transient_id: 84882
# Scan.uid: ecd66214-cfd8-45c3-a5f1-cdd362b073cc
# Scan.plot_hint: ln(I0/It)  --  ln($5/$6)
# Column.1: energy eV
# Column.2: requested_energy eV
# Column.3: measurement_time seconds
# Column.4: xmu 
# Column.5: I0 nA
# Column.6: It nA
# Column.7: Ir nA
# ///////////
# BMM standards collection
# -----------
# energy  requested_energy  measurement_time  xmu  I0  It  Ir
  12835.197  12835.200  0.500  0.115462  50.024716  44.569735  19.925240
  12845.212  12845.200  0.500  0.113705  49.912603  44.548054  19.949071
  12855.229  12855.200  0.500  0.112058  49.786499  44.508759  19.967182
  12865.240  12865.200  0.500  0.110302  49.683608  44.494819  19.990531
  12875.244  12875.200  0.500  0.108644  49.507847  44.411017  19.987854
  12885.279  12885.200  0.500  0.106964  49.443626  44.427987  20.032075
  12895.287  12895.200  0.500  0.105342  49.321130  44.389848  20.044768
  12905.252  12905.200  0.500  0.103659  49.195974  44.351759  20.057908
  12915.269  12915.200  0.500  0.102030  48.576509  43.864729  19.869388
  12925.265  12925.200  0.500  0.100440  48.942238  44.265271  20.086667
  12935.285  12935.200  0.500  0.098932  48.849972  44.248532  20.103606
  12945.174  12945.200  0.500  0.097396  48.694226  44.175219  20.096878
  12955.195  12955.200  0.500  0.096030  48.363896  43.935526  20.014884
  12965.210  12965.200  0.500  0.094815  48.503900  44.116288  20.118926
  12975.226  12975.200  0.500  0.093671  48.352020  44.028480  20.093996
  12985.199  12985.200  0.500  0.092851  48.273741  43.993257  20.087395
  12995.217  12995.200  0.500  0.092480  48.147310  43.894336  20.038165
  13005.221  13005.200  0.500  0.093064  48.044638  43.775154  19.949406
  13007.161  13007.200  0.500  0.093316  48.020830  43.742463  19.922538
  13009.147  13009.200  0.500  0.093570  47.996553  43.709223  19.890044
  13011.148  13011.200  0.500  0.094029  47.969073  43.664153  19.851719
  13013.149  13013.200  0.500  0.094678  47.950115  43.618586  19.808450
  13015.159  13015.200  0.500  0.095568  47.921507  43.553772  19.752160
  13017.162  13017.200  0.500  0.096397  47.899704  43.497874  19.689894
  13019.158  13019.200  0.500  0.097678  47.875878  43.420597  19.609539
  13021.147  13021.200  0.500  0.099212  47.852858  43.333170  19.520431
  13023.166  13023.200  0.500  0.101151  47.831471  43.229902  19.397971
  13025.164  13025.200  0.500  0.103806  47.805057  43.091485  19.245066
  13025.431  13025.500  0.500  0.104282  47.800378  43.066755  19.218187
  13025.764  13025.800  0.500  0.104718  47.792791  43.041175  19.185765
  13026.038  13026.100  0.500  0.105289  47.793031  43.016807  19.157947
  13026.341  13026.400  0.500  0.105809  47.790543  42.992208  19.128846
  13026.645  13026.700  0.500  0.106261  47.780537  42.963779  19.094207
  13026.933  13027.000  0.500  0.106964  47.782634  42.935460  19.062564
  13027.252  13027.300  0.500  0.107527  47.774035  42.903585  19.023359
  13027.563  13027.600  0.500  0.108156  47.763782  42.867422  18.984860
  13027.844  13027.900  0.500  0.108766  47.759849  42.837733  18.949780
  13028.155  13028.200  0.500  0.109549  47.762065  42.806183  18.908486
  13028.444  13028.500  0.500  0.110242  47.757788  42.772708  18.865333
  13028.755  13028.800  0.500  0.111016  47.756542  42.738488  18.820371
  13029.066  13029.100  0.500  0.111883  47.750327  42.695894  18.772503
  13029.355  13029.400  0.500  0.112772  47.748932  42.656705  18.719912
  13029.636  13029.700  0.500  0.113746  47.744124  42.610904  18.665301
  13029.954  13030.000  0.500  0.114629  47.739305  42.569007  18.608172
  13030.236  13030.300  0.500  0.115613  47.734976  42.523285  18.546143
  13030.569  13030.600  0.500  0.116969  47.727986  42.459441  18.473987
  13030.865  13030.900  0.500  0.118160  47.725314  42.406528  18.402292
  13031.154  13031.200  0.500  0.119411  47.722065  42.350595  18.325790
  13031.473  13031.500  0.500  0.120802  47.715440  42.285891  18.240702
  13031.747  13031.800  0.500  0.122148  47.712208  42.226152  18.156486
  13032.080  13032.100  0.500  0.123760  47.707252  42.153749  18.057911
  13032.392  13032.400  0.500  0.125642  47.704509  42.072065  17.946344
  13032.673  13032.700  0.500  0.127360  47.881852  42.155960  17.907504
  13032.992  13033.000  0.500  0.129461  47.884419  42.069755  17.787780
  13033.273  13033.300  0.500  0.131496  47.879768  41.980176  17.661709
  13033.592  13033.600  0.500  0.133915  47.871335  41.871352  17.512988
  13033.896  13033.900  0.500  0.136508  47.870507  41.762211  17.360456
  13034.177  13034.200  0.500  0.139114  47.865297  41.648961  17.206869
  13034.481  13034.500  0.500  0.142010  47.863372  41.526879  17.040264
  13034.785  13034.800  0.500  0.145154  47.858084  41.391939  16.863024
  13035.119  13035.100  0.500  0.148695  47.856144  41.243944  16.669817
  13035.400  13035.400  0.500  0.152046  47.851010  41.101573  16.483641
  13035.689  13035.700  0.500  0.155862  47.846242  40.940961  16.289127
  13035.986  13036.000  0.500  0.160165  47.844986  40.764083  16.081593
  13036.282  13036.300  0.500  0.164522  47.838708  40.581542  15.873116
  13036.594  13036.600  0.500  0.169506  47.836600  40.378010  15.645507
  13036.876  13036.900  0.500  0.174440  47.831898  40.175296  15.430787
  13037.187  13037.200  0.500  0.180405  47.826929  39.932214  15.192215
  13037.461  13037.500  0.500  0.186154  47.822069  39.699296  14.968648
  13037.795  13037.800  0.500  0.193269  47.818535  39.414924  14.707582
  13038.062  13038.100  0.500  0.199578  47.813955  39.163271  14.479816
  13038.388  13038.400  0.500  0.207424  47.809181  38.853343  14.215883
  13038.678  13038.700  0.500  0.214709  47.802484  38.565901  13.975779
  13038.996  13039.000  0.500  0.223316  47.800173  38.233537  13.697148
  13039.278  13039.300  0.500  0.230900  47.798080  37.943028  13.458381
  13039.612  13039.600  0.500  0.240300  47.794688  37.585365  13.171765
  13039.901  13039.900  0.500  0.248851  47.792633  37.263730  12.914774
  13040.205  13040.200  0.500  0.258170  47.784632  36.911896  12.630991
  13040.495  13040.500  0.500  0.266707  47.775169  36.590869  12.369602
  13040.814  13040.800  0.500  0.276292  47.774896  36.241614  12.082385
  13041.096  13041.100  0.500  0.285266  47.778286  35.920390  11.819134
  13041.415  13041.400  0.500  0.295065  47.771663  35.565184  11.528360
  13041.697  13041.700  0.500  0.304115  47.763321  35.238617  11.265759
  13042.016  13042.000  0.500  0.313945  47.757556  34.889722  10.980675
  13042.298  13042.300  0.500  0.323333  47.762581  34.567350  10.721653
  13042.602  13042.600  0.500  0.333589  47.754662  34.208962  10.441944
  13042.891  13042.900  0.500  0.342746  47.748214  33.892574  10.195000
  13043.181  13043.200  0.500  0.352660  47.745195  33.556079  9.942514
  13043.470  13043.500  0.500  0.362286  47.741812  33.232292  9.704618
  13043.789  13043.800  0.500  0.372776  47.741408  32.885220  9.453171
  13044.071  13044.100  0.500  0.382101  47.734599  32.575348  9.238060
  13044.391  13044.400  0.500  0.392515  47.728259  32.233586  9.008324
  13044.688  13044.700  0.500  0.401976  47.729107  31.930627  8.807526
  13044.992  13045.000  0.500  0.411933  47.727063  31.612901  8.601366
  13045.289  13045.300  0.500  0.420880  47.720687  31.327153  8.418634
  13045.601  13045.600  0.500  0.430130  47.714104  31.034438  8.238511
  13045.883  13045.900  0.500  0.438654  47.709417  30.767982  8.076517
  13046.202  13046.200  0.500  0.447329  47.704010  30.498765  7.914300
  13046.514  13046.500  0.500  0.455188  47.701641  30.258515  7.770050
  13046.804  13046.800  0.500  0.462243  47.696339  30.042448  7.640585
  13047.115  13047.100  0.500  0.469365  47.683306  29.821107  7.512601
  13047.420  13047.400  0.500  0.475731  47.671900  29.624784  7.401062
  13047.710  13047.700  0.500  0.481680  47.649333  29.435131  7.298290
  13048.007  13048.000  0.500  0.487362  47.639343  29.262199  7.205836
  13048.311  13048.300  0.500  0.492637  47.620899  29.096997  7.121396
  13048.608  13048.600  0.500  0.497516  47.601738  28.943716  7.048526
  13048.898  13048.900  0.500  0.501971  47.592494  28.809458  6.985751
  13049.202  13049.200  0.500  0.506218  47.585488  28.683158  6.931316
  13049.492  13049.500  0.500  0.510169  47.580167  28.566840  6.884313
  13049.797  13049.800  0.500  0.514189  47.585148  28.455226  6.843218
  13050.086  13050.100  0.500  0.517776  47.593184  28.358134  6.809042
  13050.384  13050.400  0.500  0.521366  47.603322  28.262517  6.780082
  13050.666  13050.700  0.500  0.524719  47.613237  28.173777  6.754945
  13051.000  13051.000  0.500  0.528003  47.619947  28.085366  6.731675
  13051.283  13051.300  0.500  0.531266  47.624654  27.996637  6.712967
  13051.595  13051.600  0.500  0.534517  47.624150  27.905478  6.693970
  13051.892  13051.900  0.500  0.537434  47.622859  27.823449  6.676527
  13052.204  13052.200  0.500  0.540617  47.615584  27.730775  6.659200
  13052.487  13052.500  0.500  0.543517  47.613021  27.649004  6.643473
  13052.814  13052.800  0.500  0.546929  47.614418  27.555620  6.624540
  13053.096  13053.100  0.500  0.549855  47.604622  27.469459  6.608867
  13053.416  13053.400  0.500  0.553230  47.603290  27.376137  6.588985
  13053.698  13053.700  0.500  0.556328  47.597502  27.288155  6.569269
  13054.010  13054.000  0.500  0.559713  47.595311  27.194686  6.546645
  13054.300  13054.300  0.500  0.562999  47.588925  27.101831  6.522223
  13054.620  13054.600  0.500  0.566688  47.590687  27.003036  6.497552
  13054.895  13054.900  0.500  0.569778  47.589210  26.918891  6.473486
  13055.215  13055.200  0.500  0.573008  47.579509  26.826602  6.447529
  13055.490  13055.500  0.500  0.575906  47.575706  26.746830  6.422478
  13055.810  13055.800  0.500  0.579031  47.573072  26.661916  6.393889
  13056.115  13056.100  0.500  0.581345  47.568092  26.597511  6.369129
  13056.390  13056.400  0.500  0.583432  47.561160  26.538186  6.343895
  13056.687  13056.700  0.500  0.585373  47.561541  26.486927  6.318248
  13056.970  13057.000  0.500  0.586631  47.554940  26.449958  6.296550
  13057.297  13057.300  0.500  0.587834  47.554140  26.417728  6.271270
  13057.580  13057.600  0.500  0.588376  47.548394  26.400218  6.250145
  13057.885  13057.900  0.500  0.588571  47.540272  26.390550  6.226715
  13058.175  13058.200  0.500  0.588401  47.537297  26.393393  6.206843
  13058.495  13058.500  0.500  0.587717  47.531555  26.408271  6.184575
  13058.792  13058.800  0.500  0.586765  47.529308  26.432163  6.166018
  13059.090  13059.100  0.500  0.585523  47.526068  26.463209  6.147632
  13059.395  13059.400  0.500  0.583800  47.519402  26.505137  6.129395
  13059.685  13059.700  0.500  0.582115  47.517364  26.548694  6.112379
  13060.020  13060.000  0.500  0.579754  47.510562  26.607624  6.093965
  13060.198  13060.200  0.500  0.578342  47.507180  26.643319  6.083269
  13061.218  13061.190  0.500  0.571059  47.497526  26.832619  6.039003
  13062.223  13062.190  0.500  0.564399  47.480034  27.001979  6.012604
  13063.235  13063.210  0.500  0.559470  47.468838  27.129008  6.001486
  13064.255  13064.260  0.500  0.556750  47.464684  27.200526  6.009333
  13065.335  13065.320  0.500  0.555818  47.452061  27.218636  6.024465
  13066.422  13066.400  0.500  0.556681  47.437746  27.186953  6.044310
  13067.517  13067.500  0.500  0.558464  47.421758  27.129366  6.063413
  13068.635  13068.620  0.500  0.560802  47.409299  27.058922  6.082138
  13069.782  13069.760  0.500  0.562692  47.387067  26.995164  6.096876
  13070.923  13070.910  0.500  0.563943  47.351744  26.941315  6.101083
  13072.100  13072.090  0.500  0.564090  47.291087  26.902842  6.097176
  13073.278  13073.280  0.500  0.563575  47.296300  26.919659  6.098517
  13074.516  13074.500  0.500  0.562368  47.326736  26.969508  6.106174
  13075.762  13075.730  0.500  0.560859  47.312224  27.001959  6.110721
  13077.008  13076.980  0.500  0.560331  47.296990  27.007530  6.112191
  13078.298  13078.250  0.500  0.560721  47.279245  26.986875  6.106222
  13079.530  13079.540  0.500  0.562108  47.269007  26.943622  6.088585
  13080.843  13080.850  0.500  0.564505  47.258661  26.873232  6.058226
  13082.187  13082.180  0.500  0.567213  47.242106  26.791186  6.018112
  13083.546  13083.530  0.500  0.570054  47.223763  26.704808  5.969376
  13084.913  13084.900  0.500  0.573218  47.214194  26.615043  5.918547
  13086.273  13086.280  0.500  0.576360  47.195319  26.520937  5.871074
  13087.677  13087.690  0.500  0.579453  47.173430  26.426769  5.831886
  13089.112  13089.110  0.500  0.582560  47.157922  26.336131  5.801908
  13090.570  13090.550  0.500  0.586039  47.142935  26.236341  5.785095
  13092.043  13092.010  0.500  0.589651  47.102918  26.119541  5.772049
  13093.494  13093.490  0.500  0.592807  47.036148  26.000342  5.765946
  13095.012  13094.990  0.500  0.594449  47.054446  25.967773  5.778338
  13096.531  13096.510  0.500  0.593242  47.069896  26.007663  5.804423
  13098.073  13098.050  0.500  0.589397  47.052356  26.098125  5.841246
  13099.638  13099.610  0.500  0.583080  47.033229  26.252857  5.889855
  13101.210  13101.180  0.500  0.575738  47.010752  26.433657  5.942568
  13102.768  13102.780  0.500  0.568677  46.978005  26.602436  5.990138
  13104.393  13104.390  0.500  0.562300  46.962823  26.763973  6.036273
  13106.034  13106.030  0.500  0.557033  46.894991  26.866439  6.064226
  13107.691  13107.680  0.500  0.554184  46.922038  26.958643  6.084996
  13109.355  13109.350  0.500  0.553331  46.922134  26.981687  6.085958
  13111.035  13111.040  0.500  0.554365  46.902980  26.942815  6.067785
  13112.767  13112.750  0.500  0.556593  46.884625  26.872315  6.041320
  13114.493  13114.480  0.500  0.559492  46.855208  26.777706  6.007577
  13116.212  13116.230  0.500  0.562433  46.813980  26.675593  5.971985
  13117.983  13117.990  0.500  0.565092  46.741712  26.563672  5.939468
  13119.763  13119.780  0.500  0.566676  46.780813  26.543832  5.931610
  13121.611  13121.580  0.500  0.567425  46.768698  26.517093  5.925260
  13123.414  13123.410  0.500  0.567612  46.748323  26.500575  5.928550
  13125.248  13125.250  0.500  0.567402  46.719252  26.489666  5.935715
  13127.089  13127.110  0.500  0.567137  46.698130  26.484688  5.946282
  13128.969  13128.990  0.500  0.567096  46.687926  26.480003  5.958463
  13130.857  13130.890  0.500  0.567045  46.657967  26.464342  5.965206
  13132.776  13132.810  0.500  0.567439  46.608081  26.425651  5.964509
  13134.702  13134.750  0.500  0.568277  46.610644  26.404969  5.965601
  13136.795  13136.710  0.500  0.569140  46.581905  26.365917  5.960902
  13138.625  13138.680  0.500  0.569546  46.562388  26.344171  5.957774
  13141.277  13140.680  0.500  0.569489  46.527255  26.325803  5.958347
  13142.769  13142.690  0.500  0.568602  46.501743  26.334714  5.961443
  13144.684  13144.720  0.500  0.567207  46.482492  26.360549  5.968510
  13146.840  13146.780  0.500  0.565306  46.454034  26.394545  5.979485
  13148.862  13148.850  0.500  0.563528  46.426153  26.425657  5.987102
  13150.921  13150.940  0.500  0.561799  46.397931  26.455282  5.995437
  13153.050  13153.050  0.500  0.560129  46.365447  26.480956  6.002664
  13155.164  13155.180  0.500  0.558574  46.354141  26.515680  6.011735
  13157.316  13157.320  0.500  0.557054  46.331228  26.542906  6.018154
  13159.484  13159.490  0.500  0.555667  46.308564  26.566742  6.026395
  13161.661  13161.680  0.500  0.554283  46.278312  26.586162  6.033014
  13163.861  13163.880  0.500  0.553455  46.254247  26.594331  6.038489
  13166.084  13166.100  0.500  0.553046  46.309317  26.636895  6.051912
  13168.353  13168.350  0.500  0.553141  46.339375  26.651642  6.058967
  13170.609  13170.610  0.500  0.553644  46.340937  26.639151  6.059517
  13172.895  13172.890  0.500  0.554368  46.329646  26.613388  6.057894
  13175.167  13175.190  0.500  0.554755  46.302455  26.587480  6.053832
  13177.492  13177.510  0.500  0.555113  46.270462  26.559581  6.051337
  13179.827  13179.850  0.500  0.555124  46.249176  26.547070  6.051961
  13182.192  13182.200  0.500  0.555092  46.217797  26.529926  6.049887
  13184.566  13184.580  0.500  0.555111  46.192154  26.514685  6.050157
  13186.970  13186.970  0.500  0.555133  46.167164  26.499756  6.050225
  13189.384  13189.390  0.500  0.555045  46.137156  26.484873  6.050460
  13191.813  13191.820  0.500  0.554720  46.109120  26.477391  6.051484
  13194.251  13194.270  0.500  0.554340  46.071774  26.465986  6.055471
  13196.736  13196.750  0.500  0.553868  46.045454  26.463369  6.059679
  13199.229  13199.240  0.500  0.553225  46.015318  26.463037  6.066349
  13201.761  13201.750  0.500  0.552580  45.982632  26.461322  6.069890
  13204.279  13204.270  0.500  0.551682  45.950022  26.466299  6.074864
  13206.813  13206.820  0.500  0.550696  45.923223  26.476973  6.081872
  13209.386  13209.390  0.500  0.549821  45.887204  26.479350  6.086312
  13211.990  13211.970  0.500  0.548526  45.859683  26.497772  6.093358
  13214.611  13214.580  0.500  0.547473  45.823366  26.504684  6.099144
  13217.203  13217.200  0.500  0.546296  45.794785  26.519331  6.104102
  13219.841  13219.850  0.500  0.545528  45.758961  26.518943  6.106557
  13222.495  13222.510  0.500  0.544759  45.718817  26.516078  6.108240
  13225.166  13225.190  0.500  0.544180  45.674599  26.505779  6.106493
  13227.876  13227.890  0.500  0.543601  45.641466  26.501873  6.106700
  13230.610  13230.610  0.500  0.543369  45.622235  26.496866  6.107750
  13233.353  13233.350  0.500  0.543151  45.593906  26.486191  6.108274
  13236.082  13236.100  0.500  0.542847  45.556012  26.472221  6.105505
  13238.866  13238.880  0.500  0.543057  45.524088  26.448118  6.105286
  13241.673  13241.670  0.500  0.542810  45.482514  26.430477  6.102322
  13244.513  13244.490  0.500  0.542912  45.448020  26.407750  6.101031
  13247.338  13247.320  0.500  0.542986  45.412035  26.384874  6.099892
  13250.172  13250.170  0.500  0.542978  45.373702  26.362812  6.100423
  13253.023  13253.050  0.500  0.542586  45.325737  26.345269  6.099644
  13255.921  13255.940  0.500  0.542353  45.284651  26.327536  6.100716
  13258.851  13258.850  0.500  0.541817  45.238665  26.314904  6.101266
  13261.782  13261.770  0.500  0.541154  45.183706  26.300355  6.101888
  13264.707  13264.720  0.500  0.540324  45.118571  26.284255  6.101289
  13267.672  13267.690  0.500  0.539585  45.031492  26.252925  6.097791
  13270.669  13270.670  0.500  0.538579  44.878332  26.189963  6.085671
  13273.682  13273.680  0.500  0.537814  44.570933  26.030470  6.052819
