# XDI/1.0 BlueSky/1.10.0 BMM/2023-1.0-py310-tiled
# Beamline.name: BMM (06BM) -- Beamline for Materials Measurement (NIST)
# Beamline.xray_source: NSLS-II three-pole wiggler
# Beamline.collimation: paraboloid mirror, 5 nm Rh on 30 nm Pt
# Beamline.focusing: not in use
# Beamline.harmonic_rejection: flat mirror, Pt stripe, pitch = 7.0 mrad relative to beam
# Beamline.software: Bluesky 1.10.0, Ophyd 1.7.0, DataBroker 2.0.0b13, Python 3.10.8, 2023-1.0-py310-tiled
# Detector.I0: 10 cm N2
# Detector.I1: 25 cm N2
# Detector.I2: 25 cm N2
# Element.symbol: Pb
# Element.edge: L3
# Element.reference: Pb
# Element.reference_material: Pb foil
# Facility.name: NSLS-II
# Facility.energy: 3.0
# Facility.current: 400.1
# Facility.mode: top-off
# Facility.GUP: 301027
# Facility.SAF: 310583
# Facility.cycle: 2023-2
# Mono.name: Si(111)
# Mono.d_spacing: 3.1351860
# Mono.encoder_resolution: 0.0000050 deg/ct
# Mono.angle_offset: 16.0754326 deg
# Mono.scan_mode: pseudo channel cut
# Mono.scan_type: step
# Mono.direction: forward in energy
# Sample.name: PbO
# Sample.prep: powder on tape
# Sample.x: 143.785 mm
# Sample.y: 114.695 mm
# Sample.SDD_position: 205.000 mm
# Scan.experimenters: Bruce Ravel
# Scan.edge_energy: 13035.2
# Scan.start_time: 2023-06-23T16:41:09
# Scan.end_time: 2023-06-23T16:49:32
# Scan.transient_id: 84872
# Scan.uid: 829dc3ec-db94-4b86-8ee1-22a8b4761c2a
# Scan.plot_hint: ln(I0/It)  --  ln($5/$6)
# Column.1: energy eV
# Column.2: requested_energy eV
# Column.3: measurement_time seconds
# Column.4: xmu 
# Column.5: I0 nA
# Column.6: It nA
# Column.7: Ir nA
# ///////////
# BMM standards collection
# -----------
# energy  requested_energy  measurement_time  xmu  I0  It  Ir
  12835.161  12835.200  0.500  0.592095  50.058490  27.690709  12.365278
  12845.212  12845.200  0.500  0.589428  49.955312  27.707426  12.395252
  12855.222  12855.200  0.500  0.586777  49.830932  27.711809  12.420202
  12865.232  12865.200  0.500  0.583970  49.725247  27.730781  12.448011
  12875.252  12875.200  0.500  0.581315  49.552548  27.707942  12.460399
  12885.272  12885.200  0.500  0.578633  49.490932  27.747798  12.498452
  12895.200  12895.200  0.500  0.576058  49.364959  27.748538  12.520007
  12905.208  12905.200  0.500  0.573430  49.245461  27.754204  12.540204
  12915.204  12915.200  0.500  0.570907  48.617562  27.469552  12.431612
  12925.243  12925.200  0.500  0.568423  48.992850  27.750441  12.580765
  12935.263  12935.200  0.500  0.566067  48.897725  27.761888  12.602338
  12945.298  12945.200  0.500  0.563769  48.716595  27.722667  12.601583
  12955.319  12955.200  0.500  0.561667  48.441370  27.624069  12.573590
  12965.173  12965.200  0.500  0.559813  48.515920  27.717914  12.629250
  12975.189  12975.200  0.500  0.558293  48.363263  27.672719  12.618375
  12985.213  12985.200  0.500  0.557416  48.280105  27.649389  12.614400
  12995.194  12995.200  0.500  0.557625  48.158543  27.574011  12.576423
  13005.176  13005.200  0.500  0.559558  48.054318  27.461197  12.501688
  13007.132  13007.200  0.500  0.560375  48.032750  27.426448  12.480118
  13009.132  13009.200  0.500  0.561324  48.003382  27.383693  12.449548
  13011.148  13011.200  0.500  0.562670  47.984011  27.335815  12.417034
  13013.149  13013.200  0.500  0.564054  47.956252  27.282222  12.375259
  13015.144  13015.200  0.500  0.566004  47.928402  27.213255  12.327929
  13017.132  13017.200  0.500  0.568293  47.908731  27.139907  12.273470
  13019.128  13019.200  0.500  0.571225  47.885227  27.047161  12.203683
  13021.147  13021.200  0.500  0.574905  47.862510  26.935032  12.118667
  13023.159  13023.200  0.500  0.579691  47.835525  26.791307  12.007902
  13025.172  13025.200  0.500  0.586086  47.813946  26.608506  11.866985
  13025.446  13025.500  0.500  0.586998  47.806213  26.579951  11.844230
  13025.734  13025.800  0.500  0.588437  47.807930  26.542693  11.819331
  13026.052  13026.100  0.500  0.589576  47.798343  26.507160  11.788996
  13026.356  13026.400  0.500  0.590925  47.796749  26.470548  11.760306
  13026.652  13026.700  0.500  0.592275  47.790392  26.431330  11.730904
  13026.948  13027.000  0.500  0.593689  47.786299  26.391713  11.699020
  13027.252  13027.300  0.500  0.595173  47.781908  26.350160  11.665320
  13027.563  13027.600  0.500  0.596912  47.779399  26.302986  11.631635
  13027.837  13027.900  0.500  0.598499  47.772443  26.257455  11.596819
  13028.155  13028.200  0.500  0.600218  47.767900  26.209873  11.559203
  13028.458  13028.500  0.500  0.602315  47.764729  26.153234  11.516809
  13028.769  13028.800  0.500  0.604345  47.759337  26.097235  11.473623
  13029.051  13029.100  0.500  0.606290  47.753475  26.043328  11.430113
  13029.347  13029.400  0.500  0.608669  47.752026  25.980661  11.380858
  13029.658  13029.700  0.500  0.611193  47.749268  25.913683  11.328439
  13029.962  13030.000  0.500  0.613796  47.745199  25.844109  11.274772
  13030.251  13030.300  0.500  0.616591  47.740435  25.769407  11.219526
  13030.547  13030.600  0.500  0.619681  47.736107  25.687570  11.154063
  13030.865  13030.900  0.500  0.623023  47.729621  25.598388  11.084378
  13031.169  13031.200  0.500  0.626740  47.729060  25.503100  11.009744
  13031.451  13031.500  0.500  0.630498  47.721675  25.403531  10.934211
  13031.754  13031.800  0.500  0.634706  47.716810  25.294256  10.849319
  13032.080  13032.100  0.500  0.639391  47.713272  25.174181  10.755613
  13032.384  13032.400  0.500  0.644614  47.713513  25.043151  10.655087
  13032.673  13032.700  0.500  0.649720  47.701084  24.909132  10.554648
  13032.962  13033.000  0.500  0.655972  47.698344  24.752444  10.434666
  13033.273  13033.300  0.500  0.662780  47.698239  24.584468  10.306100
  13033.584  13033.600  0.500  0.669967  47.695079  24.406793  10.172813
  13033.881  13033.900  0.500  0.677502  47.686210  24.219061  10.036447
  13034.177  13034.200  0.500  0.685871  47.686133  24.017180  9.887588
  13034.481  13034.500  0.500  0.694992  47.677860  23.795000  9.724072
  13034.793  13034.800  0.500  0.704877  47.673725  23.558883  9.557337
  13035.089  13035.100  0.500  0.714908  47.842327  23.406252  9.424502
  13035.393  13035.400  0.500  0.725968  47.835719  23.145608  9.241556
  13035.697  13035.700  0.500  0.737890  47.835559  22.871220  9.058174
  13036.001  13036.000  0.500  0.750087  47.830627  22.591619  8.868167
  13036.282  13036.300  0.500  0.762038  47.829738  22.322819  8.685819
  13036.586  13036.600  0.500  0.775159  47.821351  22.027972  8.492139
  13036.898  13036.900  0.500  0.788343  47.817228  21.737581  8.302054
  13037.202  13037.200  0.500  0.800936  47.816934  21.465432  8.121261
  13037.491  13037.500  0.500  0.812826  47.808527  21.207981  7.950542
  13037.802  13037.800  0.500  0.825589  47.805476  20.937694  7.771347
  13038.106  13038.100  0.500  0.837640  47.799652  20.684374  7.598425
  13038.403  13038.400  0.500  0.848566  47.797706  20.458777  7.443094
  13038.685  13038.700  0.500  0.859216  47.793987  20.240471  7.290166
  13038.989  13039.000  0.500  0.869727  47.790412  20.027340  7.136022
  13039.308  13039.300  0.500  0.880257  47.788489  19.816755  6.983472
  13039.590  13039.600  0.500  0.889702  47.778720  19.626447  6.841229
  13039.901  13039.900  0.500  0.899796  47.773658  19.427285  6.693292
  13040.205  13040.200  0.500  0.910408  47.769882  19.220696  6.536488
  13040.502  13040.500  0.500  0.920929  47.769866  19.019533  6.387028
  13040.799  13040.800  0.500  0.931828  47.764804  18.811358  6.235260
  13041.096  13041.100  0.500  0.943679  47.758437  18.587258  6.076034
  13041.392  13041.400  0.500  0.956304  47.758577  18.354132  5.913391
  13041.682  13041.700  0.500  0.969165  47.753976  18.117847  5.752365
  13041.986  13042.000  0.500  0.983134  47.749694  17.864912  5.589396
  13042.298  13042.300  0.500  0.999458  47.742093  17.572854  5.410191
  13042.595  13042.600  0.500  1.016207  47.743199  17.281384  5.238718
  13042.884  13042.900  0.500  1.033784  47.737606  16.978283  5.071829
  13043.181  13043.200  0.500  1.052667  47.731833  16.658683  4.902203
  13043.485  13043.500  0.500  1.073995  47.729790  16.306445  4.724286
  13043.775  13043.800  0.500  1.094957  47.724754  15.966509  4.560765
  13044.071  13044.100  0.500  1.117828  47.718690  15.603497  4.392784
  13044.398  13044.400  0.500  1.142871  47.716855  15.217006  4.220694
  13044.695  13044.700  0.500  1.167888  47.713406  14.839970  4.061114
  13044.999  13045.000  0.500  1.190930  47.706397  14.499805  3.918654
  13045.281  13045.300  0.500  1.215229  47.700384  14.149945  3.776999
  13045.593  13045.600  0.500  1.239731  47.697901  13.806734  3.639778
  13045.898  13045.900  0.500  1.262106  47.696885  13.500947  3.519316
  13046.187  13046.200  0.500  1.282897  47.690616  13.221417  3.410082
  13046.506  13046.500  0.500  1.304400  47.686436  12.939010  3.299185
  13046.811  13046.800  0.500  1.322777  47.676500  12.700761  3.209086
  13047.108  13047.100  0.500  1.338798  47.669630  12.497092  3.130503
  13047.412  13047.400  0.500  1.354543  47.652974  12.297579  3.053785
  13047.702  13047.700  0.500  1.368724  47.640220  12.121170  2.988109
  13047.992  13048.000  0.500  1.380695  47.621769  11.972292  2.932268
  13048.296  13048.300  0.500  1.392204  47.603979  11.830876  2.881040
  13048.608  13048.600  0.500  1.402709  47.585155  11.702614  2.836133
  13048.920  13048.900  0.500  1.411808  47.578418  11.594974  2.798079
  13049.188  13049.200  0.500  1.419840  47.570981  11.500412  2.766552
  13049.514  13049.500  0.500  1.427795  47.569507  11.408936  2.736882
  13049.804  13049.800  0.500  1.435104  47.576948  11.327620  2.712309
  13050.109  13050.100  0.500  1.441703  47.584151  11.254825  2.692530
  13050.406  13050.400  0.500  1.448030  47.597181  11.186905  2.674063
  13050.718  13050.700  0.500  1.454264  47.610021  11.120373  2.656166
  13051.008  13051.000  0.500  1.459981  47.615134  11.058175  2.642847
  13051.298  13051.300  0.500  1.465566  47.620167  10.997745  2.628646
  13051.602  13051.600  0.500  1.471314  47.614783  10.933476  2.613474
  13051.892  13051.900  0.500  1.477196  47.611496  10.868605  2.599727
  13052.204  13052.200  0.500  1.482914  47.612859  10.806943  2.586208
  13052.487  13052.500  0.500  1.489287  47.606923  10.736951  2.571978
  13052.799  13052.800  0.500  1.495805  47.598549  10.665318  2.555619
  13053.089  13053.100  0.500  1.503094  47.600805  10.588368  2.539291
  13053.379  13053.400  0.500  1.509632  47.593274  10.517701  2.521771
  13053.676  13053.700  0.500  1.517264  47.584548  10.435822  2.502705
  13054.003  13054.000  0.500  1.526143  47.587118  10.344126  2.480552
  13054.278  13054.300  0.500  1.534064  47.579082  10.260787  2.459832
  13054.575  13054.600  0.500  1.543204  47.576391  10.166854  2.436856
  13054.903  13054.900  0.500  1.552972  47.570307  10.066742  2.412041
  13055.185  13055.200  0.500  1.562214  47.566795  9.973396  2.387235
  13055.483  13055.500  0.500  1.571756  47.562727  9.877835  2.360838
  13055.795  13055.800  0.500  1.581775  47.556223  9.778023  2.334327
  13056.100  13056.100  0.500  1.591628  47.554186  9.681740  2.308342
  13056.390  13056.400  0.500  1.600580  47.550465  9.594711  2.283191
  13056.695  13056.700  0.500  1.609843  47.542962  9.504739  2.256434
  13057.007  13057.000  0.500  1.619217  47.542471  9.415966  2.230686
  13057.297  13057.300  0.500  1.627618  47.531702  9.335080  2.205111
  13057.587  13057.600  0.500  1.635882  47.533200  9.258544  2.180323
  13057.907  13057.900  0.500  1.644165  47.526870  9.180944  2.154413
  13058.212  13058.200  0.500  1.652282  47.526263  9.106608  2.128979
  13058.502  13058.500  0.500  1.659439  47.524352  9.041298  2.105699
  13058.800  13058.800  0.500  1.666902  47.513775  8.972081  2.080935
  13059.112  13059.100  0.500  1.673755  47.510235  8.910142  2.056878
  13059.395  13059.400  0.500  1.679966  47.504107  8.853829  2.035069
  13059.700  13059.700  0.500  1.685833  47.499154  8.801121  2.013591
  13060.005  13060.000  0.500  1.691382  47.496047  8.751849  1.992882
  13060.221  13060.200  0.500  1.694457  47.490218  8.723899  1.980604
  13061.225  13061.190  0.500  1.706307  47.480819  8.619430  1.928773
  13062.215  13062.190  0.500  1.708586  47.464282  8.596809  1.904973
  13063.243  13063.210  0.500  1.700977  47.451247  8.660097  1.908285
  13064.285  13064.260  0.500  1.684504  47.442177  8.802249  1.937889
  13065.327  13065.320  0.500  1.662805  47.428835  8.992809  1.985205
  13066.400  13066.400  0.500  1.639863  47.414372  9.198706  2.039843
  13067.510  13067.500  0.500  1.618703  47.399421  9.392460  2.094492
  13068.612  13068.620  0.500  1.601673  47.382018  9.550270  2.141543
  13069.767  13069.760  0.500  1.588494  47.359915  9.672452  2.178959
  13070.930  13070.910  0.500  1.579810  47.314758  9.747509  2.200675
  13072.115  13072.090  0.500  1.574991  47.263581  9.784007  2.209317
  13073.308  13073.280  0.500  1.573466  47.270092  9.800287  2.211579
  13074.516  13074.500  0.500  1.574759  47.296021  9.792992  2.209157
  13075.739  13075.730  0.500  1.577757  47.282745  9.760942  2.201792
  13076.970  13076.980  0.500  1.581426  47.259177  9.720346  2.191161
  13078.261  13078.250  0.500  1.584530  47.247283  9.687781  2.184133
  13079.560  13079.540  0.500  1.586251  47.235382  9.668688  2.176518
  13080.866  13080.850  0.500  1.586942  47.218816  9.658620  2.169146
  13082.195  13082.180  0.500  1.586808  47.200303  9.656124  2.159762
  13083.569  13083.530  0.500  1.586856  47.184595  9.652448  2.149123
  13084.921  13084.900  0.500  1.586082  47.169401  9.656811  2.138880
  13086.303  13086.280  0.500  1.585020  47.148433  9.662775  2.130406
  13087.707  13087.690  0.500  1.584066  47.126774  9.667557  2.124821
  13089.112  13089.110  0.500  1.583706  47.108583  9.667297  2.122856
  13090.548  13090.550  0.500  1.584914  47.082628  9.650315  2.120304
  13092.043  13092.010  0.500  1.587748  47.040552  9.614405  2.117319
  13093.494  13093.490  0.500  1.592479  46.969676  9.554605  2.112010
  13095.012  13094.990  0.500  1.598559  46.995912  9.501994  2.106525
  13096.531  13096.510  0.500  1.605219  47.002219  9.440188  2.099969
  13098.073  13098.050  0.500  1.611778  46.983797  9.374799  2.090680
  13099.608  13099.610  0.500  1.617595  46.960474  9.315796  2.081675
  13101.180  13101.180  0.500  1.622215  46.928767  9.266596  2.076290
  13102.783  13102.780  0.500  1.625218  46.892962  9.231757  2.071651
  13104.416  13104.390  0.500  1.627317  46.881027  9.210053  2.068750
  13106.027  13106.030  0.500  1.628415  46.812343  9.186475  2.066502
  13107.706  13107.680  0.500  1.628088  46.835904  9.194098  2.066801
  13109.355  13109.350  0.500  1.627456  46.829769  9.198706  2.066552
  13111.050  13111.040  0.500  1.626000  46.809146  9.208055  2.066063
  13112.760  13112.750  0.500  1.624410  46.786090  9.218166  2.065040
  13114.478  13114.480  0.500  1.622009  46.761562  9.235480  2.064896
  13116.242  13116.230  0.500  1.619223  46.712649  9.251559  2.063496
  13118.028  13117.990  0.500  1.615799  46.642922  9.269434  2.064737
  13119.793  13119.780  0.500  1.611909  46.686718  9.314300  2.073691
  13121.573  13121.580  0.500  1.607919  46.673064  9.348801  2.081323
  13123.414  13123.410  0.500  1.603993  46.647113  9.380358  2.091413
  13125.255  13125.250  0.500  1.600993  46.610703  9.401203  2.099640
  13127.142  13127.110  0.500  1.598294  46.590306  9.422484  2.108344
  13129.022  13128.990  0.500  1.596347  46.577554  9.438260  2.116657
  13130.917  13130.890  0.500  1.594235  46.547277  9.452063  2.122844
  13132.798  13132.810  0.500  1.592216  46.501216  9.461798  2.128652
  13134.740  13134.750  0.500  1.590433  46.496637  9.477751  2.133538
  13136.705  13136.710  0.500  1.589095  46.477168  9.486469  2.137638
  13138.693  13138.680  0.500  1.587809  46.457664  9.494684  2.140344
  13140.697  13140.680  0.500  1.586507  46.432648  9.501942  2.143012
  13142.709  13142.690  0.500  1.585117  46.408760  9.510262  2.145393
  13144.721  13144.720  0.500  1.584084  46.382287  9.514658  2.147907
  13146.787  13146.780  0.500  1.583137  46.356726  9.518427  2.148600
  13148.877  13148.850  0.500  1.582638  46.332631  9.518231  2.149955
  13150.967  13150.940  0.500  1.582340  46.302243  9.514816  2.148158
  13153.072  13153.050  0.500  1.582356  46.265608  9.507141  2.147539
  13155.179  13155.180  0.500  1.582682  46.253178  9.501489  2.146616
  13157.316  13157.320  0.500  1.583402  46.226180  9.489102  2.145222
  13159.507  13159.490  0.500  1.584102  46.201586  9.477421  2.143303
  13161.706  13161.680  0.500  1.584883  46.176683  9.464913  2.140207
  13163.921  13163.880  0.500  1.585795  46.150881  9.451004  2.138380
  13166.122  13166.100  0.500  1.586495  46.122803  9.438647  2.137287
  13168.369  13168.350  0.500  1.586596  46.043447  9.421450  2.133885
  13170.646  13170.610  0.500  1.586779  46.062357  9.423602  2.135930
  13172.918  13172.890  0.500  1.586517  46.039350  9.421356  2.136708
  13175.212  13175.190  0.500  1.586250  46.017552  9.419418  2.137218
  13177.530  13177.510  0.500  1.585315  45.992610  9.423113  2.139312
  13179.849  13179.850  0.500  1.584156  45.960458  9.427445  2.140549
  13182.207  13182.200  0.500  1.582886  45.933461  9.433883  2.144060
  13184.619  13184.580  0.500  1.581342  45.902126  9.442015  2.146860
  13187.001  13186.970  0.500  1.579956  45.875849  9.449699  2.149581
  13189.399  13189.390  0.500  1.578688  45.849483  9.456253  2.152171
  13191.829  13191.820  0.500  1.577424  45.816405  9.461375  2.155876
  13194.297  13194.270  0.500  1.576165  45.785317  9.466875  2.159035
  13196.774  13196.750  0.500  1.574982  45.754019  9.471599  2.161539
  13199.259  13199.240  0.500  1.574082  45.725588  9.474233  2.163301
  13201.761  13201.750  0.500  1.572964  45.694320  9.478345  2.166559
  13204.279  13204.270  0.500  1.572185  45.667860  9.480237  2.168349
  13206.859  13206.820  0.500  1.571142  45.636963  9.483712  2.170603
  13209.416  13209.390  0.500  1.569975  45.602716  9.487665  2.172688
  13211.960  13211.970  0.500  1.568841  45.571581  9.491941  2.175180
  13214.596  13214.580  0.500  1.567624  45.538015  9.496497  2.177050
  13217.226  13217.200  0.500  1.566313  45.508039  9.502704  2.180128
  13219.864  13219.850  0.500  1.565180  45.475994  9.506772  2.180875
  13222.526  13222.510  0.500  1.563922  45.439288  9.511061  2.182750
  13225.204  13225.190  0.500  1.562729  45.385642  9.511171  2.183888
  13227.914  13227.890  0.500  1.561384  45.365072  9.519652  2.186315
  13230.641  13230.610  0.500  1.560291  45.339916  9.524781  2.186829
  13233.338  13233.350  0.500  1.559180  45.313811  9.529873  2.190241
  13236.097  13236.100  0.500  1.557867  45.271693  9.533533  2.191917
  13238.896  13238.880  0.500  1.556836  45.239239  9.536526  2.192982
  13241.688  13241.670  0.500  1.556157  45.202941  9.535346  2.193666
  13244.490  13244.490  0.500  1.555478  45.317596  9.566019  2.201491
  13247.346  13247.320  0.500  1.555128  45.282533  9.561964  2.202993
  13250.195  13250.170  0.500  1.554633  45.238870  9.557472  2.203303
  13253.061  13253.050  0.500  1.554575  45.194071  9.548563  2.202859
  13255.936  13255.940  0.500  1.554449  45.153080  9.541102  2.202510
  13258.866  13258.850  0.500  1.554405  45.097437  9.529768  2.202182
  13261.790  13261.770  0.500  1.554256  45.044434  9.519985  2.201094
  13264.723  13264.720  0.500  1.554125  44.984171  9.508500  2.199245
  13267.695  13267.690  0.500  1.554164  44.898343  9.489984  2.196842
  13270.707  13270.670  0.500  1.553873  44.742115  9.459711  2.191085
  13273.698  13273.680  0.500  1.553510  44.441307  9.399527  2.177385
  13276.712  13276.700  0.500  1.552760  44.299726  9.376611  2.174404
  13279.767  13279.750  0.500  1.551748  44.323152  9.391071  2.177852
  13282.831  13282.810  0.500  1.550223  44.275543  9.395302  2.180163
