# XDI/1.0 BlueSky/1.10.0 BMM/2023-1.0-py310-tiled
# Beamline.name: BMM (06BM) -- Beamline for Materials Measurement (NIST)
# Beamline.xray_source: NSLS-II three-pole wiggler
# Beamline.collimation: paraboloid mirror, 5 nm Rh on 30 nm Pt
# Beamline.focusing: not in use
# Beamline.harmonic_rejection: flat mirror, Pt stripe, pitch = 7.0 mrad relative to beam
# Beamline.software: Bluesky 1.10.0, Ophyd 1.7.0, DataBroker 2.0.0b13, Python 3.10.8, 2023-1.0-py310-tiled
# Detector.I0: 10 cm N2
# Detector.I1: 25 cm N2
# Detector.I2: 25 cm N2
# Element.symbol: Pb
# Element.edge: L1
# Element.reference: Pb
# Element.reference_material: Pb foil
# Facility.name: NSLS-II
# Facility.energy: 3.0
# Facility.current: 399.5
# Facility.mode: top-off
# Facility.GUP: 301027
# Facility.SAF: 310583
# Facility.cycle: 2023-2
# Mono.name: Si(111)
# Mono.d_spacing: 3.1351860
# Mono.encoder_resolution: 0.0000050 deg/ct
# Mono.angle_offset: 16.0754326 deg
# Mono.scan_mode: pseudo channel cut
# Mono.scan_type: step
# Mono.direction: forward in energy
# Sample.name: PbO
# Sample.prep: powder on tape
# Sample.x: 143.785 mm
# Sample.y: 114.695 mm
# Sample.SDD_position: 205.000 mm
# Scan.experimenters: Bruce Ravel
# Scan.edge_energy: 15860.8
# Scan.start_time: 2023-06-23T17:55:12
# Scan.end_time: 2023-06-23T18:02:38
# Scan.transient_id: 84916
# Scan.uid: 8301707e-ea06-4c1d-97f1-d206bf05cb18
# Scan.plot_hint: ln(I0/It)  --  ln($5/$6)
# Column.1: energy eV
# Column.2: requested_energy eV
# Column.3: measurement_time seconds
# Column.4: xmu 
# Column.5: I0 nA
# Column.6: It nA
# Column.7: Ir nA
# ///////////
# BMM standards collection
# -----------
# energy  requested_energy  measurement_time  xmu  I0  It  Ir
  15660.720  15660.800  0.500  1.255975  24.751539  7.049186  1.961388
  15670.755  15670.800  0.500  1.253140  24.606528  7.027786  1.958341
  15680.739  15680.800  0.500  1.250834  24.617297  7.047094  1.968459
  15690.746  15690.800  0.500  1.248507  24.580045  7.052826  1.973219
  15701.619  15700.800  0.500  1.245842  24.507713  7.050837  1.976608
  15710.994  15710.800  0.500  1.243099  24.405659  7.040759  1.976315
  15720.792  15720.800  0.500  1.240503  24.404886  7.058838  1.984939
  15730.764  15730.800  0.500  1.237683  24.342525  7.060682  1.988592
  15740.782  15740.800  0.500  1.235330  24.292515  7.062778  1.992559
  15750.769  15750.800  0.500  1.232902  24.225746  7.060487  1.994839
  15760.802  15760.800  0.500  1.230704  24.165968  7.058564  1.997581
  15770.782  15770.800  0.500  1.228611  24.116183  7.058776  1.999339
  15780.774  15780.800  0.500  1.226997  24.062140  7.054336  2.001124
  15790.813  15790.800  0.500  1.225443  24.002536  7.047806  2.002742
  15800.798  15800.800  0.500  1.224140  23.944311  7.039877  2.000895
  15810.775  15810.800  0.500  1.223711  23.888098  7.026364  1.998927
  15820.819  15820.800  0.500  1.224080  23.829652  7.006586  1.991593
  15830.788  15830.800  0.500  1.226678  23.768493  6.970470  1.977236
  15832.741  15832.800  0.500  1.227992  23.757724  6.958162  1.973298
  15834.750  15834.800  0.500  1.229180  23.750835  6.947889  1.968322
  15836.749  15836.800  0.500  1.230943  23.740435  6.932616  1.962293
  15838.748  15838.800  0.500  1.232781  23.724365  6.915197  1.954730
  15840.780  15840.800  0.500  1.235535  23.715214  6.893517  1.945423
  15842.769  15842.800  0.500  1.238654  23.701616  6.868109  1.934318
  15844.748  15844.800  0.500  1.242615  23.685842  6.836409  1.920035
  15846.727  15846.800  0.500  1.247653  23.674440  6.798777  1.902540
  15848.729  15848.800  0.500  1.254856  23.667360  6.747967  1.879258
  15850.742  15850.800  0.500  1.264683  23.641900  6.674792  1.846969
  15851.006  15851.100  0.500  1.266302  23.638249  6.662963  1.841642
  15851.314  15851.400  0.500  1.267936  23.633440  6.650731  1.835810
  15851.600  15851.700  0.500  1.269797  23.633048  6.638252  1.830000
  15851.919  15852.000  0.500  1.271928  23.633139  6.624150  1.824447
  15852.227  15852.300  0.500  1.274114  23.630055  6.608824  1.816582
  15852.535  15852.600  0.500  1.276618  23.628769  6.591934  1.809584
  15852.854  15852.900  0.500  1.278640  23.628656  6.578589  1.802880
  15853.141  15853.200  0.500  1.281138  23.630782  6.562766  1.795699
  15853.449  15853.500  0.500  1.283881  23.627944  6.544004  1.787581
  15853.735  15853.800  0.500  1.286392  23.629336  6.527974  1.779976
  15854.043  15854.100  0.500  1.289291  23.630436  6.509381  1.771742
  15854.373  15854.400  0.500  1.292249  23.628763  6.489697  1.762207
  15854.670  15854.700  0.500  1.295271  23.623459  6.468659  1.752625
  15854.946  15855.000  0.500  1.298954  23.627692  6.446038  1.742435
  15855.254  15855.300  0.500  1.302185  23.627436  6.425173  1.732525
  15855.562  15855.600  0.500  1.306160  23.626199  6.399351  1.721251
  15855.870  15855.900  0.500  1.310212  23.622445  6.372458  1.709324
  15856.179  15856.200  0.500  1.314554  23.618873  6.343889  1.696102
  15856.487  15856.500  0.500  1.319096  23.618609  6.315070  1.683775
  15856.784  15856.800  0.500  1.323928  23.619388  6.284840  1.670456
  15857.070  15857.100  0.500  1.328613  23.613207  6.253826  1.656650
  15857.368  15857.400  0.500  1.333826  23.612503  6.221123  1.641811
  15857.676  15857.700  0.500  1.339598  23.607087  6.183899  1.626498
  15857.962  15858.000  0.500  1.345423  23.602828  6.146875  1.610102
  15858.282  15858.300  0.500  1.351654  23.599748  6.107892  1.593125
  15858.579  15858.600  0.500  1.358102  23.597930  6.068168  1.576883
  15858.887  15858.900  0.500  1.364583  23.598741  6.029178  1.558973
  15859.174  15859.200  0.500  1.371585  23.596022  5.986419  1.541837
  15859.493  15859.500  0.500  1.378964  23.592291  5.941465  1.522634
  15859.802  15859.800  0.500  1.386599  23.588401  5.895302  1.503793
  15860.088  15860.100  0.500  1.394113  23.589187  5.851365  1.485899
  15860.396  15860.400  0.500  1.401249  23.587030  5.809232  1.468876
  15860.661  15860.700  0.500  1.408368  23.587020  5.768020  1.452314
  15860.969  15861.000  0.500  1.416293  23.587942  5.722710  1.434695
  15861.278  15861.300  0.500  1.423785  23.679846  5.702125  1.422618
  15861.586  15861.600  0.500  1.431334  23.677519  5.658687  1.405821
  15861.873  15861.900  0.500  1.438188  23.675261  5.619499  1.391001
  15862.170  15862.200  0.500  1.444538  23.675648  5.584021  1.377222
  15862.468  15862.500  0.500  1.451090  23.670709  5.546394  1.363763
  15862.765  15862.800  0.500  1.457123  23.670078  5.512886  1.351750
  15863.096  15863.100  0.500  1.463233  23.664594  5.478040  1.338957
  15863.382  15863.400  0.500  1.468293  23.667332  5.451018  1.329541
  15863.680  15863.700  0.500  1.472471  23.663515  5.427419  1.320924
  15863.955  15864.000  0.500  1.476648  23.662968  5.404672  1.313494
  15864.275  15864.300  0.500  1.480276  23.659441  5.384293  1.306958
  15864.572  15864.600  0.500  1.483394  23.658231  5.367257  1.301026
  15864.892  15864.900  0.500  1.485848  23.654034  5.353151  1.296408
  15865.168  15865.200  0.500  1.487569  23.652392  5.343575  1.293888
  15865.443  15865.500  0.500  1.488976  23.651112  5.335775  1.292216
  15865.752  15865.800  0.500  1.490350  23.650436  5.328296  1.290807
  15866.071  15866.100  0.500  1.490653  23.648106  5.326160  1.290319
  15866.402  15866.400  0.500  1.490449  23.642459  5.325971  1.290868
  15866.678  15866.700  0.500  1.490252  23.642231  5.326969  1.292602
  15866.964  15867.000  0.500  1.489454  23.641112  5.330972  1.294355
  15867.284  15867.300  0.500  1.488285  23.642308  5.337476  1.297505
  15867.582  15867.600  0.500  1.486953  23.637324  5.343463  1.299819
  15867.890  15867.900  0.500  1.484914  23.630899  5.352915  1.303406
  15868.177  15868.200  0.500  1.482863  23.629458  5.363580  1.308441
  15868.486  15868.500  0.500  1.480938  23.629633  5.373952  1.312199
  15868.773  15868.800  0.500  1.478873  23.629693  5.385075  1.316392
  15869.081  15869.100  0.500  1.476357  23.623623  5.397254  1.321488
  15869.401  15869.400  0.500  1.473691  23.623135  5.411550  1.326185
  15869.710  15869.700  0.500  1.471285  23.622930  5.424540  1.330652
  15869.986  15870.000  0.500  1.468642  23.617186  5.437571  1.334923
  15870.272  15870.300  0.500  1.466691  23.617016  5.448154  1.339459
  15870.603  15870.600  0.500  1.464136  23.613185  5.461204  1.343202
  15870.912  15870.900  0.500  1.461605  23.616515  5.475815  1.347802
  15871.221  15871.200  0.500  1.459583  23.608290  5.484986  1.351929
  15871.497  15871.500  0.500  1.457564  23.610704  5.496636  1.355467
  15871.795  15871.800  0.500  1.455360  23.603184  5.507010  1.358365
  15872.103  15872.100  0.500  1.453600  23.600701  5.516130  1.362265
  15872.434  15872.400  0.500  1.451520  23.597533  5.526871  1.364909
  15872.710  15872.700  0.500  1.450105  23.601245  5.535570  1.367784
  15873.008  15873.000  0.500  1.448329  23.594454  5.543813  1.369445
  15873.295  15873.300  0.500  1.446939  23.590973  5.550706  1.372078
  15873.626  15873.600  0.500  1.445532  23.587757  5.557764  1.374081
  15873.913  15873.900  0.500  1.444303  23.580695  5.562934  1.375553
  15874.233  15874.200  0.500  1.442862  23.582133  5.571297  1.377144
  15874.498  15874.500  0.500  1.441775  23.580599  5.576991  1.378885
  15874.785  15874.800  0.500  1.440801  23.577728  5.581747  1.379742
  15875.094  15875.100  0.500  1.439341  23.572420  5.588641  1.380093
  15875.436  15875.400  0.500  1.438309  23.575568  5.595161  1.382946
  15875.723  15875.700  0.500  1.437334  23.575082  5.600500  1.384323
  15875.999  15876.000  0.500  1.436480  23.571903  5.604530  1.384805
  15876.297  15876.300  0.500  1.435501  23.571429  5.609907  1.385681
  15876.606  15876.600  0.500  1.434404  23.565784  5.614721  1.385867
  15876.915  15876.900  0.500  1.433290  23.568525  5.621630  1.387726
  15877.224  15877.200  0.500  1.432301  23.563091  5.625900  1.388391
  15877.500  15877.500  0.500  1.431477  23.559111  5.629582  1.388723
  15877.776  15877.800  0.500  1.430461  23.559145  5.635317  1.390239
  15878.096  15878.100  0.500  1.429358  23.558786  5.641451  1.391233
  15878.405  15878.400  0.500  1.428177  23.552373  5.646576  1.392086
  15878.714  15878.700  0.500  1.427513  23.552554  5.650372  1.393169
  15879.001  15879.000  0.500  1.426792  23.554745  5.654972  1.394125
  15879.288  15879.300  0.500  1.425583  23.550974  5.660906  1.395313
  15879.576  15879.600  0.500  1.424705  23.548998  5.665406  1.396277
  15879.896  15879.900  0.500  1.423473  23.542757  5.670887  1.396759
  15880.183  15880.200  0.500  1.422743  23.543141  5.675119  1.397956
  15880.492  15880.500  0.500  1.421829  23.543342  5.680360  1.399560
  15880.757  15880.800  0.500  1.421149  23.541805  5.683852  1.400842
  15881.089  15881.100  0.500  1.419995  23.535057  5.688780  1.402147
  15881.398  15881.400  0.500  1.419202  23.533390  5.692890  1.402747
  15881.707  15881.700  0.500  1.418123  23.533328  5.699024  1.404509
  15881.983  15882.000  0.500  1.417286  23.532175  5.703517  1.406089
  15882.281  15882.300  0.500  1.416594  23.530003  5.706938  1.406704
  15882.591  15882.600  0.500  1.415792  23.529268  5.711335  1.408989
  15882.878  15882.900  0.500  1.415222  23.527713  5.714218  1.410338
  15883.176  15883.200  0.500  1.414375  23.527075  5.718905  1.411636
  15883.474  15883.500  0.500  1.413868  23.518345  5.719681  1.412274
  15883.773  15883.800  0.500  1.413237  23.520381  5.723783  1.413792
  15884.082  15884.100  0.500  1.412614  23.516582  5.726425  1.415111
  15884.403  15884.400  0.500  1.411881  23.514909  5.730216  1.416823
  15884.712  15884.700  0.500  1.411076  23.511557  5.734017  1.417216
  15884.999  15885.000  0.500  1.410721  23.510126  5.735704  1.418794
  15885.275  15885.300  0.500  1.410522  23.509585  5.736714  1.420076
  15885.596  15885.600  0.500  1.410302  23.509324  5.737909  1.420865
  15885.806  15885.800  0.500  1.409822  23.510508  5.740956  1.422221
  15886.801  15886.790  0.500  1.409335  23.503423  5.742019  1.424159
  15887.817  15887.790  0.500  1.408590  23.496166  5.744527  1.425210
  15888.834  15888.810  0.500  1.409113  23.490626  5.740169  1.425886
  15889.896  15889.860  0.500  1.409528  23.478193  5.734748  1.424890
  15890.946  15890.920  0.500  1.410898  23.475844  5.726326  1.422694
  15892.041  15892.000  0.500  1.412854  23.468329  5.713307  1.419572
  15893.136  15893.100  0.500  1.415242  23.459157  5.697448  1.415819
  15894.242  15894.220  0.500  1.417457  23.455148  5.683874  1.411899
  15895.371  15895.360  0.500  1.419707  23.449676  5.669778  1.407433
  15896.511  15896.510  0.500  1.421760  23.440341  5.655897  1.402327
  15897.695  15897.690  0.500  1.423640  23.437458  5.644580  1.398865
  15898.901  15898.880  0.500  1.424735  23.429087  5.636385  1.395804
  15900.108  15900.100  0.500  1.425186  23.418220  5.631235  1.393743
  15901.359  15901.330  0.500  1.425744  23.414285  5.627143  1.391725
  15902.588  15902.580  0.500  1.425806  23.404103  5.624352  1.390286
  15903.862  15903.850  0.500  1.425575  23.394634  5.623373  1.389960
  15905.147  15905.140  0.500  1.425533  23.383346  5.620898  1.390786
  15906.465  15906.450  0.500  1.425299  23.378282  5.620995  1.390907
  15907.806  15907.780  0.500  1.425019  23.363257  5.618954  1.392499
  15909.158  15909.130  0.500  1.424979  23.346896  5.615247  1.393369
  15910.533  15910.500  0.500  1.424445  23.272303  5.600290  1.390291
  15911.874  15911.880  0.500  1.424059  23.122769  5.566457  1.383155
  15913.293  15913.290  0.500  1.424155  23.186263  5.581206  1.389480
  15914.702  15914.710  0.500  1.423625  23.313812  5.614884  1.398715
  15916.166  15916.150  0.500  1.422799  23.336432  5.624976  1.401061
  15917.620  15917.610  0.500  1.421896  23.321734  5.626512  1.402349
  15919.118  15919.090  0.500  1.420996  23.314705  5.629880  1.403202
  15920.616  15920.590  0.500  1.419870  23.306977  5.634357  1.403931
  15922.137  15922.110  0.500  1.418766  23.298043  5.638418  1.404895
  15923.680  15923.650  0.500  1.417472  23.286231  5.642856  1.405513
  15925.246  15925.210  0.500  1.416076  23.278758  5.648927  1.407322
  15926.768  15926.780  0.500  1.414417  23.265066  5.654974  1.408225
  15928.379  15928.380  0.500  1.413026  23.255499  5.660516  1.409657
  15929.979  15929.990  0.500  1.411922  23.247208  5.664751  1.411134
  15931.624  15931.630  0.500  1.410665  23.237402  5.669483  1.412470
  15933.291  15933.280  0.500  1.409257  23.223958  5.674188  1.414235
  15934.970  15934.950  0.500  1.408422  23.212984  5.676244  1.415392
  15936.683  15936.640  0.500  1.407778  23.202532  5.677346  1.416839
  15938.351  15938.350  0.500  1.406722  23.193711  5.681181  1.417682
  15940.098  15940.080  0.500  1.406092  23.182780  5.682083  1.419617
  15941.845  15941.830  0.500  1.405947  23.169013  5.679532  1.419340
  15943.615  15943.590  0.500  1.405580  23.158454  5.679029  1.419727
  15945.385  15945.380  0.500  1.405353  23.142754  5.676465  1.420685
  15947.156  15947.180  0.500  1.405503  23.116155  5.669089  1.419803
  15948.994  15949.010  0.500  1.405088  22.961600  5.633523  1.411132
  15950.899  15950.850  0.500  1.405388  22.952291  5.629552  1.411513
  15952.749  15952.710  0.500  1.405183  23.099556  5.666830  1.420271
  15954.599  15954.590  0.500  1.405087  23.106354  5.669042  1.421670
  15956.517  15956.490  0.500  1.404915  23.094853  5.667200  1.422140
  15958.435  15958.410  0.500  1.404166  23.079897  5.667773  1.421812
  15960.353  15960.350  0.500  1.403526  23.067066  5.668245  1.422469
  15962.295  15962.310  0.500  1.403355  23.060050  5.667494  1.422697
  15964.292  15964.280  0.500  1.402747  23.047877  5.667945  1.422627
  15966.268  15966.280  0.500  1.402014  23.033143  5.668474  1.423286
  15968.311  15968.290  0.500  1.402005  23.026029  5.666776  1.424180
  15970.344  15970.320  0.500  1.401331  23.011261  5.666960  1.425015
  15972.400  15972.380  0.500  1.400878  22.997218  5.666066  1.425142
  15974.489  15974.450  0.500  1.400115  22.979998  5.666143  1.426322
  15976.512  15976.540  0.500  1.399910  22.971014  5.665091  1.426794
  15978.636  15978.650  0.500  1.399302  22.950823  5.663553  1.426650
  15980.784  15980.780  0.500  1.398591  22.934464  5.663542  1.427333
  15982.942  15982.920  0.500  1.398168  22.907291  5.659226  1.427536
  15985.102  15985.090  0.500  1.396945  22.732345  5.622877  1.418877
  15987.318  15987.280  0.500  1.396612  22.797099  5.640775  1.424800
  15989.501  15989.480  0.500  1.395471  22.905751  5.674131  1.433329
  15991.730  15991.700  0.500  1.394448  22.898118  5.678044  1.435137
  15993.936  15993.950  0.500  1.393586  22.881883  5.678909  1.435955
  15996.233  15996.210  0.500  1.392269  22.864600  5.682098  1.437582
  15998.497  15998.490  0.500  1.391459  22.850687  5.683244  1.438617
  16000.829  16000.790  0.500  1.390361  22.832458  5.684948  1.439240
  16003.151  16003.110  0.500  1.389407  22.817049  5.686534  1.440535
  16005.473  16005.450  0.500  1.388281  22.805023  5.689940  1.441809
  16007.784  16007.800  0.500  1.387646  22.789616  5.689710  1.442572
  16010.186  16010.180  0.500  1.387055  22.779695  5.690594  1.443651
  16012.589  16012.570  0.500  1.386244  22.764334  5.691370  1.444401
  16015.004  16014.990  0.500  1.385482  22.747202  5.691420  1.446402
  16017.453  16017.420  0.500  1.384949  22.730430  5.690260  1.447356
  16019.925  16019.870  0.500  1.383972  22.710073  5.690718  1.446785
  16022.365  16022.350  0.500  1.383016  22.672783  5.686810  1.446810
  16024.816  16024.840  0.500  1.382562  22.457211  5.635296  1.433974
  16027.347  16027.350  0.500  1.381408  22.588665  5.674826  1.444902
  16029.901  16029.870  0.500  1.380759  22.622531  5.687028  1.449478
  16032.456  16032.420  0.500  1.380010  22.639558  5.695569  1.452473
  16035.012  16034.990  0.500  1.379249  22.642288  5.700596  1.454506
  16037.569  16037.570  0.500  1.378247  22.632972  5.703961  1.455263
  16040.183  16040.180  0.500  1.377745  22.614702  5.702216  1.455909
  16042.809  16042.800  0.500  1.376813  22.598644  5.703484  1.456493
  16045.470  16045.450  0.500  1.376203  22.584902  5.703491  1.457711
  16048.131  16048.110  0.500  1.375181  22.559477  5.702899  1.458005
  16050.816  16050.790  0.500  1.374690  22.550008  5.703304  1.459931
  16053.514  16053.490  0.500  1.374163  22.538376  5.703367  1.460636
  16056.223  16056.210  0.500  1.373322  22.525971  5.705021  1.461735
  16058.967  16058.950  0.500  1.372324  22.508007  5.706165  1.462228
  16061.724  16061.700  0.500  1.371884  22.493370  5.704964  1.463694
  16064.504  16064.480  0.500  1.371151  22.474781  5.704427  1.463825
  16067.296  16067.270  0.500  1.370289  22.459015  5.705343  1.464293
  16070.112  16070.090  0.500  1.369555  22.441234  5.705011  1.465698
  16072.906  16072.920  0.500  1.368850  22.422118  5.704170  1.466421
  16075.792  16075.770  0.500  1.368023  22.374866  5.696859  1.464974
  16078.679  16078.650  0.500  1.367039  22.435176  5.717842  1.471337
  16081.556  16081.540  0.500  1.366265  22.440827  5.723711  1.473703
  16084.467  16084.450  0.500  1.365627  22.430228  5.724654  1.474974
  16087.380  16087.370  0.500  1.364561  22.409713  5.725523  1.475801
  16090.339  16090.320  0.500  1.363684  22.394111  5.726555  1.477447
  16093.322  16093.290  0.500  1.362184  22.372362  5.729579  1.478553
  16096.295  16096.270  0.500  1.361400  22.360032  5.730913  1.479892
  16099.314  16099.280  0.500  1.360353  22.324099  5.727699  1.480063
  16102.300  16102.300  0.500  1.359433  22.317860  5.731369  1.481998
  16105.367  16105.350  0.500  1.358309  22.310788  5.735996  1.484293
  16108.435  16108.410  0.500  1.356944  22.292561  5.739140  1.484804
  16111.527  16111.490  0.500  1.355967  22.273124  5.739738  1.486883
  16114.631  16114.590  0.500  1.355333  22.257116  5.739250  1.487855
