# XDI/1.0 BlueSky/1.10.0 BMM/2023-1.0-py310-tiled
# Beamline.name: BMM (06BM) -- Beamline for Materials Measurement (NIST)
# Beamline.xray_source: NSLS-II three-pole wiggler
# Beamline.collimation: paraboloid mirror, 5 nm Rh on 30 nm Pt
# Beamline.focusing: not in use
# Beamline.harmonic_rejection: flat mirror, Pt stripe, pitch = 7.0 mrad relative to beam
# Beamline.software: Bluesky 1.10.0, Ophyd 1.7.0, DataBroker 2.0.0b13, Python 3.10.8, 2023-1.0-py310-tiled
# Detector.I0: 10 cm N2
# Detector.I1: 25 cm N2
# Detector.I2: 25 cm N2
# Element.symbol: Pb
# Element.edge: L1
# Element.reference: Pb
# Element.reference_material: Pb foil
# Facility.name: NSLS-II
# Facility.energy: 3.0
# Facility.current: 399.0
# Facility.mode: top-off
# Facility.GUP: 301027
# Facility.SAF: 310583
# Facility.cycle: 2023-2
# Mono.name: Si(111)
# Mono.d_spacing: 3.1351860
# Mono.encoder_resolution: 0.0000050 deg/ct
# Mono.angle_offset: 16.0754326 deg
# Mono.scan_mode: pseudo channel cut
# Mono.scan_type: step
# Mono.direction: forward in energy
# Sample.name: PbCl
# Sample.prep: powder on tape
# Sample.x: 143.785 mm
# Sample.y: 114.695 mm
# Sample.SDD_position: 205.000 mm
# Scan.experimenters: Bruce Ravel
# Scan.edge_energy: 15860.8
# Scan.start_time: 2023-06-23T18:39:18
# Scan.end_time: 2023-06-23T18:47:14
# Scan.transient_id: 84941
# Scan.uid: 1954825a-70fe-498e-bb44-2ed6af995909
# Scan.plot_hint: ln(I0/It)  --  ln($5/$6)
# Column.1: energy eV
# Column.2: requested_energy eV
# Column.3: measurement_time seconds
# Column.4: xmu 
# Column.5: I0 nA
# Column.6: It nA
# Column.7: Ir nA
# ///////////
# BMM standards collection
# -----------
# energy  requested_energy  measurement_time  xmu  I0  It  Ir
  15660.849  15660.800  0.500  3.174105  24.708912  1.033611  0.287655
  15670.884  15670.800  0.500  3.169728  24.566151  1.032147  0.287948
  15680.965  15680.800  0.500  3.164307  24.572401  1.038022  0.289918
  15690.908  15690.800  0.500  3.159356  24.537394  1.041688  0.291932
  15700.896  15700.800  0.500  3.154115  24.474637  1.044483  0.293001
  15710.854  15710.800  0.500  3.149175  24.399540  1.046435  0.293805
  15720.868  15720.800  0.500  3.144626  24.352437  1.049177  0.295367
  15730.927  15730.800  0.500  3.139498  24.288771  1.051813  0.296437
  15740.836  15740.800  0.500  3.134391  24.238619  1.055017  0.297687
  15750.802  15750.800  0.500  3.130432  24.166217  1.056038  0.298558
  15760.856  15760.800  0.500  3.126757  24.111020  1.057505  0.299692
  15770.847  15770.800  0.500  3.122437  24.058462  1.059768  0.300468
  15780.851  15780.800  0.500  3.118671  23.998781  1.061128  0.301432
  15790.835  15790.800  0.500  3.115747  23.942175  1.061725  0.301981
  15800.842  15800.800  0.500  3.113914  23.882104  1.061004  0.301708
  15810.862  15810.800  0.500  3.112736  23.831320  1.059996  0.301505
  15820.852  15820.800  0.500  3.114138  23.865635  1.060035  0.301318
  15830.876  15830.800  0.500  3.120133  23.801159  1.050852  0.298315
  15832.807  15832.800  0.500  3.122767  23.790389  1.047614  0.297274
  15834.827  15834.800  0.500  3.125558  23.779508  1.044216  0.296115
  15836.804  15836.800  0.500  3.129774  23.768505  1.039342  0.294554
  15838.803  15838.800  0.500  3.134039  23.757540  1.034441  0.292641
  15840.791  15840.800  0.500  3.139529  23.744622  1.028217  0.290281
  15842.791  15842.800  0.500  3.146059  23.730264  1.020908  0.287613
  15844.803  15844.800  0.500  3.155998  23.714500  1.010139  0.283828
  15846.804  15846.800  0.500  3.167616  23.706027  0.998115  0.279654
  15848.795  15848.800  0.500  3.183349  23.693592  0.982019  0.273685
  15850.808  15850.800  0.500  3.204496  23.668421  0.960449  0.265484
  15851.050  15851.100  0.500  3.208413  23.662718  0.956463  0.264681
  15851.358  15851.400  0.500  3.212714  23.660943  0.952287  0.262847
  15851.644  15851.700  0.500  3.216978  23.653066  0.947920  0.261682
  15851.952  15852.000  0.500  3.221203  23.655856  0.944034  0.260054
  15852.260  15852.300  0.500  3.226396  23.654426  0.939088  0.258244
  15852.568  15852.600  0.500  3.231646  23.652747  0.934105  0.256773
  15852.854  15852.900  0.500  3.236385  23.651398  0.929635  0.254780
  15853.152  15853.200  0.500  3.241606  23.649684  0.924727  0.253145
  15853.471  15853.500  0.500  3.247224  23.651066  0.919600  0.251201
  15853.757  15853.800  0.500  3.253921  23.650878  0.913456  0.249616
  15854.043  15854.100  0.500  3.259826  23.650322  0.908056  0.247563
  15854.351  15854.400  0.500  3.266626  23.650921  0.901925  0.245052
  15854.659  15854.700  0.500  3.274521  23.649001  0.894759  0.242893
  15854.946  15855.000  0.500  3.281122  23.651196  0.888955  0.240488
  15855.265  15855.300  0.500  3.289907  23.647631  0.881048  0.237942
  15855.595  15855.600  0.500  3.299234  23.644859  0.872766  0.234847
  15855.859  15855.900  0.500  3.308127  23.644901  0.865040  0.232493
  15856.168  15856.200  0.500  3.318137  23.642330  0.856331  0.229660
  15856.487  15856.500  0.500  3.328375  23.640965  0.847560  0.226309
  15856.784  15856.800  0.500  3.338413  23.635052  0.838885  0.223215
  15857.081  15857.100  0.500  3.349583  23.632275  0.829469  0.219876
  15857.390  15857.400  0.500  3.362532  23.629783  0.818711  0.216570
  15857.698  15857.700  0.500  3.376386  23.627104  0.807355  0.212700
  15857.973  15858.000  0.500  3.388214  23.624622  0.797778  0.209218
  15858.293  15858.300  0.500  3.403025  23.622824  0.785990  0.205375
  15858.612  15858.600  0.500  3.418919  23.619998  0.773503  0.201262
  15858.898  15858.900  0.500  3.432909  23.611860  0.762494  0.197630
  15859.207  15859.200  0.500  3.448589  23.614544  0.750717  0.193499
  15859.515  15859.500  0.500  3.466419  23.612554  0.737389  0.189507
  15859.780  15859.800  0.500  3.481286  23.607829  0.726361  0.185542
  15860.099  15860.100  0.500  3.498585  23.602776  0.713752  0.181296
  15860.418  15860.400  0.500  3.517528  23.604517  0.700410  0.177340
  15860.694  15860.700  0.500  3.533689  23.602592  0.689125  0.173628
  15861.013  15861.000  0.500  3.551109  23.602474  0.677221  0.169773
  15861.322  15861.300  0.500  3.569040  23.601923  0.665171  0.166229
  15861.586  15861.600  0.500  3.583333  23.600419  0.655689  0.163062
  15861.906  15861.900  0.500  3.599694  23.598305  0.644991  0.159715
  15862.203  15862.200  0.500  3.614547  23.593863  0.635362  0.156799
  15862.479  15862.500  0.500  3.627233  23.594363  0.627366  0.154293
  15862.787  15862.800  0.500  3.639203  23.589987  0.619786  0.152243
  15863.085  15863.100  0.500  3.649921  23.593804  0.613278  0.149933
  15863.360  15863.400  0.500  3.657984  23.590022  0.608255  0.148134
  15863.680  15863.700  0.500  3.666335  23.589413  0.603182  0.146867
  15863.977  15864.000  0.500  3.672596  23.587028  0.599356  0.145777
  15864.275  15864.300  0.500  3.675524  23.579269  0.597408  0.144825
  15864.561  15864.600  0.500  3.678625  23.582081  0.595629  0.144576
  15864.870  15864.900  0.500  3.678737  23.579139  0.595488  0.144244
  15865.168  15865.200  0.500  3.677394  23.578148  0.596263  0.144173
  15865.509  15865.500  0.500  3.674638  23.570331  0.597710  0.144666
  15865.807  15865.800  0.500  3.670011  23.569972  0.600473  0.145087
  15866.082  15866.100  0.500  3.664871  23.566251  0.603472  0.146093
  15866.402  15866.400  0.500  3.657331  23.567402  0.608069  0.147323
  15866.667  15866.700  0.500  3.650699  23.563826  0.612023  0.148240
  15867.008  15867.000  0.500  3.641964  23.563213  0.617376  0.150011
  15867.306  15867.300  0.500  3.631902  23.561461  0.623573  0.151418
  15867.615  15867.600  0.500  3.623709  23.553580  0.628492  0.153047
  15867.913  15867.900  0.500  3.613275  23.556190  0.635155  0.154734
  15868.199  15868.200  0.500  3.605335  23.548301  0.640004  0.156115
  15868.508  15868.500  0.500  3.594720  23.551218  0.646913  0.157959
  15868.828  15868.800  0.500  3.584716  23.546784  0.653295  0.159774
  15869.103  15869.100  0.500  3.576825  23.543713  0.658385  0.161003
  15869.401  15869.400  0.500  3.569232  23.539179  0.663275  0.162820
  15869.710  15869.700  0.500  3.560084  23.538138  0.669341  0.163984
  15869.997  15870.000  0.500  3.552848  23.537633  0.674187  0.165206
  15870.328  15870.300  0.500  3.544381  23.527064  0.679615  0.166878
  15870.614  15870.600  0.500  3.539083  23.530559  0.683326  0.168243
  15870.890  15870.900  0.500  3.533976  23.533489  0.686910  0.169179
  15871.210  15871.200  0.500  3.527273  23.528327  0.691378  0.170080
  15871.475  15871.500  0.500  3.522965  23.526833  0.694319  0.171128
  15871.806  15871.800  0.500  3.518745  23.524752  0.697194  0.171800
  15872.103  15872.100  0.500  3.514712  23.522775  0.699953  0.172742
  15872.379  15872.400  0.500  3.511618  23.522332  0.702109  0.173331
  15872.688  15872.700  0.500  3.508455  23.518031  0.704204  0.174019
  15872.986  15873.000  0.500  3.506397  23.517015  0.705624  0.174476
  15873.262  15873.300  0.500  3.503317  23.510303  0.707599  0.174768
  15873.615  15873.600  0.500  3.501353  23.507749  0.708913  0.175280
  15873.869  15873.900  0.500  3.499628  23.504558  0.710040  0.175420
  15874.189  15874.200  0.500  3.497983  23.502621  0.711151  0.175873
  15874.498  15874.500  0.500  3.497184  23.500636  0.711659  0.175914
  15874.763  15874.800  0.500  3.496370  23.497744  0.712151  0.175995
  15875.094  15875.100  0.500  3.495609  23.499384  0.712743  0.176127
  15875.403  15875.400  0.500  3.494900  23.499138  0.713241  0.176502
  15875.668  15875.700  0.500  3.494183  23.496609  0.713676  0.176176
  15876.010  15876.000  0.500  3.493832  23.494152  0.713851  0.176256
  15876.308  15876.300  0.500  3.494299  23.495942  0.713572  0.176333
  15876.595  15876.600  0.500  3.493464  23.493741  0.714102  0.176265
  15876.926  15876.900  0.500  3.494095  23.487148  0.713451  0.176410
  15877.202  15877.200  0.500  3.493848  23.485637  0.713581  0.176461
  15877.511  15877.500  0.500  3.494098  23.489142  0.713510  0.176015
  15877.809  15877.800  0.500  3.494106  23.487330  0.713449  0.175817
  15878.118  15878.100  0.500  3.494255  23.481422  0.713163  0.175910
  15878.416  15878.400  0.500  3.494911  23.477883  0.712588  0.175606
  15878.725  15878.700  0.500  3.494672  23.474015  0.712641  0.175679
  15879.023  15879.000  0.500  3.495466  23.472245  0.712021  0.175454
  15879.311  15879.300  0.500  3.495299  23.472757  0.712156  0.175215
  15879.631  15879.600  0.500  3.495948  23.475019  0.711763  0.175367
  15879.896  15879.900  0.500  3.496603  23.471916  0.711203  0.175362
  15880.194  15880.200  0.500  3.496685  23.473320  0.711187  0.175457
  15880.514  15880.500  0.500  3.496852  23.468641  0.710926  0.174866
  15880.801  15880.800  0.500  3.497090  23.470664  0.710818  0.175245
  15881.077  15881.100  0.500  3.496972  23.468685  0.710842  0.174943
  15881.409  15881.400  0.500  3.497515  23.467346  0.710416  0.174695
  15881.685  15881.700  0.500  3.497535  23.463188  0.710276  0.175176
  15881.961  15882.000  0.500  3.498008  23.462541  0.709920  0.174882
  15882.303  15882.300  0.500  3.497658  23.459610  0.710080  0.175137
  15882.580  15882.600  0.500  3.498057  23.456731  0.709710  0.174975
  15882.878  15882.900  0.500  3.497424  23.454367  0.710088  0.175195
  15883.187  15883.200  0.500  3.497784  23.449157  0.709674  0.175081
  15883.474  15883.500  0.500  3.497475  23.452430  0.709992  0.175158
  15883.773  15883.800  0.500  3.497474  23.449933  0.709918  0.175168
  15884.115  15884.100  0.500  3.497241  23.442901  0.709870  0.175465
  15884.403  15884.400  0.500  3.496887  23.444974  0.710184  0.175240
  15884.690  15884.700  0.500  3.497440  23.441511  0.709687  0.175409
  15884.999  15885.000  0.500  3.497014  23.440967  0.709973  0.175625
  15885.298  15885.300  0.500  3.496444  23.438203  0.710294  0.175758
  15885.574  15885.600  0.500  3.496516  23.438315  0.710246  0.175737
  15885.795  15885.800  0.500  3.495894  23.436405  0.710630  0.175986
  15886.823  15886.790  0.500  3.495332  23.423479  0.710637  0.176092
  15887.828  15887.790  0.500  3.495116  23.420091  0.710688  0.176436
  15888.845  15888.810  0.500  3.494923  23.419843  0.710817  0.176609
  15889.896  15889.860  0.500  3.494535  23.411599  0.710843  0.176407
  15890.946  15890.920  0.500  3.494603  23.408025  0.710686  0.176615
  15892.019  15892.000  0.500  3.495317  23.400302  0.709945  0.176494
  15893.092  15893.100  0.500  3.496708  23.391519  0.708692  0.176084
  15894.209  15894.220  0.500  3.498291  23.384922  0.707371  0.175696
  15895.404  15895.360  0.500  3.499958  23.375981  0.705923  0.175142
  15896.522  15896.510  0.500  3.502219  23.370945  0.704177  0.174668
  15897.706  15897.690  0.500  3.504118  23.361197  0.702548  0.173989
  15898.912  15898.880  0.500  3.505314  23.356355  0.701563  0.173636
  15900.152  15900.100  0.500  3.505520  23.349448  0.701211  0.173267
  15901.337  15901.330  0.500  3.505852  23.335065  0.700546  0.173181
  15902.577  15902.580  0.500  3.505260  23.329537  0.700795  0.173318
  15903.851  15903.850  0.500  3.503725  23.321100  0.701618  0.173367
  15905.136  15905.140  0.500  3.501915  23.313918  0.702673  0.173586
  15906.443  15906.450  0.500  3.499553  23.302173  0.703979  0.174246
  15907.806  15907.780  0.500  3.497166  23.289261  0.705270  0.174705
  15909.147  15909.130  0.500  3.494129  23.274626  0.706971  0.175188
  15910.533  15910.500  0.500  3.492315  23.213538  0.706396  0.175432
  15911.896  15911.880  0.500  3.489111  23.056655  0.703873  0.174983
  15913.293  15913.290  0.500  3.486178  23.088210  0.706907  0.175738
  15914.702  15914.710  0.500  3.483537  23.224663  0.712966  0.177643
  15916.144  15916.150  0.500  3.480967  23.263342  0.715990  0.178287
  15917.631  15917.610  0.500  3.479038  23.254069  0.717087  0.178644
  15919.106  15919.090  0.500  3.477461  23.244559  0.717925  0.179015
  15920.627  15920.590  0.500  3.476137  23.232746  0.718511  0.178945
  15922.137  15922.110  0.500  3.475904  23.221057  0.718317  0.179058
  15923.669  15923.650  0.500  3.475561  23.218412  0.718482  0.178995
  15925.213  15925.210  0.500  3.476174  23.209731  0.717773  0.178813
  15926.768  15926.780  0.500  3.475740  23.195061  0.717630  0.178495
  15928.390  15928.380  0.500  3.476726  23.180358  0.716469  0.178576
  15929.990  15929.990  0.500  3.477220  23.172284  0.715866  0.178506
  15931.624  15931.630  0.500  3.478445  23.160268  0.714618  0.177803
  15933.302  15933.280  0.500  3.478860  23.151183  0.714042  0.177677
  15934.948  15934.950  0.500  3.479666  23.141186  0.713158  0.177936
  15936.660  15936.640  0.500  3.480457  23.132493  0.712327  0.177741
  15938.351  15938.350  0.500  3.479878  23.117687  0.712283  0.177702
  15940.054  15940.080  0.500  3.479644  23.105025  0.712059  0.177901
  15941.856  15941.830  0.500  3.478582  23.097809  0.712594  0.178284
  15943.615  15943.590  0.500  3.477623  23.084021  0.712851  0.178499
  15945.408  15945.380  0.500  3.475366  23.068535  0.713983  0.178426
  15947.234  15947.180  0.500  3.474297  23.044419  0.713999  0.178922
  15949.005  15949.010  0.500  3.472458  22.913852  0.711261  0.178241
  15950.843  15950.850  0.500  3.470576  22.843863  0.710424  0.178084
  15952.660  15952.710  0.500  3.467915  23.004161  0.717315  0.179951
  15954.588  15954.590  0.500  3.465604  23.026788  0.719682  0.180410
  15956.505  15956.490  0.500  3.463608  23.012899  0.720685  0.180654
  15958.424  15958.410  0.500  3.461519  22.997796  0.721718  0.181006
  15960.331  15960.350  0.500  3.459337  22.988097  0.722990  0.181429
  15962.295  15962.310  0.500  3.456983  22.974413  0.724262  0.181700
  15964.236  15964.280  0.500  3.456068  22.969964  0.724785  0.182137
  15966.302  15966.280  0.500  3.454256  23.036000  0.728187  0.182871
  15968.244  15968.290  0.500  3.452778  23.023667  0.728873  0.182932
  15970.344  15970.320  0.500  3.452107  23.015854  0.729115  0.183447
  15972.321  15972.380  0.500  3.450441  22.997573  0.729751  0.183584
  15974.422  15974.450  0.500  3.450508  22.990823  0.729487  0.183520
  15976.512  15976.540  0.500  3.449503  22.974573  0.729705  0.183875
  15978.648  15978.650  0.500  3.448675  22.957780  0.729776  0.183859
  15980.761  15980.780  0.500  3.447925  22.938336  0.729705  0.183886
  15982.875  15982.920  0.500  3.447220  22.914849  0.729471  0.183837
  15985.684  15985.090  0.500  3.446406  22.721919  0.723919  0.182863
  15987.173  15987.280  0.500  3.444721  22.769375  0.726654  0.183369
  15989.792  15989.480  0.500  3.443855  22.893325  0.731243  0.184609
  15991.674  15991.700  0.500  3.442955  22.882815  0.731565  0.185032
  15993.824  15993.950  0.500  3.441794  22.874646  0.732154  0.185028
  15996.189  15996.210  0.500  3.439711  22.857950  0.733145  0.185098
  15998.486  15998.490  0.500  3.439782  22.842689  0.732604  0.185388
  16000.796  16000.790  0.500  3.437827  22.831003  0.733661  0.185845
  16003.106  16003.110  0.500  3.436821  22.818119  0.733986  0.186024
  16005.428  16005.450  0.500  3.434050  22.801316  0.735480  0.186513
  16007.773  16007.800  0.500  3.431970  22.791424  0.736692  0.186512
  16010.130  16010.180  0.500  3.430587  22.773740  0.737139  0.186841
  16012.555  16012.570  0.500  3.429409  22.764196  0.737698  0.187231
  16015.004  16014.990  0.500  3.427616  22.744657  0.738388  0.187777
  16017.431  16017.420  0.500  3.425219  22.728354  0.739629  0.187971
  16019.880  16019.870  0.500  3.423560  22.711996  0.740325  0.188178
  16022.365  16022.350  0.500  3.422055  22.679017  0.740363  0.188508
  16024.850  16024.840  0.500  3.420109  22.464583  0.734791  0.186957
  16027.325  16027.350  0.500  3.418947  22.580015  0.739425  0.188111
  16029.845  16029.870  0.500  3.417471  22.617171  0.741736  0.188961
  16032.423  16032.420  0.500  3.416036  22.638679  0.743508  0.189676
  16035.012  16034.990  0.500  3.413358  22.643799  0.745670  0.189974
  16037.580  16037.570  0.500  3.413147  22.628324  0.745318  0.190396
  16040.183  16040.180  0.500  3.411005  22.611041  0.746346  0.190460
  16042.831  16042.800  0.500  3.409974  22.592381  0.746499  0.190621
  16045.436  16045.450  0.500  3.408745  22.582414  0.747087  0.190957
  16048.109  16048.110  0.500  3.407439  22.565618  0.747507  0.191321
  16050.771  16050.790  0.500  3.406315  22.553273  0.747938  0.191292
  16053.468  16053.490  0.500  3.404251  22.535296  0.748886  0.191596
  16056.212  16056.210  0.500  3.403642  22.520823  0.748861  0.191786
  16058.956  16058.950  0.500  3.401263  22.502583  0.750037  0.192302
  16061.701  16061.700  0.500  3.400407  22.488472  0.750208  0.192195
  16064.526  16064.480  0.500  3.399043  22.470938  0.750647  0.192862
  16067.262  16067.270  0.500  3.397495  22.457619  0.751364  0.192934
  16070.078  16070.090  0.500  3.395931  22.436531  0.751834  0.193071
  16072.884  16072.920  0.500  3.394910  22.420569  0.752066  0.193423
  16075.781  16075.770  0.500  3.392452  22.366073  0.752085  0.193546
  16078.679  16078.650  0.500  3.391110  22.358468  0.752838  0.193742
  16081.556  16081.540  0.500  3.388895  22.372386  0.754977  0.194454
  16084.479  16084.450  0.500  3.388116  22.361481  0.755197  0.194796
  16087.380  16087.370  0.500  3.385993  22.340123  0.756080  0.195085
  16090.316  16090.320  0.500  3.383871  22.321962  0.757070  0.195134
  16093.277  16093.290  0.500  3.382263  22.307467  0.757795  0.195560
  16096.272  16096.270  0.500  3.380369  22.289079  0.758606  0.196067
  16099.257  16099.280  0.500  3.378104  22.257347  0.759244  0.196091
  16102.323  16102.300  0.500  3.375974  22.238419  0.760216  0.196555
  16105.355  16105.350  0.500  3.374243  22.235381  0.761429  0.196881
  16108.435  16108.410  0.500  3.372574  22.222713  0.762266  0.197462
  16111.504  16111.490  0.500  3.371233  22.204850  0.762676  0.197632
  16114.563  16114.590  0.500  3.369084  22.180571  0.763481  0.197763
