# XDI/1.0 BlueSky/1.10.0 BMM/2023-1.0-py310-tiled
# Beamline.name: BMM (06BM) -- Beamline for Materials Measurement (NIST)
# Beamline.xray_source: NSLS-II three-pole wiggler
# Beamline.collimation: paraboloid mirror, 5 nm Rh on 30 nm Pt
# Beamline.focusing: not in use
# Beamline.harmonic_rejection: flat mirror, Si stripe, pitch = 7.0 mrad relative to beam
# Beamline.software: Bluesky 1.10.0, Ophyd 1.7.0, DataBroker 2.0.0b13, Python 3.10.8, 2023-1.0-py310-tiled
# Detector.I0: 10 cm N2
# Detector.I1: 25 cm N2
# Detector.I2: 25 cm N2
# Element.symbol: Fe
# Element.edge: K
# Element.reference: Fe
# Element.reference_material: Fe foil
# Facility.name: NSLS-II
# Facility.energy: 3.0
# Facility.current: 399.1
# Facility.mode: top-off
# Facility.GUP: 123456
# Facility.SAF: 301027
# Facility.cycle: 2023-2
# Mono.name: Si(111)
# Mono.d_spacing: 3.1351860
# Mono.encoder_resolution: 0.0000050 deg/ct
# Mono.angle_offset: 16.0754326 deg
# Mono.scan_mode: pseudo channel cut
# Mono.scan_type: step
# Mono.direction: forward in energy
# Sample.name: NaFeSi2O6
# Sample.prep: PEG pellet
# Sample.x: 116.329 mm
# Sample.y: 114.126 mm
# Sample.SDD_position: 205.000 mm
# Scan.experimenters: Bruce Ravel
# Scan.edge_energy: 7112.0
# Scan.start_time: 2023-05-05T18:14:53
# Scan.end_time: 2023-05-05T18:22:55
# Scan.transient_id: 74546
# Scan.uid: ef611f40-a351-4c09-8037-43cde6b3e65a
# Scan.plot_hint: ln(I0/It)  --  ln($5/$6)
# Column.1: energy eV
# Column.2: requested_energy eV
# Column.3: measurement_time seconds
# Column.4: xmu 
# Column.5: I0 nA
# Column.6: It nA
# Column.7: Ir nA
# ///////////
# courtesy Martin Stennett, University of Sheffield
# -----------
# energy  requested_energy  measurement_time  xmu  I0  It  Ir
  6912.009  6912.000  0.500  3.361038  153.103540  5.312572  0.997334
  6922.007  6922.000  0.500  3.344237  152.978544  5.398173  1.020571
  6932.017  6932.000  0.500  3.327700  153.004525  5.489120  1.044769
  6942.011  6942.000  0.500  3.311168  153.030997  5.581581  1.070015
  6952.004  6952.000  0.500  3.294827  153.019244  5.673104  1.095006
  6962.010  6962.000  0.500  3.278462  153.025903  5.766961  1.120500
  6972.010  6972.000  0.500  3.263056  153.542525  5.876266  1.149899
  6982.023  6982.000  0.500  3.246561  153.523190  5.973246  1.177116
  6992.016  6992.000  0.500  3.230597  153.506039  6.068691  1.203755
  7002.013  7002.000  0.500  3.214679  153.461588  6.164278  1.230999
  7012.016  7012.000  0.500  3.198786  153.353113  6.258602  1.258025
  7022.022  7022.000  0.500  3.183304  153.344007  6.355876  1.286130
  7032.014  7032.000  0.500  3.167768  153.314641  6.454158  1.314358
  7042.017  7042.000  0.500  3.152376  153.256554  6.551781  1.342391
  7052.013  7052.000  0.500  3.136971  153.181047  6.650217  1.370832
  7062.008  7062.000  0.500  3.122386  152.456150  6.715985  1.391902
  7072.013  7072.000  0.500  3.107504  152.969142  6.839623  1.424766
  7081.984  7082.000  0.500  3.093149  152.929674  6.936724  1.450138
  7083.983  7084.000  0.500  3.090366  152.709345  6.946028  1.452179
  7085.982  7086.000  0.500  3.087905  152.820299  6.968204  1.457931
  7087.983  7088.000  0.500  3.085160  152.841783  6.988339  1.462168
  7089.985  7090.000  0.500  3.082188  152.827545  7.008487  1.466298
  7091.989  7092.000  0.500  3.079816  152.816578  7.024630  1.469207
  7093.976  7094.000  0.500  3.077439  152.777943  7.039569  1.470690
  7096.016  7096.000  0.500  3.074818  152.761856  7.057299  1.473153
  7098.003  7098.000  0.500  3.072629  152.740811  7.071787  1.473603
  7099.994  7100.000  0.500  3.070492  152.753928  7.087526  1.472954
  7102.003  7102.000  0.500  3.068544  152.723211  7.099917  1.469302
  7102.292  7102.300  0.500  3.068302  152.712767  7.101148  1.468387
  7102.587  7102.600  0.500  3.068110  152.701101  7.101972  1.467550
  7102.889  7102.900  0.500  3.067909  152.727081  7.104610  1.466311
  7103.186  7103.200  0.500  3.067614  152.731248  7.106897  1.465765
  7103.488  7103.500  0.500  3.067313  152.717823  7.108416  1.464690
  7103.785  7103.800  0.500  3.067175  152.703532  7.108727  1.462895
  7104.091  7104.100  0.500  3.066848  152.696628  7.110734  1.461045
  7104.384  7104.400  0.500  3.066648  152.685392  7.111630  1.459559
  7104.686  7104.700  0.500  3.066441  152.705755  7.114050  1.457473
  7104.989  7105.000  0.500  3.066414  152.707078  7.114306  1.455641
  7105.287  7105.300  0.500  3.066129  152.687927  7.115441  1.452964
  7105.584  7105.600  0.500  3.065972  152.702716  7.117249  1.451014
  7105.890  7105.900  0.500  3.065826  152.676687  7.117075  1.447575
  7106.190  7106.200  0.500  3.065585  152.659402  7.117983  1.444449
  7106.490  7106.500  0.500  3.065541  152.640680  7.117425  1.440553
  7106.790  7106.800  0.500  3.065519  152.640328  7.117565  1.437190
  7107.085  7107.100  0.500  3.065331  152.658971  7.119769  1.432423
  7107.387  7107.400  0.500  3.065443  152.640985  7.118134  1.427385
  7107.687  7107.700  0.500  3.065294  152.639105  7.119106  1.421355
  7107.987  7108.000  0.500  3.065331  152.638075  7.118798  1.413898
  7108.289  7108.300  0.500  3.065711  152.637719  7.116072  1.405604
  7108.589  7108.600  0.500  3.065895  152.604730  7.113225  1.394904
  7108.886  7108.900  0.500  3.065883  152.602904  7.113226  1.384193
  7109.188  7109.200  0.500  3.065793  152.605660  7.114000  1.369742
  7109.495  7109.500  0.500  3.065942  152.587801  7.112103  1.351536
  7109.795  7109.800  0.500  3.066227  152.561147  7.108837  1.326004
  7110.093  7110.100  0.500  3.066924  152.556289  7.103658  1.292653
  7110.393  7110.400  0.500  3.067342  152.545069  7.100167  1.244647
  7110.697  7110.700  0.500  3.068647  152.547032  7.090999  1.177373
  7110.999  7111.000  0.500  3.069689  152.494893  7.081189  1.089870
  7111.297  7111.300  0.500  3.071742  152.448908  7.064536  0.986963
  7111.589  7111.600  0.500  3.073460  152.438230  7.051915  0.882459
  7111.887  7111.900  0.500  3.076002  152.372346  7.030974  0.785913
  7112.196  7112.200  0.500  3.079286  152.329471  7.005950  0.707620
  7112.492  7112.500  0.500  3.083988  152.308598  6.972132  0.649616
  7112.790  7112.800  0.500  3.089851  152.275161  6.929853  0.604756
  7113.094  7113.100  0.500  3.095987  152.287112  6.888002  0.567869
  7113.393  7113.400  0.500  3.100729  152.263148  6.854337  0.536244
  7113.701  7113.700  0.500  3.103664  152.252360  6.833760  0.508434
  7114.000  7114.000  0.500  3.105216  152.236803  6.822469  0.484295
  7114.298  7114.300  0.500  3.108136  152.226842  6.802127  0.462457
  7114.598  7114.600  0.500  3.110121  152.220136  6.788341  0.444791
  7114.899  7114.900  0.500  3.108191  152.193732  6.800276  0.432337
  7115.201  7115.200  0.500  3.102286  152.191438  6.840448  0.425226
  7115.495  7115.500  0.500  3.095731  152.203608  6.885987  0.421180
  7115.800  7115.800  0.500  3.090780  152.171958  6.918720  0.418344
  7116.092  7116.100  0.500  3.088254  152.154136  6.935409  0.415273
  7116.393  7116.400  0.500  3.087891  152.139993  6.937282  0.411435
  7116.696  7116.700  0.500  3.089225  152.157849  6.928850  0.405139
  7116.996  7117.000  0.500  3.091740  152.133041  6.910319  0.395546
  7117.297  7117.300  0.500  3.095373  152.127006  6.884983  0.381826
  7117.595  7117.600  0.500  3.100127  152.109255  6.851532  0.363666
  7117.898  7117.900  0.500  3.105898  152.085883  6.811055  0.341751
  7118.201  7118.200  0.500  3.113124  152.065759  6.761124  0.316774
  7118.504  7118.500  0.500  3.121452  152.041239  6.703971  0.291612
  7118.801  7118.800  0.500  3.131223  152.025329  6.638086  0.267297
  7119.097  7119.100  0.500  3.142538  152.036171  6.563868  0.244448
  7119.402  7119.400  0.500  3.155706  152.024669  6.477512  0.222666
  7119.703  7119.700  0.500  3.171025  152.007386  6.378318  0.202424
  7119.998  7120.000  0.500  3.188126  151.997462  6.269760  0.183104
  7120.298  7120.300  0.500  3.208474  151.994945  6.143367  0.164639
  7120.593  7120.600  0.500  3.231562  151.966930  6.002048  0.147210
  7120.894  7120.900  0.500  3.257458  151.970871  5.848765  0.131720
  7121.199  7121.200  0.500  3.285853  151.951907  5.684318  0.117605
  7121.500  7121.500  0.500  3.315512  151.900411  5.516330  0.106011
  7121.799  7121.800  0.500  3.347971  151.885226  5.339620  0.095650
  7122.102  7122.100  0.500  3.384833  151.867398  5.145770  0.086610
  7122.397  7122.400  0.500  3.425811  151.858078  4.938866  0.078547
  7122.702  7122.700  0.500  3.475798  151.840293  4.697504  0.070681
  7123.001  7123.000  0.500  3.531223  151.753477  4.441687  0.063675
  7123.303  7123.300  0.500  3.593156  151.811686  4.176546  0.057405
  7123.600  7123.600  0.500  3.656861  151.816139  3.918892  0.051656
  7123.905  7123.900  0.500  3.718487  151.830296  3.685022  0.046677
  7124.204  7124.200  0.500  3.775919  151.806138  3.478793  0.042567
  7124.497  7124.500  0.500  3.825703  151.778167  3.309236  0.039144
  7124.796  7124.800  0.500  3.870247  151.755564  3.164593  0.036225
  7125.095  7125.100  0.500  3.908653  151.720578  3.044655  0.033616
  7125.401  7125.400  0.500  3.943519  151.703799  2.940003  0.031588
  7125.700  7125.700  0.500  3.976082  151.687618  2.845506  0.029589
  7125.997  7126.000  0.500  4.009720  151.649843  2.750696  0.027811
  7126.299  7126.300  0.500  4.048313  151.621033  2.646059  0.025939
  7126.602  7126.600  0.500  4.095140  151.614682  2.524903  0.023944
  7126.904  7126.900  0.500  4.149549  151.577401  2.390608  0.021948
  7127.208  7127.200  0.500  4.211194  151.534928  2.247058  0.020039
  7127.507  7127.500  0.500  4.274873  151.474189  2.107583  0.018049
  7127.800  7127.800  0.500  4.334549  151.486053  1.985646  0.016241
  7128.099  7128.100  0.500  4.388349  151.504750  1.881874  0.014693
  7128.401  7128.400  0.500  4.434797  151.495733  1.796356  0.013543
  7128.698  7128.700  0.500  4.475000  151.481136  1.725403  0.012377
  7128.996  7129.000  0.500  4.508726  151.446895  1.667806  0.011254
  7129.297  7129.300  0.500  4.537617  151.390244  1.619705  0.010526
  7129.597  7129.600  0.500  4.561172  151.390021  1.581995  0.009765
  7129.903  7129.900  0.500  4.580254  151.347876  1.551663  0.009171
  7130.203  7130.200  0.500  4.595149  151.321534  1.528457  0.008611
  7130.500  7130.500  0.500  4.608504  151.292548  1.507890  0.008347
  7130.802  7130.800  0.500  4.621682  151.238671  1.487619  0.008001
  7131.106  7131.100  0.500  4.636471  151.219660  1.465597  0.007873
  7131.404  7131.400  0.500  4.652971  151.210852  1.441528  0.007825
  7131.701  7131.700  0.500  4.669893  151.183078  1.417080  0.007860
  7132.003  7132.000  0.500  4.684150  151.159368  1.396802  0.007939
  7132.299  7132.300  0.500  4.693908  151.133303  1.382998  0.008140
  7132.603  7132.600  0.500  4.698125  151.112576  1.376991  0.008409
  7132.903  7132.900  0.500  4.696203  151.101999  1.379543  0.008788
  7133.194  7133.200  0.500  4.690134  151.127358  1.388173  0.009230
  7133.498  7133.500  0.500  4.682571  151.109791  1.398549  0.009639
  7133.798  7133.800  0.500  4.674287  151.100446  1.410096  0.010083
  7134.103  7134.100  0.500  4.664998  151.100910  1.423259  0.010744
  7134.403  7134.400  0.500  4.655881  151.104342  1.436327  0.011083
  7134.701  7134.700  0.500  4.646188  151.127172  1.450537  0.011484
  7135.001  7135.000  0.500  4.635683  151.114713  1.465733  0.011989
  7135.303  7135.300  0.500  4.624336  151.100930  1.482325  0.012391
  7135.607  7135.600  0.500  4.611422  151.102722  1.501610  0.012714
  7135.903  7135.900  0.500  4.597640  151.549913  1.526954  0.013155
  7136.201  7136.200  0.500  4.582564  151.558600  1.550238  0.013401
  7136.501  7136.500  0.500  4.567080  151.547637  1.574314  0.013681
  7136.801  7136.800  0.500  4.552799  151.520297  1.596671  0.014013
  7136.996  7137.000  0.500  4.543062  151.531922  1.612416  0.014139
  7137.996  7137.990  0.500  4.496378  151.524924  1.689397  0.014419
  7139.005  7138.990  0.500  4.447238  151.519114  1.774421  0.014588
  7140.021  7140.010  0.500  4.400122  151.505935  1.859864  0.014602
  7141.081  7141.060  0.500  4.363562  151.478535  1.928768  0.014538
  7142.115  7142.120  0.500  4.332362  151.472176  1.989811  0.014954
  7143.192  7143.200  0.500  4.300926  151.481746  2.053488  0.015695
  7144.289  7144.300  0.500  4.277065  151.475006  2.102980  0.016309
  7145.415  7145.420  0.500  4.263329  151.437117  2.131532  0.016449
  7146.565  7146.560  0.500  4.254545  151.469375  2.150798  0.015973
  7147.713  7147.710  0.500  4.237662  151.450163  2.187140  0.015261
  7148.895  7148.890  0.500  4.205924  151.444523  2.257585  0.014696
  7150.089  7150.080  0.500  4.165468  151.439217  2.350708  0.014690
  7151.301  7151.300  0.500  4.121317  151.448890  2.456976  0.014796
  7152.534  7152.530  0.500  4.079766  151.454369  2.561308  0.015100
  7153.786  7153.780  0.500  4.046412  151.440838  2.647944  0.015471
  7155.056  7155.050  0.500  4.022546  151.409847  2.711343  0.015916
  7156.342  7156.340  0.500  4.004443  151.401579  2.760724  0.016530
  7157.650  7157.650  0.500  3.990571  151.390195  2.799078  0.017025
  7158.984  7158.980  0.500  3.981777  151.365355  2.823338  0.017360
  7160.334  7160.330  0.500  3.977217  151.334765  2.835668  0.017372
  7161.705  7161.700  0.500  3.978429  151.283339  2.831271  0.017451
  7163.087  7163.080  0.500  3.989131  151.225355  2.800059  0.017679
  7164.493  7164.490  0.500  4.009052  151.203942  2.744442  0.017645
  7165.917  7165.910  0.500  4.034223  151.166249  2.675557  0.017350
  7167.353  7167.350  0.500  4.060508  151.126888  2.605467  0.017292
  7168.811  7168.810  0.500  4.086603  151.105403  2.537995  0.016959
  7170.296  7170.290  0.500  4.112991  151.078739  2.471462  0.016752
  7171.795  7171.790  0.500  4.137696  151.046729  2.410642  0.016793
  7173.318  7173.310  0.500  4.157444  151.042505  2.363437  0.017205
  7174.851  7174.850  0.500  4.174790  150.995715  2.322076  0.018013
  7176.413  7176.410  0.500  4.189597  150.965553  2.287488  0.018649
  7177.989  7177.980  0.500  4.195401  150.930277  2.273718  0.019489
  7179.587  7179.580  0.500  4.198738  150.920441  2.265997  0.020101
  7181.191  7181.190  0.500  4.195511  150.881658  2.272736  0.020371
  7182.836  7182.830  0.500  4.188355  150.849885  2.288578  0.020335
  7184.492  7184.480  0.500  4.180786  150.823619  2.305564  0.020026
  7186.161  7186.150  0.500  4.176391  150.788207  2.315174  0.019241
  7187.844  7187.840  0.500  4.175020  150.739798  2.317606  0.018448
  7189.561  7189.550  0.500  4.174406  150.723280  2.318776  0.017405
  7191.292  7191.280  0.500  4.172838  149.107684  2.297522  0.016295
  7193.044  7193.030  0.500  4.168862  150.384097  2.326420  0.015668
  7194.798  7194.790  0.500  4.162573  150.552494  2.343720  0.015395
  7196.591  7196.580  0.500  4.154101  150.522591  2.363190  0.015868
  7198.392  7198.380  0.500  4.145186  150.486095  2.383774  0.016849
  7200.222  7200.210  0.500  4.134331  150.425096  2.408814  0.018087
  7202.055  7202.050  0.500  4.122618  150.393016  2.436675  0.019756
  7203.913  7203.910  0.500  4.110266  150.338363  2.466062  0.021558
  7205.803  7205.790  0.500  4.097536  150.296775  2.496965  0.023515
  7207.701  7207.690  0.500  4.088281  150.269916  2.519731  0.024455
  7209.620  7209.610  0.500  4.081689  150.229519  2.535715  0.023795
  7211.562  7211.550  0.500  4.075228  150.169247  2.551126  0.021514
  7213.520  7213.510  0.500  4.067133  150.111880  2.570880  0.018429
  7215.491  7215.480  0.500  4.058011  150.064609  2.593621  0.015587
  7217.489  7217.480  0.500  4.049598  149.973647  2.613949  0.013491
  7219.504  7219.490  0.500  4.041475  149.923028  2.634377  0.012323
  7221.536  7221.520  0.500  4.034508  149.861857  2.651714  0.012096
  7223.588  7223.580  0.500  4.027700  149.824274  2.669157  0.013225
  7225.662  7225.650  0.500  4.021762  149.716252  2.683120  0.014813
  7227.750  7227.740  0.500  4.017461  147.094728  2.647501  0.016964
  7229.864  7229.850  0.500  4.016833  149.907775  2.699825  0.019964
  7231.991  7231.980  0.500  4.016025  149.834706  2.700692  0.022850
  7234.128  7234.120  0.500  4.014023  149.767814  2.704894  0.025833
  7236.301  7236.290  0.500  4.011585  149.738838  2.710972  0.027819
  7238.489  7238.480  0.500  4.009138  149.678859  2.716526  0.028692
  7240.690  7240.680  0.500  4.006633  149.638649  2.722608  0.028776
  7242.912  7242.900  0.500  4.005731  149.635007  2.724998  0.027687
  7245.162  7245.150  0.500  4.007641  146.817994  2.668595  0.025745
  7247.421  7247.410  0.500  4.011210  149.343074  2.704823  0.025023
  7249.703  7249.690  0.500  4.015107  149.346956  2.694373  0.024504
  7252.005  7251.990  0.500  4.018381  149.252263  2.683862  0.024633
  7254.321  7254.310  0.500  4.020222  146.875796  2.636271  0.024915
  7256.664  7256.650  0.500  4.020655  149.326165  2.679093  0.025741
  7259.010  7259.000  0.500  4.018266  149.138693  2.682129  0.025567
  7261.392  7261.380  0.500  4.013564  148.706988  2.686968  0.024975
  7263.784  7263.770  0.500  4.008215  137.464844  2.497159  0.022410
  7266.198  7266.190  0.500  4.000725  149.002170  2.727092  0.024015
  7268.634  7268.620  0.500  3.994551  149.598222  2.754958  0.023690
  7271.085  7271.070  0.500  3.989619  149.517639  2.767087  0.022635
  7273.558  7273.550  0.500  3.985223  148.249506  2.755705  0.021360
  7276.051  7276.040  0.500  3.980178  149.559176  2.794113  0.021053
  7278.562  7278.550  0.500  3.975425  149.489669  2.806118  0.020672
  7281.080  7281.070  0.500  3.969910  149.429899  2.820509  0.020290
  7283.633  7283.620  0.500  3.964359  148.313794  2.815027  0.019363
  7286.198  7286.190  0.500  3.958839  149.052860  2.844712  0.018849
  7288.788  7288.770  0.500  3.953071  149.143948  2.862917  0.018843
  7291.395  7291.380  0.500  3.946312  149.091612  2.881321  0.019583
  7294.014  7294.000  0.500  3.939774  149.083896  2.900070  0.021605
  7296.661  7296.650  0.500  3.932916  149.022843  2.918832  0.023852
  7299.320  7299.310  0.500  3.926465  148.911355  2.935525  0.026272
  7301.997  7301.990  0.500  3.920535  147.275873  2.920552  0.027999
  7304.707  7304.690  0.500  3.914843  149.018686  2.971981  0.030215
  7307.424  7307.410  0.500  3.908965  148.917670  2.987475  0.031211
  7310.157  7310.150  0.500  3.903585  148.871645  3.002664  0.032000
  7312.910  7312.900  0.500  3.897727  148.802097  3.018892  0.031983
  7315.696  7315.680  0.500  3.891252  148.715021  3.036725  0.032221
  7318.481  7318.470  0.500  3.884770  148.685741  3.055872  0.032544
  7321.304  7321.290  0.500  3.878931  148.603730  3.072072  0.032875
  7324.132  7324.120  0.500  3.874141  148.589337  3.086523  0.033234
  7326.987  7326.970  0.500  3.869904  148.531846  3.098431  0.033322
  7329.861  7329.850  0.500  3.865776  148.448581  3.109503  0.033606
  7332.753  7332.740  0.500  3.861390  148.365327  3.121420  0.034388
  7335.658  7335.650  0.500  3.856304  148.290817  3.135759  0.035385
  7338.587  7338.570  0.500  3.851601  147.000939  3.123136  0.035561
  7341.534  7341.520  0.500  3.845999  148.041927  3.162923  0.035802
  7344.504  7344.490  0.500  3.841441  148.019565  3.176893  0.034522
  7347.481  7347.470  0.500  3.837047  148.001819  3.190500  0.032837
  7350.493  7350.480  0.500  3.831905  147.931446  3.205423  0.031300
  7353.517  7353.500  0.500  3.827648  147.883511  3.218054  0.030100
  7356.564  7356.550  0.500  3.822757  147.829925  3.232659  0.028755
  7359.621  7359.610  0.500  3.817562  147.783575  3.248478  0.027773
  7362.700  7362.690  0.500  3.812785  147.672694  3.261587  0.027300
  7365.797  7365.790  0.500  3.808029  147.576533  3.275000  0.027047
  7368.921  7368.910  0.500  3.803425  147.501379  3.288436  0.027528
  7372.065  7372.050  0.500  3.799245  147.462280  3.301337  0.028762
  7375.218  7375.200  0.500  3.794401  147.399606  3.315957  0.031041
  7378.393  7378.380  0.500  3.789555  147.332731  3.330553  0.034408
