# XDI/1.0 BlueSky/1.10.0 BMM/2023-1.0-py310-tiled
# Beamline.name: BMM (06BM) -- Beamline for Materials Measurement (NIST)
# Beamline.xray_source: NSLS-II three-pole wiggler
# Beamline.collimation: paraboloid mirror, 5 nm Rh on 30 nm Pt
# Beamline.focusing: not in use
# Beamline.harmonic_rejection: flat mirror, Si stripe, pitch = 7.0 mrad relative to beam
# Beamline.software: Bluesky 1.10.0, Ophyd 1.7.0, DataBroker 2.0.0b13, Python 3.10.8, 2023-1.0-py310-tiled
# Detector.I0: 10 cm N2
# Detector.I1: 25 cm N2
# Detector.I2: 25 cm N2
# Element.symbol: Fe
# Element.edge: K
# Element.reference: Fe
# Element.reference_material: Fe foil
# Facility.name: NSLS-II
# Facility.energy: 3.0
# Facility.current: 400.6
# Facility.mode: top-off
# Facility.GUP: 123456
# Facility.SAF: 301027
# Facility.cycle: 2023-2
# Mono.name: Si(111)
# Mono.d_spacing: 3.1351860
# Mono.encoder_resolution: 0.0000050 deg/ct
# Mono.angle_offset: 16.0754326 deg
# Mono.scan_mode: pseudo channel cut
# Mono.scan_type: step
# Mono.direction: forward in energy
# Sample.name: (Mg,Fe)2Al3(Si5AlO18)
# Sample.prep: PEG pellet
# Sample.x: 142.329 mm
# Sample.y: 114.126 mm
# Sample.SDD_position: 205.000 mm
# Scan.experimenters: Bruce Ravel
# Scan.edge_energy: 7112.0
# Scan.start_time: 2023-05-05T20:28:51
# Scan.end_time: 2023-05-05T20:36:59
# Scan.transient_id: 74621
# Scan.uid: 04007833-a65d-45b8-aab0-d5fc016a674d
# Scan.plot_hint: ln(I0/It)  --  ln($5/$6)
# Column.1: energy eV
# Column.2: requested_energy eV
# Column.3: measurement_time seconds
# Column.4: xmu 
# Column.5: I0 nA
# Column.6: It nA
# Column.7: Ir nA
# ///////////
# courtesy Martin Stennett, University of Sheffield
# -----------
# energy  requested_energy  measurement_time  xmu  I0  It  Ir
  6912.011  6912.000  0.500  1.629147  154.652582  30.326860  5.692802
  6922.009  6922.000  0.500  1.619400  154.490328  30.591790  5.783154
  6932.013  6932.000  0.500  1.609385  154.444475  30.890538  5.880780
  6942.015  6942.000  0.500  1.599980  154.453216  31.184179  5.978719
  6952.004  6952.000  0.500  1.590044  154.456691  31.496292  6.081103
  6962.008  6962.000  0.500  1.580466  154.434381  31.794817  6.180645
  6972.016  6972.000  0.500  1.571148  154.416991  32.088850  6.282095
  6982.027  6982.000  0.500  1.561578  154.394908  32.392798  6.383836
  6992.010  6992.000  0.500  1.552042  154.356791  32.695099  6.488149
  7002.015  7002.000  0.500  1.542797  154.294003  32.985340  6.588100
  7012.016  7012.000  0.500  1.533640  154.251240  33.279522  6.692188
  7022.012  7022.000  0.500  1.524383  154.199452  33.577742  6.796249
  7032.014  7032.000  0.500  1.515058  154.105081  33.871583  6.899112
  7042.008  7042.000  0.500  1.505887  154.025320  34.165958  7.002705
  7052.009  7052.000  0.500  1.497052  153.939802  34.450024  7.102086
  7062.012  7062.000  0.500  1.487701  153.174147  34.600729  7.173620
  7072.005  7072.000  0.500  1.478693  153.711066  35.036200  7.299683
  7081.993  7082.000  0.500  1.469912  153.646194  35.330272  7.386777
  7083.993  7084.000  0.500  1.468152  153.411077  35.338364  7.391177
  7085.989  7086.000  0.500  1.466880  153.522866  35.409130  7.409468
  7088.000  7088.000  0.500  1.465154  153.522540  35.470216  7.422016
  7089.992  7090.000  0.500  1.462993  153.516258  35.545501  7.437979
  7092.001  7092.000  0.500  1.461327  153.476936  35.595639  7.445919
  7093.997  7094.000  0.500  1.459613  153.411433  35.641496  7.450836
  7095.984  7096.000  0.500  1.458033  153.467651  35.710930  7.456917
  7098.198  7098.000  0.500  1.456340  153.421189  35.760615  7.452838
  7100.001  7100.000  0.500  1.454305  153.394952  35.827331  7.446348
  7102.003  7102.000  0.500  1.452726  153.363685  35.876642  7.427120
  7102.296  7102.300  0.500  1.452314  153.337133  35.885194  7.421807
  7102.589  7102.600  0.500  1.452045  153.334470  35.894241  7.417485
  7102.889  7102.900  0.500  1.451814  153.340380  35.903894  7.413973
  7103.195  7103.200  0.500  1.451902  153.340458  35.900781  7.405989
  7103.490  7103.500  0.500  1.451585  153.332276  35.910231  7.398613
  7103.785  7103.800  0.500  1.451253  153.308545  35.916581  7.392409
  7104.093  7104.100  0.500  1.451072  153.320194  35.925822  7.385219
  7104.388  7104.400  0.500  1.450813  153.302851  35.931074  7.375170
  7104.688  7104.700  0.500  1.450475  153.289583  35.940098  7.367614
  7104.989  7105.000  0.500  1.450486  153.289346  35.939642  7.354222
  7105.287  7105.300  0.500  1.450123  153.256772  35.945068  7.343228
  7105.589  7105.600  0.500  1.450078  153.265360  35.948691  7.330205
  7105.888  7105.900  0.500  1.449937  153.258195  35.952069  7.313938
  7106.190  7106.200  0.500  1.449644  153.265693  35.964367  7.300676
  7106.490  7106.500  0.500  1.449082  153.248916  35.980666  7.285266
  7106.787  7106.800  0.500  1.448855  153.239220  35.986537  7.265033
  7107.087  7107.100  0.500  1.448634  153.235361  35.993594  7.244997
  7107.387  7107.400  0.500  1.448393  153.244318  36.004383  7.219721
  7107.691  7107.700  0.500  1.448195  153.226442  36.007315  7.189157
  7107.987  7108.000  0.500  1.448001  153.179335  36.003229  7.153264
  7108.289  7108.300  0.500  1.447991  153.192401  36.006666  7.112848
  7108.582  7108.600  0.500  1.447685  153.222146  36.024681  7.069006
  7108.884  7108.900  0.500  1.447402  153.214050  36.032949  7.013715
  7109.193  7109.200  0.500  1.447434  153.185813  36.025165  6.938781
  7109.488  7109.500  0.500  1.447187  153.177518  36.032118  6.850801
  7109.793  7109.800  0.500  1.446774  153.162815  36.043549  6.732896
  7110.095  7110.100  0.500  1.446647  153.164612  36.048545  6.570635
  7110.395  7110.400  0.500  1.446657  153.159341  36.046942  6.332210
  7110.699  7110.700  0.500  1.446773  153.117878  36.033011  5.999975
  7110.997  7111.000  0.500  1.447021  153.092427  36.018077  5.568796
  7111.295  7111.300  0.500  1.446935  153.066790  36.015131  5.060571
  7111.593  7111.600  0.500  1.447004  153.041219  36.006644  4.519913
  7111.891  7111.900  0.500  1.446960  153.020410  36.003315  4.034520
  7112.198  7112.200  0.500  1.446868  152.986602  35.998693  3.645581
  7112.494  7112.500  0.500  1.446628  152.953883  35.999632  3.365427
  7112.786  7112.800  0.500  1.446251  152.930187  36.007610  3.151005
  7113.094  7113.100  0.500  1.446071  152.925592  36.013034  2.976480
  7113.397  7113.400  0.500  1.446012  152.897488  36.008510  2.822996
  7113.699  7113.700  0.500  1.445716  152.885406  36.016353  2.684406
  7114.002  7114.000  0.500  1.445585  152.893643  36.022998  2.560749
  7114.296  7114.300  0.500  1.444961  152.865374  36.038816  2.454970
  7114.598  7114.600  0.500  1.444673  152.874303  36.051307  2.364219
  7114.899  7114.900  0.500  1.444477  152.851011  36.052878  2.293812
  7115.204  7115.200  0.500  1.444223  152.847476  36.061214  2.242303
  7115.498  7115.500  0.500  1.444141  152.842381  36.062944  2.206611
  7115.800  7115.800  0.500  1.444192  152.831628  36.058580  2.180278
  7116.097  7116.100  0.500  1.444208  152.843605  36.060814  2.159421
  7116.393  7116.400  0.500  1.444380  152.812318  36.047231  2.137584
  7116.696  7116.700  0.500  1.444804  152.788042  36.026260  2.106366
  7116.996  7117.000  0.500  1.445243  152.786917  36.010178  2.062006
  7117.295  7117.300  0.500  1.445959  152.773313  35.981195  1.998557
  7117.598  7117.600  0.500  1.447390  152.761907  35.927035  1.910411
  7117.898  7117.900  0.500  1.448943  152.711180  35.859378  1.802538
  7118.203  7118.200  0.500  1.450949  152.727623  35.791393  1.680835
  7118.502  7118.500  0.500  1.453753  152.712328  35.687570  1.556857
  7118.801  7118.800  0.500  1.457416  152.702256  35.554756  1.435600
  7119.101  7119.100  0.500  1.462539  152.690096  35.370257  1.319766
  7119.404  7119.400  0.500  1.468461  152.675914  35.158166  1.211637
  7119.707  7119.700  0.500  1.474393  152.666724  34.948115  1.111216
  7120.000  7120.000  0.500  1.480114  152.637061  34.741974  1.016928
  7120.294  7120.300  0.500  1.485071  152.626159  34.567720  0.927952
  7120.593  7120.600  0.500  1.489194  152.625502  34.425345  0.845643
  7120.894  7120.900  0.500  1.492598  152.591261  34.300659  0.771588
  7121.199  7121.200  0.500  1.497093  152.596024  34.147900  0.705458
  7121.498  7121.500  0.500  1.501937  152.572765  33.977712  0.651479
  7121.797  7121.800  0.500  1.507225  153.057948  33.905993  0.607007
  7122.102  7122.100  0.500  1.512100  153.053467  33.740124  0.566678
  7122.401  7122.400  0.500  1.516039  153.029049  33.602120  0.531953
  7122.705  7122.700  0.500  1.518437  153.013813  33.518300  0.502277
  7122.997  7123.000  0.500  1.519344  152.995066  33.483801  0.478045
  7123.301  7123.300  0.500  1.520702  152.992777  33.437854  0.455873
  7123.597  7123.600  0.500  1.523148  152.967391  33.350632  0.436311
  7123.905  7123.900  0.500  1.526953  152.940076  33.218054  0.418283
  7124.204  7124.200  0.500  1.532976  152.919554  33.014151  0.400823
  7124.497  7124.500  0.500  1.541288  152.910452  32.738923  0.384087
  7124.796  7124.800  0.500  1.552320  152.901226  32.377777  0.367446
  7125.093  7125.100  0.500  1.566005  152.903432  31.938169  0.350978
  7125.403  7125.400  0.500  1.582600  152.907449  31.413339  0.334348
  7125.702  7125.700  0.500  1.599332  152.884261  30.887440  0.318734
  7125.999  7126.000  0.500  1.614005  152.867488  30.434171  0.304816
  7126.301  7126.300  0.500  1.624558  152.841678  30.109616  0.292038
  7126.602  7126.600  0.500  1.627921  152.793072  29.998998  0.281539
  7126.904  7126.900  0.500  1.623274  152.761706  30.132530  0.272719
  7127.208  7127.200  0.500  1.611690  152.739486  30.479175  0.265493
  7127.503  7127.500  0.500  1.596458  152.722788  30.943608  0.258981
  7127.800  7127.800  0.500  1.580957  152.715495  31.425495  0.252069
  7128.102  7128.100  0.500  1.567302  152.687723  31.851777  0.244344
  7128.401  7128.400  0.500  1.556334  152.664735  32.198175  0.235651
  7128.705  7128.700  0.500  1.547218  152.658466  32.491733  0.226182
  7128.994  7129.000  0.500  1.540021  152.625257  32.719273  0.216591
  7129.297  7129.300  0.500  1.534879  152.600385  32.882593  0.206759
  7129.597  7129.600  0.500  1.531826  152.577946  32.978282  0.197482
  7129.901  7129.900  0.500  1.530035  152.554752  33.032388  0.188911
  7130.205  7130.200  0.500  1.529063  152.530119  33.059179  0.182236
  7130.505  7130.500  0.500  1.528522  152.494990  33.069455  0.176840
  7130.802  7130.800  0.500  1.527797  152.458026  33.085408  0.173604
  7131.104  7131.100  0.500  1.526966  152.447086  33.110523  0.172232
  7131.399  7131.400  0.500  1.526191  152.425577  33.131526  0.173088
  7131.708  7131.700  0.500  1.525034  152.407822  33.166009  0.176079
  7132.001  7132.000  0.500  1.524013  152.386146  33.195193  0.181097
  7132.299  7132.300  0.500  1.523313  152.362255  33.213229  0.187037
  7132.601  7132.600  0.500  1.522497  152.359063  33.239622  0.194857
  7132.903  7132.900  0.500  1.521472  152.348021  33.271303  0.203413
  7133.196  7133.200  0.500  1.520678  152.330275  33.293867  0.212433
  7133.496  7133.500  0.500  1.519664  152.348193  33.331567  0.222422
  7133.803  7133.800  0.500  1.518390  152.353814  33.375267  0.232018
  7134.100  7134.100  0.500  1.518184  152.339725  33.379068  0.241468
  7134.403  7134.400  0.500  1.518136  152.356944  33.384429  0.250148
  7134.703  7134.700  0.500  1.519015  152.346092  33.352733  0.257442
  7135.001  7135.000  0.500  1.520359  152.349296  33.308653  0.263851
  7135.298  7135.300  0.500  1.521704  152.341085  33.262090  0.269567
  7135.605  7135.600  0.500  1.523147  152.310104  33.207346  0.274425
  7135.903  7135.900  0.500  1.524216  152.337149  33.177758  0.278412
  7136.201  7136.200  0.500  1.524766  152.316204  33.154966  0.281117
  7136.499  7136.500  0.500  1.525032  152.309205  33.144639  0.282917
  7136.797  7136.800  0.500  1.525282  152.304653  33.135341  0.283944
  7136.996  7137.000  0.500  1.525309  152.302711  33.134034  0.284021
  7138.000  7137.990  0.500  1.522780  152.311682  33.219910  0.279650
  7138.999  7138.990  0.500  1.517928  152.308362  33.380737  0.269232
  7140.030  7140.010  0.500  1.511797  152.294015  33.582872  0.257713
  7141.089  7141.060  0.500  1.505413  152.304712  33.800306  0.250556
  7142.110  7142.120  0.500  1.500409  152.264887  33.960984  0.250442
  7143.186  7143.200  0.500  1.496876  152.283132  34.085279  0.255098
  7144.292  7144.300  0.500  1.493439  152.276862  34.201224  0.260112
  7145.420  7145.420  0.500  1.490033  152.222247  34.305609  0.259803
  7146.563  7146.560  0.500  1.486032  152.267212  34.453314  0.251446
  7147.707  7147.710  0.500  1.481792  152.256678  34.597289  0.237252
  7148.892  7148.890  0.500  1.477783  152.227806  34.729708  0.222176
  7150.085  7150.080  0.500  1.475130  152.230926  34.822685  0.211868
  7151.306  7151.300  0.500  1.474030  152.233110  34.861497  0.206171
  7152.532  7152.530  0.500  1.474566  152.223421  34.840607  0.201745
  7153.782  7153.780  0.500  1.475467  152.200658  34.804028  0.199371
  7155.049  7155.050  0.500  1.476985  152.177123  34.745866  0.200717
  7156.344  7156.340  0.500  1.479477  152.162680  34.656098  0.203793
  7157.652  7157.650  0.500  1.483304  152.141060  34.518801  0.206430
  7158.975  7158.980  0.500  1.487057  152.104103  34.381157  0.206720
  7160.330  7160.330  0.500  1.489638  152.099102  34.291403  0.206753
  7161.705  7161.700  0.500  1.491380  152.057295  34.222299  0.207835
  7163.084  7163.080  0.500  1.492801  152.029104  34.167383  0.211039
  7164.491  7164.490  0.500  1.493876  151.989530  34.121770  0.215367
  7165.911  7165.910  0.500  1.493797  151.937988  34.112893  0.218882
  7167.353  7167.350  0.500  1.492335  151.901307  34.154558  0.221868
  7168.820  7168.810  0.500  1.490880  151.884917  34.200585  0.224785
  7170.299  7170.290  0.500  1.489751  151.852225  34.231850  0.228893
  7171.793  7171.790  0.500  1.488778  151.804198  34.254345  0.236027
  7173.321  7173.310  0.500  1.485650  151.777961  34.355730  0.247253
  7174.856  7174.850  0.500  1.481445  151.734244  34.490561  0.261537
  7176.418  7176.410  0.500  1.477433  151.719671  34.625885  0.277722
  7177.982  7177.980  0.500  1.474897  151.687725  34.706515  0.293302
  7179.592  7179.580  0.500  1.473579  151.669955  34.748206  0.303967
  7181.193  7181.190  0.500  1.472961  151.638249  34.762415  0.306788
  7182.836  7182.830  0.500  1.472029  151.626281  34.792094  0.304361
  7184.490  7184.480  0.500  1.470732  151.581802  34.827015  0.298399
  7186.159  7186.150  0.500  1.469148  151.549095  34.874683  0.287380
  7187.851  7187.840  0.500  1.466837  151.498356  34.943672  0.273298
  7189.559  7189.550  0.500  1.464189  151.510182  35.039086  0.259378
  7191.288  7191.280  0.500  1.461494  149.949355  34.771698  0.242237
  7193.037  7193.030  0.500  1.459226  151.121428  35.123065  0.231555
  7194.801  7194.790  0.500  1.457161  151.302815  35.237899  0.227290
  7196.593  7196.580  0.500  1.455294  151.294094  35.301704  0.232427
  7198.387  7198.380  0.500  1.453712  151.261768  35.350056  0.244772
  7200.219  7200.210  0.500  1.452315  151.201180  35.385302  0.261554
  7202.053  7202.050  0.500  1.450989  151.163189  35.423355  0.282151
  7203.922  7203.910  0.500  1.449319  151.123893  35.473318  0.306219
  7205.801  7205.790  0.500  1.447849  151.086285  35.516682  0.329165
  7207.708  7207.690  0.500  1.446455  151.029537  35.552865  0.340221
  7209.618  7209.610  0.500  1.445309  150.957560  35.576646  0.330369
  7211.564  7211.550  0.500  1.444214  150.906253  35.603515  0.297498
  7213.518  7213.510  0.500  1.442596  150.864743  35.651380  0.252520
  7215.498  7215.480  0.500  1.441005  150.807103  35.694496  0.211102
  7217.491  7217.480  0.500  1.438761  150.740128  35.758815  0.181284
  7219.508  7219.490  0.500  1.436018  150.704833  35.848615  0.165064
  7221.536  7221.520  0.500  1.433561  150.668330  35.928096  0.162551
  7223.588  7223.580  0.500  1.430867  150.587123  36.005601  0.172901
  7225.660  7225.650  0.500  1.428676  150.457517  36.053525  0.195072
  7227.750  7227.740  0.500  1.427077  147.815023  35.476993  0.221807
  7229.860  7229.850  0.500  1.426033  150.629581  36.190294  0.262997
  7232.000  7231.980  0.500  1.425552  150.567678  36.192803  0.303168
  7234.128  7234.120  0.500  1.424801  150.482761  36.199569  0.340888
  7236.308  7236.290  0.500  1.423829  150.432487  36.222664  0.368579
  7238.489  7238.480  0.500  1.422832  150.406710  36.252590  0.381246
  7240.692  7240.680  0.500  1.421601  150.371033  36.288647  0.379657
  7242.912  7242.900  0.500  1.420250  150.304970  36.321720  0.366916
  7245.162  7245.150  0.500  1.418649  147.497179  35.700318  0.342577
  7247.423  7247.410  0.500  1.416738  150.052335  36.388266  0.333740
  7249.699  7249.690  0.500  1.414396  150.055827  36.474413  0.327513
  7252.000  7251.990  0.500  1.411869  149.971925  36.546264  0.331461
  7254.321  7254.310  0.500  1.410104  147.624615  36.037794  0.336451
  7256.662  7256.650  0.500  1.408230  150.009369  36.688655  0.349942
  7259.013  7259.000  0.500  1.406130  149.851960  36.727206  0.347889
  7261.392  7261.380  0.500  1.404191  149.414108  36.690973  0.337672
  7263.787  7263.770  0.500  1.401644  138.908101  34.198057  0.305939
  7266.203  7266.190  0.500  1.399675  149.624338  36.908898  0.323102
  7268.632  7268.620  0.500  1.397145  150.144239  37.130979  0.315882
  7271.081  7271.070  0.500  1.394715  150.175664  37.229096  0.301960
  7273.563  7273.550  0.500  1.391831  149.011856  37.047269  0.284585
  7276.058  7276.040  0.500  1.389240  150.183625  37.435474  0.278742
  7278.559  7278.550  0.500  1.386649  150.102315  37.512263  0.273861
  7281.083  7281.070  0.500  1.384432  150.060254  37.585001  0.266921
  7283.628  7283.620  0.500  1.382238  149.035440  37.410306  0.255768
  7286.205  7286.190  0.500  1.380313  149.678594  37.644131  0.248086
  7288.783  7288.770  0.500  1.378000  150.224246  37.868854  0.246058
  7291.389  7291.380  0.500  1.375821  150.195139  37.944132  0.255272
  7294.014  7294.000  0.500  1.373786  150.152486  38.010609  0.277933
  7296.664  7296.650  0.500  1.371587  150.080511  38.076028  0.307527
  7299.322  7299.310  0.500  1.369562  149.952129  38.120572  0.337413
  7302.006  7301.990  0.500  1.367558  148.206190  37.752304  0.360073
  7304.709  7304.690  0.500  1.365044  150.084205  38.326908  0.385643
  7307.422  7307.410  0.500  1.362647  149.983897  38.393232  0.399876
  7310.161  7310.150  0.500  1.360526  149.930183  38.460942  0.406062
  7312.914  7312.900  0.500  1.358370  149.866839  38.527681  0.406375
  7315.694  7315.680  0.500  1.356254  149.793455  38.590386  0.406740
  7318.486  7318.470  0.500  1.354244  149.725644  38.650539  0.409204
  7321.307  7321.290  0.500  1.352031  149.696156  38.728551  0.412097
  7324.132  7324.120  0.500  1.349907  149.644883  38.797599  0.413934
  7326.978  7326.970  0.500  1.347637  149.551580  38.861506  0.415363
  7329.863  7329.850  0.500  1.345362  149.484573  38.932587  0.418377
  7332.755  7332.740  0.500  1.343163  149.401646  38.996622  0.426734
  7335.663  7335.650  0.500  1.341003  149.377470  39.074628  0.437764
  7338.580  7338.570  0.500  1.338511  148.159895  38.852836  0.440582
  7341.529  7341.520  0.500  1.336109  149.128969  39.201014  0.440382
  7344.500  7344.490  0.500  1.333561  149.120774  39.298842  0.425677
  7347.481  7347.470  0.500  1.331131  149.063272  39.379280  0.404015
  7350.496  7350.480  0.500  1.328667  148.997295  39.458960  0.382750
  7353.517  7353.500  0.500  1.326389  148.945271  39.535153  0.365506
  7356.566  7356.550  0.500  1.324093  148.871877  39.606495  0.350776
  7359.618  7359.610  0.500  1.321364  148.801557  39.695949  0.338703
  7362.703  7362.690  0.500  1.318685  148.732531  39.783983  0.330168
  7365.806  7365.790  0.500  1.315672  148.659004  39.884317  0.327501
