# XDI/1.0 BlueSky/1.10.0 BMM/2023-1.0-py310-tiled
# Beamline.name: BMM (06BM) -- Beamline for Materials Measurement (NIST)
# Beamline.xray_source: NSLS-II three-pole wiggler
# Beamline.collimation: paraboloid mirror, 5 nm Rh on 30 nm Pt
# Beamline.focusing: not in use
# Beamline.harmonic_rejection: flat mirror, Si stripe, pitch = 7.0 mrad relative to beam
# Beamline.software: Bluesky 1.10.0, Ophyd 1.7.0, DataBroker 2.0.0b13, Python 3.10.8, 2023-1.0-py310-tiled
# Detector.I0: 10 cm N2
# Detector.I1: 25 cm N2
# Detector.I2: 25 cm N2
# Element.symbol: Fe
# Element.edge: K
# Element.reference: Fe
# Element.reference_material: Fe foil
# Facility.name: NSLS-II
# Facility.energy: 3.0
# Facility.current: 399.8
# Facility.mode: top-off
# Facility.GUP: 123456
# Facility.SAF: 301027
# Facility.cycle: 2023-2
# Mono.name: Si(111)
# Mono.d_spacing: 3.1351860
# Mono.encoder_resolution: 0.0000050 deg/ct
# Mono.angle_offset: 16.0754326 deg
# Mono.scan_mode: pseudo channel cut
# Mono.scan_type: step
# Mono.direction: forward in energy
# Sample.name: (Mg,Fe)5(SiO)2(F,OH,O)2
# Sample.prep: PEG pellet
# Sample.x: 142.329 mm
# Sample.y: 114.126 mm
# Sample.SDD_position: 205.000 mm
# Scan.experimenters: Bruce Ravel
# Scan.edge_energy: 7112.0
# Scan.start_time: 2023-05-05T20:19:46
# Scan.end_time: 2023-05-05T20:28:06
# Scan.transient_id: 74616
# Scan.uid: ca4c7060-7cb4-4ca4-b453-f85e409dfc8f
# Scan.plot_hint: ln(I0/It)  --  ln($5/$6)
# Column.1: energy eV
# Column.2: requested_energy eV
# Column.3: measurement_time seconds
# Column.4: xmu 
# Column.5: I0 nA
# Column.6: It nA
# Column.7: Ir nA
# ///////////
# courtesy Martin Stennett, University of Sheffield
# -----------
# energy  requested_energy  measurement_time  xmu  I0  It  Ir
  6912.005  6912.000  0.500  1.783946  154.415937  25.937866  4.866984
  6922.007  6922.000  0.500  1.773841  154.260152  26.174871  4.947491
  6932.017  6932.000  0.500  1.763402  154.205277  26.440110  5.032678
  6942.031  6942.000  0.500  1.753034  154.219039  26.718068  5.121063
  6952.002  6952.000  0.500  1.742935  154.198256  26.985633  5.207858
  6962.006  6962.000  0.500  1.732634  154.189469  27.263475  5.298103
  6972.012  6972.000  0.500  1.722590  154.169629  27.535161  5.388093
  6982.017  6982.000  0.500  1.712601  154.564264  27.882771  5.493697
  6992.010  6992.000  0.500  1.702527  154.607038  28.172862  5.588859
  7002.011  7002.000  0.500  1.692516  154.565253  28.448630  5.681004
  7012.010  7012.000  0.500  1.682758  154.507970  28.716959  5.772146
  7022.016  7022.000  0.500  1.672842  154.434524  28.989351  5.864872
  7032.010  7032.000  0.500  1.663066  154.370834  29.262052  5.958861
  7042.008  7042.000  0.500  1.653358  154.277333  29.529631  6.050550
  7052.003  7052.000  0.500  1.643696  154.177614  29.797044  6.141118
  7062.008  7062.000  0.500  1.634085  153.455370  29.943861  6.205416
  7072.007  7072.000  0.500  1.624807  153.957949  30.321964  6.315241
  7081.978  7082.000  0.500  1.615499  153.876016  30.589239  6.393431
  7083.983  7084.000  0.500  1.613728  153.642825  30.597016  6.398246
  7085.982  7086.000  0.500  1.611858  153.760225  30.677697  6.417965
  7087.983  7088.000  0.500  1.610181  153.752270  30.727608  6.428353
  7089.985  7090.000  0.500  1.608432  153.748437  30.780623  6.438595
  7091.993  7092.000  0.500  1.606524  153.712610  30.832244  6.447573
  7093.989  7094.000  0.500  1.604682  153.683974  30.883320  6.454165
  7096.528  7096.000  0.500  1.602717  153.646786  30.936567  6.456099
  7097.980  7098.000  0.500  1.601233  153.667286  30.986650  6.456021
  7100.105  7100.000  0.500  1.599596  153.597657  31.023360  6.446344
  7101.986  7102.000  0.500  1.598251  153.578804  31.061308  6.427080
  7102.288  7102.300  0.500  1.597900  153.586499  31.073776  6.425519
  7102.587  7102.600  0.500  1.597663  153.567620  31.077296  6.420636
  7102.884  7102.900  0.500  1.597423  153.561385  31.083521  6.416085
  7103.199  7103.200  0.500  1.597239  153.547415  31.086413  6.410915
  7103.496  7103.500  0.500  1.597341  153.523032  31.078288  6.401673
  7103.793  7103.800  0.500  1.596860  153.518201  31.092274  6.397377
  7104.093  7104.100  0.500  1.596572  153.482626  31.094022  6.389145
  7104.392  7104.400  0.500  1.596209  153.497723  31.108350  6.384529
  7104.683  7104.700  0.500  1.596030  153.496525  31.113693  6.375409
  7104.983  7105.000  0.500  1.595844  153.475095  31.115149  6.366805
  7105.285  7105.300  0.500  1.595746  153.470618  31.117277  6.355989
  7105.589  7105.600  0.500  1.595541  153.478014  31.125140  6.344875
  7105.884  7105.900  0.500  1.595271  153.448615  31.127593  6.331928
  7106.192  7106.200  0.500  1.595090  153.401647  31.123713  6.316740
  7106.490  7106.500  0.500  1.594923  153.429757  31.134614  6.302455
  7106.787  7106.800  0.500  1.594810  153.432513  31.138677  6.285932
  7107.089  7107.100  0.500  1.594619  153.415394  31.141146  6.265767
  7107.389  7107.400  0.500  1.594452  153.401394  31.143516  6.244369
  7107.689  7107.700  0.500  1.594330  153.390129  31.145040  6.217958
  7107.987  7108.000  0.500  1.594279  153.371546  31.142836  6.186883
  7108.284  7108.300  0.500  1.594019  153.365353  31.149671  6.153317
  7108.582  7108.600  0.500  1.593868  153.357642  31.152821  6.112870
  7108.893  7108.900  0.500  1.593767  153.357264  31.155881  6.063608
  7109.191  7109.200  0.500  1.593707  153.336344  31.153504  6.000837
  7109.486  7109.500  0.500  1.593789  153.308190  31.145245  5.922327
  7109.793  7109.800  0.500  1.593754  153.309995  31.146693  5.817644
  7110.088  7110.100  0.500  1.593846  153.282236  31.138192  5.674826
  7110.393  7110.400  0.500  1.594328  153.268438  31.120388  5.465693
  7110.701  7110.700  0.500  1.594721  153.254821  31.105402  5.176694
  7110.995  7111.000  0.500  1.595455  153.229185  31.077374  4.808032
  7111.293  7111.300  0.500  1.596533  153.214944  31.041000  4.361095
  7111.593  7111.600  0.500  1.597198  153.132696  31.003705  3.898703
  7111.889  7111.900  0.500  1.597313  153.117492  30.997060  3.479744
  7112.196  7112.200  0.500  1.597346  153.072910  30.987017  3.145229
  7112.492  7112.500  0.500  1.596959  153.045600  30.993483  2.901095
  7112.786  7112.800  0.500  1.596713  153.055586  31.003123  2.716590
  7113.092  7113.100  0.500  1.596472  153.038757  31.007190  2.565049
  7113.397  7113.400  0.500  1.596449  153.006149  31.001286  2.433562
  7113.697  7113.700  0.500  1.596610  153.013033  30.997691  2.313697
  7113.998  7114.000  0.500  1.596221  152.995882  31.006297  2.206935
  7114.296  7114.300  0.500  1.596016  152.988914  31.011233  2.114120
  7114.598  7114.600  0.500  1.595685  152.967877  31.017243  2.037247
  7114.897  7114.900  0.500  1.595472  152.953857  31.021002  1.976215
  7115.204  7115.200  0.500  1.595470  152.934118  31.017047  1.931311
  7115.500  7115.500  0.500  1.595911  152.917505  31.000017  1.899138
  7115.796  7115.800  0.500  1.596493  152.910816  30.980607  1.875188
  7116.094  7116.100  0.500  1.597536  152.911886  30.948542  1.856144
  7116.393  7116.400  0.500  1.598657  152.894369  30.910310  1.835433
  7116.698  7116.700  0.500  1.600288  152.883349  30.857726  1.806776
  7116.994  7117.000  0.500  1.602275  152.865910  30.792969  1.766397
  7117.293  7117.300  0.500  1.605073  152.845380  30.702795  1.707856
  7117.600  7117.600  0.500  1.609188  152.845258  30.576697  1.627958
  7117.900  7117.900  0.500  1.614480  152.810687  30.408435  1.531246
  7118.203  7118.200  0.500  1.621946  152.796976  30.179526  1.420079
  7118.504  7118.500  0.500  1.632550  152.785279  29.858920  1.304902
  7118.801  7118.800  0.500  1.645831  152.758765  29.459880  1.192982
  7119.097  7119.100  0.500  1.662766  152.751831  28.963845  1.084976
  7119.402  7119.400  0.500  1.683224  152.734016  28.374030  0.982091
  7119.703  7119.700  0.500  1.705389  152.714095  27.748415  0.886353
  7120.000  7120.000  0.500  1.728007  152.722415  27.129325  0.797455
  7120.294  7120.300  0.500  1.749749  152.706182  26.543007  0.715657
  7120.595  7120.600  0.500  1.768781  152.705979  26.042604  0.642276
  7120.896  7120.900  0.500  1.783315  152.672501  25.661193  0.579539
  7121.206  7121.200  0.500  1.793310  152.650778  25.402375  0.526821
  7121.498  7121.500  0.500  1.801592  152.643257  25.191613  0.484804
  7121.795  7121.800  0.500  1.809775  152.616821  24.982003  0.449088
  7122.102  7122.100  0.500  1.818066  152.598427  24.772735  0.417320
  7122.403  7122.400  0.500  1.825000  152.579913  24.598580  0.390857
  7122.705  7122.700  0.500  1.831333  152.581074  24.443463  0.367899
  7123.006  7123.000  0.500  1.838096  152.569755  24.276927  0.347734
  7123.301  7123.300  0.500  1.847532  152.545196  24.045034  0.329342
  7123.600  7123.600  0.500  1.860398  152.532049  23.735615  0.311784
  7123.903  7123.900  0.500  1.877850  152.548570  23.327508  0.294956
  7124.204  7124.200  0.500  1.898224  152.521970  22.853061  0.278982
  7124.499  7124.500  0.500  1.921228  152.495748  22.329504  0.263130
  7124.796  7124.800  0.500  1.945236  152.483554  21.798063  0.248504
  7125.095  7125.100  0.500  1.968200  152.460347  21.299952  0.235210
  7125.403  7125.400  0.500  1.988912  152.446176  20.861377  0.222835
  7125.700  7125.700  0.500  2.006715  152.415991  20.489220  0.212412
  7125.999  7126.000  0.500  2.022027  152.406583  20.176617  0.202908
  7126.301  7126.300  0.500  2.035114  152.375374  19.910219  0.194137
  7126.602  7126.600  0.500  2.044851  152.353698  19.714491  0.185888
  7126.906  7126.900  0.500  2.048954  152.328210  19.630487  0.178661
  7127.208  7127.200  0.500  2.046285  152.303968  19.679804  0.172249
  7127.503  7127.500  0.500  2.037566  152.293290  19.850760  0.167114
  7127.800  7127.800  0.500  2.025334  152.269386  20.091915  0.162139
  7128.102  7128.100  0.500  2.011349  152.249523  20.372206  0.157055
  7128.403  7128.400  0.500  1.998392  152.216814  20.633454  0.151895
  7128.701  7128.700  0.500  1.987622  152.193640  20.853703  0.145814
  7128.996  7129.000  0.500  1.980105  152.172803  21.008181  0.139576
  7129.295  7129.300  0.500  1.976079  152.160176  21.091182  0.133306
  7129.595  7129.600  0.500  1.975151  152.113797  21.104317  0.127172
  7129.897  7129.900  0.500  1.976375  152.102217  21.076905  0.121223
  7130.203  7130.200  0.500  1.977804  152.066942  21.041934  0.116603
  7130.502  7130.500  0.500  1.977586  151.964649  21.032354  0.113180
  7130.800  7130.800  0.500  1.973735  152.016698  21.120737  0.111459
  7131.104  7131.100  0.500  1.965751  151.983876  21.285444  0.111247
  7131.402  7131.400  0.500  1.953492  151.970190  21.546053  0.113185
  7131.708  7131.700  0.500  1.937529  151.928462  21.886729  0.117034
  7132.003  7132.000  0.500  1.921341  151.892726  22.238689  0.121955
  7132.297  7132.300  0.500  1.905252  151.910822  22.602064  0.128168
  7132.594  7132.600  0.500  1.890533  151.913646  22.937637  0.135224
  7132.903  7132.900  0.500  1.876822  151.905644  23.253085  0.143115
  7133.198  7133.200  0.500  1.865079  151.880056  23.523777  0.151067
  7133.496  7133.500  0.500  1.855165  151.896478  23.760720  0.159110
  7133.798  7133.800  0.500  1.847057  151.919524  23.957796  0.167251
  7134.098  7134.100  0.500  1.840807  152.376289  24.180496  0.175578
  7134.400  7134.400  0.500  1.835934  152.390141  24.300812  0.182652
  7134.703  7134.700  0.500  1.832424  152.382798  24.385097  0.189149
  7135.001  7135.000  0.500  1.829110  152.366544  24.463423  0.194732
  7135.301  7135.300  0.500  1.826015  152.370899  24.539951  0.199765
  7135.603  7135.600  0.500  1.822879  152.348841  24.613474  0.204409
  7135.905  7135.900  0.500  1.820092  152.323435  24.678039  0.207956
  7136.199  7136.200  0.500  1.817438  152.314846  24.742244  0.210724
  7136.503  7136.500  0.500  1.814275  152.356363  24.827384  0.212800
  7136.795  7136.800  0.500  1.811389  152.347586  24.897701  0.214122
  7136.998  7137.000  0.500  1.809314  152.292615  24.940429  0.214601
  7137.998  7137.990  0.500  1.802998  152.312702  25.101752  0.212252
  7139.005  7138.990  0.500  1.807361  152.319715  24.993621  0.202430
  7140.021  7140.010  0.500  1.814294  152.305282  24.818582  0.191350
  7141.087  7141.060  0.500  1.811985  152.318711  24.878161  0.185269
  7142.110  7142.120  0.500  1.804626  152.255409  25.051496  0.185402
  7143.186  7143.200  0.500  1.797171  152.265482  25.240616  0.189474
  7144.287  7144.300  0.500  1.793262  152.270028  25.340230  0.193460
  7145.417  7145.420  0.500  1.790204  152.256065  25.415514  0.193275
  7146.554  7146.560  0.500  1.784388  152.264060  25.565109  0.187505
  7147.707  7147.710  0.500  1.776017  152.247149  25.777150  0.177468
  7148.890  7148.890  0.500  1.767831  152.242982  25.988299  0.167082
  7150.076  7150.080  0.500  1.762422  152.223630  26.125942  0.160021
  7151.301  7151.300  0.500  1.760904  152.233204  26.167279  0.155427
  7152.532  7152.530  0.500  1.763234  152.219476  26.104028  0.151960
  7153.782  7153.780  0.500  1.768216  152.195976  25.970293  0.149620
  7155.054  7155.050  0.500  1.775990  152.193254  25.768703  0.149498
  7156.337  7156.340  0.500  1.784602  152.170601  25.543945  0.151043
  7157.654  7157.650  0.500  1.790920  152.157527  25.380882  0.152570
  7158.982  7158.980  0.500  1.794299  152.135825  25.291659  0.152970
  7160.332  7160.330  0.500  1.797584  152.113825  25.205070  0.152759
  7161.703  7161.700  0.500  1.802062  152.068130  25.084921  0.152989
  7163.080  7163.080  0.500  1.806090  152.054505  24.981829  0.155149
  7164.497  7164.490  0.500  1.809197  151.997755  24.895037  0.157641
  7165.920  7165.910  0.500  1.812505  151.939751  24.803356  0.159807
  7167.353  7167.350  0.500  1.816843  151.905132  24.690369  0.161195
  7168.816  7168.810  0.500  1.820529  151.862376  24.592604  0.162429
  7170.292  7170.290  0.500  1.821870  151.841218  24.556231  0.165199
  7171.793  7171.790  0.500  1.822129  151.809701  24.544779  0.169823
  7173.314  7173.310  0.500  1.820173  151.770507  24.586485  0.177590
  7174.851  7174.850  0.500  1.817252  151.738592  24.653215  0.187760
  7176.420  7176.410  0.500  1.814001  151.712934  24.729300  0.199365
  7177.985  7177.980  0.500  1.810991  151.688853  24.799907  0.210538
  7179.589  7179.580  0.500  1.809010  151.661596  24.844631  0.218290
  7181.195  7181.190  0.500  1.806354  151.634642  24.906268  0.220623
  7182.836  7182.830  0.500  1.802372  151.605055  25.000763  0.219487
  7184.490  7184.480  0.500  1.797405  151.587256  25.122313  0.215997
  7186.152  7186.150  0.500  1.791483  151.535412  25.262893  0.208956
  7187.846  7187.840  0.500  1.785084  151.501338  25.419334  0.199770
  7189.552  7189.550  0.500  1.778628  151.484196  25.581099  0.190474
  7191.292  7191.280  0.500  1.772621  149.942150  25.473232  0.178309
  7193.039  7193.030  0.500  1.767376  151.097145  25.804438  0.170743
  7194.801  7194.790  0.500  1.763568  151.287371  25.935509  0.168164
  7196.593  7196.580  0.500  1.761090  151.247099  25.992946  0.172142
  7198.394  7198.380  0.500  1.759103  151.208164  26.037942  0.180988
  7200.224  7200.210  0.500  1.757425  151.165539  26.074300  0.193671
  7202.057  7202.050  0.500  1.755496  151.133437  26.119115  0.209065
  7203.920  7203.910  0.500  1.752975  151.071224  26.174265  0.226945
  7205.799  7205.790  0.500  1.750048  151.041823  26.245869  0.244015
  7207.697  7207.690  0.500  1.747494  150.973696  26.301124  0.252769
  7209.618  7209.610  0.500  1.746171  150.920968  26.326735  0.245524
  7211.560  7211.550  0.500  1.746235  150.882046  26.318274  0.220846
  7213.523  7213.510  0.500  1.747327  150.813401  26.277580  0.187141
  7215.493  7215.480  0.500  1.748326  150.768270  26.243491  0.156229
  7217.485  7217.480  0.500  1.748534  150.712678  26.228355  0.133655
  7219.502  7219.490  0.500  1.748107  150.665509  26.231338  0.121459
  7221.529  7221.520  0.500  1.747085  150.609508  26.248405  0.119166
  7223.588  7223.580  0.500  1.746091  150.538599  26.262133  0.126833
  7225.660  7225.650  0.500  1.744567  150.424442  26.282248  0.142992
  7227.755  7227.740  0.500  1.742360  147.806830  25.881969  0.162733
  7229.858  7229.850  0.500  1.739751  150.609248  26.441571  0.192927
  7231.995  7231.980  0.500  1.737211  150.530506  26.494960  0.222862
  7234.128  7234.120  0.500  1.734796  150.445987  26.544120  0.250732
  7236.308  7236.290  0.500  1.732702  150.435837  26.597972  0.271602
  7238.485  7238.480  0.500  1.730816  150.389263  26.639916  0.280896
  7240.692  7240.680  0.500  1.729675  150.364759  26.665981  0.280119
  7242.910  7242.900  0.500  1.729284  150.337569  26.671598  0.270628
  7245.160  7245.150  0.500  1.729170  147.508808  26.172717  0.252064
  7247.419  7247.410  0.500  1.728606  150.065675  26.641424  0.245340
  7249.703  7249.690  0.500  1.727165  150.071546  26.680888  0.240506
  7252.003  7251.990  0.500  1.724520  149.988329  26.736722  0.243485
  7254.324  7254.310  0.500  1.720938  147.655978  26.415408  0.247582
  7256.662  7256.650  0.500  1.717374  150.055413  26.940493  0.257929
  7259.010  7259.000  0.500  1.713994  149.883188  27.000687  0.256669
  7261.397  7261.380  0.500  1.710794  149.443245  27.007709  0.249425
  7263.787  7263.770  0.500  1.707523  138.981558  25.199346  0.226111
  7266.205  7266.190  0.500  1.704422  149.624123  27.213256  0.239128
  7268.632  7268.620  0.500  1.701254  150.256618  27.415009  0.234306
  7271.079  7271.070  0.500  1.698618  150.182845  27.473871  0.223817
  7273.565  7273.550  0.500  1.696301  149.048278  27.329566  0.210891
  7276.049  7276.040  0.500  1.694319  150.225667  27.600093  0.206380
  7278.557  7278.550  0.500  1.692029  150.159212  27.651145  0.202836
  7281.085  7281.070  0.500  1.689441  150.125745  27.716622  0.197322
  7283.633  7283.620  0.500  1.686615  149.104134  27.605899  0.189518
  7286.200  7286.190  0.500  1.683824  149.742901  27.801652  0.183892
  7288.790  7288.770  0.500  1.681251  149.823939  27.888380  0.181736
  7291.391  7291.380  0.500  1.678748  149.797461  27.953314  0.188907
  7294.012  7294.000  0.500  1.675510  149.755307  28.036093  0.205551
  7296.666  7296.650  0.500  1.672586  149.686071  28.105184  0.227839
  7299.316  7299.310  0.500  1.669274  149.561962  28.175048  0.250483
  7302.006  7301.990  0.500  1.666539  147.839907  27.926908  0.267063
  7304.705  7304.690  0.500  1.663676  149.690277  28.357523  0.286118
  7307.422  7307.410  0.500  1.660610  149.620878  28.431410  0.297037
  7310.159  7310.150  0.500  1.658161  149.528522  28.483538  0.301751
  7312.912  7312.900  0.500  1.655488  149.463762  28.547391  0.302168
  7315.696  7315.680  0.500  1.652909  149.395673  28.608075  0.302677
  7318.481  7318.470  0.500  1.650705  149.313843  28.655509  0.304327
  7321.307  7321.290  0.500  1.648675  149.275975  28.706460  0.306480
  7324.139  7324.120  0.500  1.647003  149.226162  28.744890  0.307858
  7326.981  7326.970  0.500  1.644960  149.145636  28.788138  0.308680
  7329.861  7329.850  0.500  1.642719  149.081509  28.840304  0.311119
  7332.757  7332.740  0.500  1.640762  149.046224  28.889956  0.317129
  7335.665  7335.650  0.500  1.638598  149.023441  28.948129  0.325273
  7338.585  7338.570  0.500  1.636571  147.738646  28.756787  0.327280
  7341.529  7341.520  0.500  1.634061  148.759149  29.028194  0.327412
  7344.497  7344.490  0.500  1.631200  148.738953  29.107413  0.316390
  7347.488  7347.470  0.500  1.628016  148.707489  29.194048  0.300516
  7350.498  7350.480  0.500  1.624601  148.641349  29.280903  0.285056
  7353.517  7353.500  0.500  1.621239  148.578761  29.367123  0.272405
  7356.562  7356.550  0.500  1.618146  148.497826  29.442054  0.261834
  7359.625  7359.610  0.500  1.614833  148.410450  29.522390  0.252857
  7362.703  7362.690  0.500  1.611560  148.341312  29.605383  0.246572
  7365.799  7365.790  0.500  1.608340  148.245337  29.681643  0.244482
