# XDI/1.0 BlueSky/1.10.0 BMM/2023-1.0-py310-tiled
# Beamline.name: BMM (06BM) -- Beamline for Materials Measurement (NIST)
# Beamline.xray_source: NSLS-II three-pole wiggler
# Beamline.collimation: paraboloid mirror, 5 nm Rh on 30 nm Pt
# Beamline.focusing: not in use
# Beamline.harmonic_rejection: flat mirror, Si stripe, pitch = 7.0 mrad relative to beam
# Beamline.software: Bluesky 1.10.0, Ophyd 1.7.0, DataBroker 2.0.0b13, Python 3.10.8, 2023-1.0-py310-tiled
# Detector.I0: 10 cm N2
# Detector.I1: 25 cm N2
# Detector.I2: 25 cm N2
# Element.symbol: Fe
# Element.edge: K
# Element.reference: Fe
# Element.reference_material: Fe foil
# Facility.name: NSLS-II
# Facility.energy: 3.0
# Facility.current: 399.9
# Facility.mode: top-off
# Facility.GUP: 123456
# Facility.SAF: 301027
# Facility.cycle: 2023-2
# Mono.name: Si(111)
# Mono.d_spacing: 3.1351860
# Mono.encoder_resolution: 0.0000050 deg/ct
# Mono.angle_offset: 16.0754326 deg
# Mono.scan_mode: pseudo channel cut
# Mono.scan_type: step
# Mono.direction: forward in energy
# Sample.name: Fe2(PO4)(SO4)OH.5H2O
# Sample.prep: PEG pellet
# Sample.x: 142.329 mm
# Sample.y: 114.126 mm
# Sample.SDD_position: 205.000 mm
# Scan.experimenters: Bruce Ravel
# Scan.edge_energy: 7112.0
# Scan.start_time: 2023-05-05T20:37:42
# Scan.end_time: 2023-05-05T20:46:51
# Scan.transient_id: 74626
# Scan.uid: ee75aa70-2503-472a-94e1-c324288f7181
# Scan.plot_hint: ln(I0/It)  --  ln($5/$6)
# Column.1: energy eV
# Column.2: requested_energy eV
# Column.3: measurement_time seconds
# Column.4: xmu 
# Column.5: I0 nA
# Column.6: It nA
# Column.7: Ir nA
# ///////////
# courtesy Martin Stennett, University of Sheffield
# -----------
# energy  requested_energy  measurement_time  xmu  I0  It  Ir
  6912.007  6912.000  0.500  1.398680  154.669825  38.191484  7.167433
  6922.011  6922.000  0.500  1.389516  154.499638  38.500681  7.278425
  6932.017  6932.000  0.500  1.380167  154.444904  38.848529  7.395768
  6942.019  6942.000  0.500  1.371694  154.460974  39.183165  7.511396
  6952.002  6952.000  0.500  1.362816  154.443092  39.528017  7.631116
  6962.014  6962.000  0.500  1.354141  154.441746  39.872075  7.751326
  6972.012  6972.000  0.500  1.345506  154.417815  40.211630  7.870317
  6982.023  6982.000  0.500  1.336989  154.389683  40.548169  7.990511
  6992.018  6992.000  0.500  1.328502  154.383305  40.892072  8.112798
  7002.013  7002.000  0.500  1.320144  154.316493  41.217432  8.232344
  7012.014  7012.000  0.500  1.311421  154.260192  41.563395  8.356204
  7022.014  7022.000  0.500  1.303128  154.184657  41.889001  8.477472
  7032.014  7032.000  0.500  1.294914  154.110759  42.214238  8.597380
  7042.013  7042.000  0.500  1.286895  154.045962  42.536220  8.716015
  7052.013  7052.000  0.500  1.278820  153.926438  42.847831  8.834231
  7062.012  7062.000  0.500  1.270763  153.203359  42.991533  8.913316
  7072.005  7072.000  0.500  1.262920  153.696632  43.469541  9.055048
  7082.001  7082.000  0.500  1.255505  153.609941  43.768381  9.150303
  7084.000  7084.000  0.500  1.254094  153.422411  43.776650  9.155611
  7085.993  7086.000  0.500  1.252650  153.531913  43.871222  9.177872
  7088.002  7088.000  0.500  1.251301  153.520379  43.927160  9.191039
  7090.005  7090.000  0.500  1.249908  153.519390  43.988082  9.203296
  7092.001  7092.000  0.500  1.248653  153.486401  44.033856  9.210128
  7093.997  7094.000  0.500  1.247415  153.450535  44.078124  9.212874
  7096.001  7096.000  0.500  1.246600  153.444666  44.112364  9.210282
  7098.317  7098.000  0.500  1.244976  153.405837  44.172894  9.202913
  7100.133  7100.000  0.500  1.244251  153.398394  44.202785  9.184922
  7102.003  7102.000  0.500  1.243315  153.329443  44.224263  9.152928
  7102.294  7102.300  0.500  1.243185  153.319774  44.227245  9.145630
  7102.602  7102.600  0.500  1.242986  153.320995  44.236386  9.141165
  7102.957  7102.900  0.500  1.242903  153.324406  44.241054  9.132950
  7103.182  7103.200  0.500  1.242911  153.320147  44.239458  9.124072
  7103.479  7103.500  0.500  1.242650  153.281591  44.239896  9.114620
  7103.783  7103.800  0.500  1.242773  153.277500  44.233254  9.103517
  7104.084  7104.100  0.500  1.242591  153.218316  44.224213  9.089458
  7104.392  7104.400  0.500  1.242429  153.268976  44.246003  9.080904
  7104.690  7104.700  0.500  1.242468  153.262536  44.242427  9.067935
  7104.992  7105.000  0.500  1.242336  153.262117  44.248140  9.055224
  7105.298  7105.300  0.500  1.242379  153.255475  44.244340  9.037615
  7105.617  7105.600  0.500  1.242321  153.257945  44.247597  9.019929
  7105.933  7105.900  0.500  1.242246  153.238550  44.245331  9.000046
  7106.207  7106.200  0.500  1.242270  153.747896  44.391313  9.009549
  7106.490  7106.500  0.500  1.242165  153.749753  44.396535  8.988917
  7106.798  7106.800  0.500  1.242351  153.731498  44.382997  8.959856
  7107.079  7107.100  0.500  1.242091  153.702517  44.386183  8.932150
  7107.387  7107.400  0.500  1.242021  153.666042  44.378745  8.899090
  7107.725  7107.700  0.500  1.242242  153.652345  44.364968  8.852339
  7107.995  7108.000  0.500  1.242237  153.612720  44.353769  8.811513
  7108.284  7108.300  0.500  1.242251  153.603559  44.350491  8.761579
  7108.593  7108.600  0.500  1.242390  153.596134  44.342210  8.698516
  7108.888  7108.900  0.500  1.242475  153.607459  44.341712  8.629357
  7109.186  7109.200  0.500  1.242705  153.602915  44.330163  8.540634
  7109.491  7109.500  0.500  1.242842  153.578574  44.317071  8.427062
  7109.793  7109.800  0.500  1.242874  153.565086  44.311757  8.275577
  7110.097  7110.100  0.500  1.243288  153.550012  44.289079  8.067254
  7110.397  7110.400  0.500  1.243751  153.500223  44.254226  7.770014
  7110.701  7110.700  0.500  1.243956  153.492214  44.242869  7.362200
  7110.993  7111.000  0.500  1.244477  153.472250  44.214077  6.840055
  7111.293  7111.300  0.500  1.245258  153.434920  44.168811  6.205769
  7111.600  7111.600  0.500  1.246370  153.412357  44.113199  5.526137
  7111.893  7111.900  0.500  1.247883  153.388545  44.039691  4.934970
  7112.196  7112.200  0.500  1.250430  153.357991  43.918919  4.453367
  7112.492  7112.500  0.500  1.255015  153.329601  43.709896  4.086792
  7112.790  7112.800  0.500  1.260340  153.307070  43.471377  3.805411
  7113.094  7113.100  0.500  1.266084  153.294241  43.218777  3.569148
  7113.395  7113.400  0.500  1.270286  153.276273  43.032517  3.373103
  7113.697  7113.700  0.500  1.272374  153.260596  42.938360  3.202055
  7113.998  7114.000  0.500  1.273791  153.239349  42.871606  3.048962
  7114.298  7114.300  0.500  1.276821  153.228983  42.739010  2.909527
  7114.600  7114.600  0.500  1.279740  153.215209  42.610638  2.793235
  7114.901  7114.900  0.500  1.279699  153.216977  42.612879  2.709699
  7115.204  7115.200  0.500  1.275153  153.209470  42.804906  2.660505
  7115.498  7115.500  0.500  1.268898  153.207611  43.072962  2.634796
  7115.796  7115.800  0.500  1.263251  153.192882  43.312728  2.618367
  7116.099  7116.100  0.500  1.259700  153.167447  43.459603  2.601669
  7116.395  7116.400  0.500  1.258191  153.176714  43.527869  2.580481
  7116.693  7116.700  0.500  1.257609  153.154789  43.546981  2.546208
  7116.994  7117.000  0.500  1.257995  153.151596  43.529260  2.492489
  7117.295  7117.300  0.500  1.258724  153.131694  43.491894  2.415513
  7117.598  7117.600  0.500  1.259853  153.128931  43.442037  2.308070
  7117.900  7117.900  0.500  1.261234  153.098957  43.373570  2.177972
  7118.203  7118.200  0.500  1.262973  153.094338  43.296896  2.031451
  7118.498  7118.500  0.500  1.264825  153.085827  43.214390  1.884703
  7118.798  7118.800  0.500  1.267229  153.054723  43.101867  1.740033
  7119.104  7119.100  0.500  1.269613  153.044356  42.996325  1.601968
  7119.400  7119.400  0.500  1.272390  153.020775  42.870485  1.476178
  7119.703  7119.700  0.500  1.275402  153.006408  42.737553  1.357083
  7119.998  7120.000  0.500  1.279138  153.002965  42.577233  1.245910
  7120.294  7120.300  0.500  1.284348  152.990332  42.352490  1.137255
  7120.602  7120.600  0.500  1.291028  152.969239  42.064718  1.031071
  7120.896  7120.900  0.500  1.299566  152.960579  41.704704  0.937824
  7121.199  7121.200  0.500  1.310557  152.939327  41.243112  0.852990
  7121.496  7121.500  0.500  1.322975  152.921882  40.729486  0.781488
  7121.797  7121.800  0.500  1.338279  152.915890  40.109328  0.718041
  7122.102  7122.100  0.500  1.356824  152.902785  39.368993  0.661303
  7122.403  7122.400  0.500  1.378195  152.888907  38.533051  0.610638
  7122.707  7122.700  0.500  1.404010  152.869979  37.546424  0.563484
  7123.001  7123.000  0.500  1.433721  152.863626  36.445759  0.520749
  7123.301  7123.300  0.500  1.467242  152.853600  35.241993  0.481650
  7123.604  7123.600  0.500  1.503822  152.840290  33.973186  0.444827
  7123.903  7123.900  0.500  1.541404  152.819381  32.715638  0.412122
  7124.202  7124.200  0.500  1.580238  152.810546  31.467684  0.382430
  7124.495  7124.500  0.500  1.620434  152.768804  30.219629  0.354977
  7124.794  7124.800  0.500  1.662952  152.773775  28.962618  0.328783
  7125.095  7125.100  0.500  1.706976  152.760239  27.712789  0.304453
  7125.399  7125.400  0.500  1.752806  152.739197  26.467719  0.281715
  7125.694  7125.700  0.500  1.798744  152.718383  25.275902  0.260898
  7125.999  7126.000  0.500  1.847621  152.696849  24.066804  0.241417
  7126.297  7126.300  0.500  1.898674  152.678452  22.866205  0.222099
  7126.607  7126.600  0.500  1.953977  152.656248  21.632830  0.203266
  7126.906  7126.900  0.500  2.011140  152.635630  20.428150  0.185652
  7127.203  7127.200  0.500  2.071110  152.594440  19.233896  0.168185
  7127.501  7127.500  0.500  2.132549  152.602871  18.088750  0.152179
  7127.800  7127.800  0.500  2.194342  152.576947  17.001937  0.137374
  7128.104  7128.100  0.500  2.256947  152.563338  15.968739  0.122947
  7128.401  7128.400  0.500  2.316687  152.532692  15.039681  0.110683
  7128.701  7128.700  0.500  2.377031  152.517516  14.157553  0.099258
  7128.994  7129.000  0.500  2.435894  152.509130  13.347513  0.088906
  7129.293  7129.300  0.500  2.493763  152.483135  12.594884  0.079802
  7129.599  7129.600  0.500  2.549723  152.445815  11.906522  0.071566
  7129.901  7129.900  0.500  2.599300  152.441868  11.330333  0.065209
  7130.201  7130.200  0.500  2.641032  152.389935  10.863518  0.060258
  7130.502  7130.500  0.500  2.674931  152.378494  10.500641  0.056382
  7130.800  7130.800  0.500  2.699256  152.356672  10.246824  0.053952
  7131.102  7131.100  0.500  2.714496  152.320351  10.089441  0.052620
  7131.406  7131.400  0.500  2.720302  152.316071  10.030751  0.052659
  7131.704  7131.700  0.500  2.718484  152.296868  10.047740  0.053596
  7132.001  7132.000  0.500  2.711374  152.280769  10.118360  0.055365
  7132.297  7132.300  0.500  2.701031  152.265973  10.222563  0.057793
  7132.599  7132.600  0.500  2.688802  152.263535  10.348176  0.060979
  7132.899  7132.900  0.500  2.675715  152.257457  10.484083  0.064251
  7133.196  7133.200  0.500  2.663618  152.251612  10.611272  0.067747
  7133.496  7133.500  0.500  2.652418  152.259714  10.731349  0.071687
  7133.796  7133.800  0.500  2.643144  152.240481  10.829973  0.075402
  7134.103  7134.100  0.500  2.635453  152.234117  10.913134  0.079052
  7134.400  7134.400  0.500  2.629247  152.241076  10.981568  0.082314
  7134.703  7134.700  0.500  2.624678  152.244279  11.032094  0.085315
  7135.001  7135.000  0.500  2.620905  152.229202  11.072696  0.087928
  7135.298  7135.300  0.500  2.617650  152.227169  11.108652  0.090022
  7135.603  7135.600  0.500  2.614442  152.256733  11.146508  0.092255
  7135.903  7135.900  0.500  2.611737  152.244380  11.175788  0.093746
  7136.201  7136.200  0.500  2.609138  152.241594  11.204671  0.095090
  7136.501  7136.500  0.500  2.606342  152.251649  11.236789  0.095929
  7136.804  7136.800  0.500  2.603475  152.243453  11.268444  0.096746
  7136.996  7137.000  0.500  2.601674  152.237761  11.288331  0.096776
  7137.998  7137.990  0.500  2.585076  152.245826  11.477861  0.096706
  7139.007  7138.990  0.500  2.556820  152.220879  11.804881  0.095102
  7140.026  7140.010  0.500  2.514884  152.225767  12.310849  0.094501
  7141.092  7141.060  0.500  2.463037  152.742721  13.009993  0.096505
  7142.106  7142.120  0.500  2.415134  152.735264  13.647717  0.100725
  7143.186  7143.200  0.500  2.371291  152.736426  14.259497  0.106910
  7144.287  7144.300  0.500  2.331973  152.739910  14.831659  0.112726
  7145.415  7145.420  0.500  2.295588  152.727528  15.379989  0.116643
  7146.554  7146.560  0.500  2.262614  152.720960  15.894899  0.116180
  7147.713  7147.710  0.500  2.234654  152.735237  16.347117  0.112201
  7148.888  7148.890  0.500  2.211283  152.720948  16.732108  0.107051
  7150.085  7150.080  0.500  2.190916  152.716974  17.075933  0.104093
  7151.308  7151.300  0.500  2.168142  152.724859  17.470192  0.103382
  7152.532  7152.530  0.500  2.143238  152.704597  17.908346  0.103671
  7153.790  7153.780  0.500  2.113961  152.691397  18.438807  0.105741
  7155.049  7155.050  0.500  2.083007  152.665436  19.015266  0.109929
  7156.346  7156.340  0.500  2.051295  152.658478  19.627039  0.115491
  7157.650  7157.650  0.500  2.022415  152.641893  20.199940  0.120847
  7158.980  7158.980  0.500  2.000206  152.619408  20.650546  0.124352
  7160.334  7160.330  0.500  1.985608  152.597047  20.951140  0.126292
  7161.707  7161.700  0.500  1.980072  152.568907  21.063559  0.127970
  7163.080  7163.080  0.500  1.983611  152.534254  20.984383  0.129612
  7164.493  7164.490  0.500  1.996050  152.490500  20.719016  0.130657
  7165.915  7165.910  0.500  2.015868  152.437742  20.305427  0.130201
  7167.353  7167.350  0.500  2.040780  152.379846  19.798315  0.128674
  7168.820  7168.810  0.500  2.068483  152.374537  19.256691  0.126648
  7170.294  7170.290  0.500  2.096720  152.359928  18.718745  0.125301
  7171.789  7171.790  0.500  2.123988  152.332762  18.211974  0.125548
  7173.318  7173.310  0.500  2.150563  152.266805  17.726687  0.127607
  7174.851  7174.850  0.500  2.178192  152.247127  17.241394  0.130683
  7176.420  7176.410  0.500  2.202405  152.212670  16.825129  0.134978
  7177.982  7177.980  0.500  2.213294  152.189372  16.640367  0.140592
  7179.587  7179.580  0.500  2.220050  152.153249  16.524409  0.144621
  7181.202  7181.190  0.500  2.224833  152.127307  16.442749  0.145022
  7182.834  7182.830  0.500  2.226626  152.096473  16.409968  0.143478
  7184.496  7184.480  0.500  2.225570  152.057894  16.423142  0.140464
  7186.154  7186.150  0.500  2.223004  152.030013  16.462316  0.135655
  7187.851  7187.840  0.500  2.220225  151.982150  16.502928  0.129132
  7189.559  7189.550  0.500  2.217630  151.955813  16.542952  0.122446
  7191.292  7191.280  0.500  2.213351  150.386951  16.442357  0.114689
  7193.037  7193.030  0.500  2.206985  151.572860  16.677842  0.110012
  7194.805  7194.790  0.500  2.199698  151.766312  16.821262  0.108661
  7196.589  7196.580  0.500  2.192805  151.743572  16.935084  0.111607
  7198.390  7198.380  0.500  2.186324  151.716206  17.042123  0.118054
  7200.219  7200.210  0.500  2.179675  151.656322  17.149033  0.126812
  7202.059  7202.050  0.500  2.171868  151.610349  17.278207  0.137780
  7203.922  7203.910  0.500  2.164058  151.556058  17.407439  0.150310
  7205.797  7205.790  0.500  2.156058  151.498010  17.540527  0.162595
  7207.703  7207.690  0.500  2.147703  151.454034  17.682571  0.169356
  7209.618  7209.610  0.500  2.139503  151.369333  17.818186  0.165500
  7211.562  7211.550  0.500  2.132053  151.311235  17.944545  0.150365
  7213.520  7213.510  0.500  2.124876  151.264392  18.068202  0.128157
  7215.498  7215.480  0.500  2.117497  151.217883  18.196417  0.107755
  7217.487  7217.480  0.500  2.110335  151.157210  18.319855  0.092977
  7219.504  7219.490  0.500  2.103796  151.100349  18.433102  0.085105
  7221.527  7221.520  0.500  2.097674  151.052132  18.540383  0.083931
  7223.599  7223.580  0.500  2.091587  150.980950  18.644785  0.089751
  7225.660  7225.650  0.500  2.086347  150.846339  18.726035  0.101471
  7227.757  7227.740  0.500  2.081998  148.205095  18.478343  0.115619
  7229.856  7229.850  0.500  2.078621  151.026020  18.893751  0.137260
  7231.989  7231.980  0.500  2.075355  150.947696  18.945733  0.158665
  7234.130  7234.120  0.500  2.073348  150.883636  18.975740  0.178691
  7236.308  7236.290  0.500  2.072182  150.842816  18.992732  0.193277
  7238.487  7238.480  0.500  2.072068  150.798207  18.989272  0.199540
  7240.697  7240.680  0.500  2.072183  150.750076  18.981035  0.198579
  7242.910  7242.900  0.500  2.072879  150.716060  18.963556  0.191542
  7245.167  7245.150  0.500  2.073997  147.899625  18.588387  0.178233
  7247.421  7247.410  0.500  2.075255  150.431800  18.882854  0.173193
  7249.701  7249.690  0.500  2.076580  150.447567  18.859832  0.169298
  7251.998  7251.990  0.500  2.078028  150.372236  18.823126  0.170590
  7254.315  7254.310  0.500  2.079143  148.042418  18.510836  0.172864
  7256.662  7256.650  0.500  2.080892  150.421939  18.775487  0.179072
  7259.006  7259.000  0.500  2.082621  150.263074  18.723263  0.177254
  7261.397  7261.380  0.500  2.083978  149.837151  18.644862  0.171379
  7263.782  7263.770  0.500  2.084791  139.328558  17.323152  0.154844
  7266.198  7266.190  0.500  2.086733  149.998371  18.613582  0.162951
  7268.637  7268.620  0.500  2.086672  150.624885  18.692464  0.159165
  7271.081  7271.070  0.500  2.085690  150.568843  18.703872  0.151615
  7273.567  7273.550  0.500  2.083249  149.401668  18.604248  0.142931
  7276.049  7276.040  0.500  2.079872  150.574536  18.813717  0.140029
  7278.559  7278.550  0.500  2.075061  150.515365  18.897024  0.138085
  7281.083  7281.070  0.500  2.069352  150.477563  19.000442  0.134870
  7283.630  7283.620  0.500  2.063101  149.461283  18.990462  0.129844
  7286.202  7286.190  0.500  2.056892  150.094663  19.189715  0.126501
  7288.781  7288.770  0.500  2.050790  150.187029  19.319045  0.125408
  7291.389  7291.380  0.500  2.045094  150.163857  19.426408  0.130651
  7294.018  7294.000  0.500  2.039767  150.120459  19.524526  0.142707
  7296.661  7296.650  0.500  2.034882  150.056961  19.611836  0.158341
  7299.320  7299.310  0.500  2.030262  149.939090  19.687163  0.174252
  7302.006  7301.990  0.500  2.026113  148.195433  19.539133  0.186224
  7304.705  7304.690  0.500  2.022187  150.057380  19.862450  0.199878
  7307.419  7307.410  0.500  2.018388  149.960662  19.925203  0.207405
  7310.168  7310.150  0.500  2.014848  149.894513  19.987033  0.210771
  7312.919  7312.900  0.500  2.011307  149.837664  20.050331  0.211323
  7315.692  7315.680  0.500  2.007948  149.768461  20.108499  0.211945
  7318.481  7318.470  0.500  2.004042  149.693870  20.177142  0.213354
  7321.307  7321.290  0.500  2.000547  149.655331  20.242564  0.215113
  7324.134  7324.120  0.500  1.996271  149.586651  20.319977  0.216602
  7326.987  7326.970  0.500  1.992255  149.525788  20.393460  0.217915
  7329.861  7329.850  0.500  1.988181  149.446163  20.465803  0.219843
  7332.755  7332.740  0.500  1.984304  149.402114  20.539255  0.224495
  7335.663  7335.650  0.500  1.980747  149.314076  20.600285  0.230672
  7338.589  7338.570  0.500  1.976881  148.091471  20.510747  0.232613
  7341.529  7341.520  0.500  1.974045  149.098827  20.708915  0.232736
  7344.500  7344.490  0.500  1.970999  149.095391  20.771603  0.224740
  7347.486  7347.470  0.500  1.968144  149.060253  20.826098  0.213534
  7350.498  7350.480  0.500  1.965548  149.002062  20.872084  0.202409
  7353.517  7353.500  0.500  1.963010  148.943618  20.916913  0.193249
  7356.559  7356.550  0.500  1.960204  148.877520  20.966373  0.185618
  7359.623  7359.610  0.500  1.957504  148.773263  21.008332  0.179173
  7362.700  7362.690  0.500  1.954802  148.707121  21.055811  0.174605
  7365.799  7365.790  0.500  1.952187  148.598707  21.095547  0.173192
