# XDI/1.0 BlueSky/1.10.0 BMM/2023-1.0-py310-tiled
# Beamline.name: BMM (06BM) -- Beamline for Materials Measurement (NIST)
# Beamline.xray_source: NSLS-II three-pole wiggler
# Beamline.collimation: paraboloid mirror, 5 nm Rh on 30 nm Pt
# Beamline.focusing: not in use
# Beamline.harmonic_rejection: flat mirror, Si stripe, pitch = 7.0 mrad relative to beam
# Beamline.software: Bluesky 1.10.0, Ophyd 1.7.0, DataBroker 2.0.0b13, Python 3.10.8, 2023-1.0-py310-tiled
# Detector.I0: 10 cm N2
# Detector.I1: 25 cm N2
# Detector.I2: 25 cm N2
# Element.symbol: Fe
# Element.edge: K
# Element.reference: Fe
# Element.reference_material: Fe foil
# Facility.name: NSLS-II
# Facility.energy: 3.0
# Facility.current: 400.2
# Facility.mode: top-off
# Facility.GUP: 123456
# Facility.SAF: 301027
# Facility.cycle: 2023-2
# Mono.name: Si(111)
# Mono.d_spacing: 3.1351860
# Mono.encoder_resolution: 0.0000050 deg/ct
# Mono.angle_offset: 16.0754326 deg
# Mono.scan_mode: pseudo channel cut
# Mono.scan_type: step
# Mono.direction: forward in energy
# Sample.name: FeOOH
# Sample.prep: powder on tape
# Sample.x: 116.329 mm
# Sample.y: 114.126 mm
# Sample.SDD_position: 205.000 mm
# Scan.experimenters: Bruce Ravel
# Scan.edge_energy: 7112.0
# Scan.start_time: 2023-05-05T17:21:47
# Scan.end_time: 2023-05-05T17:29:59
# Scan.transient_id: 74516
# Scan.uid: 4a6fd2b6-d1e0-421e-a7af-70e405e3d10c
# Scan.plot_hint: ln(I0/It)  --  ln($5/$6)
# Column.1: energy eV
# Column.2: requested_energy eV
# Column.3: measurement_time seconds
# Column.4: xmu 
# Column.5: I0 nA
# Column.6: It nA
# Column.7: Ir nA
# ///////////
# Welcome to BMM
# -----------
# energy  requested_energy  measurement_time  xmu  I0  It  Ir
  6911.999  6912.000  0.500  1.761133  153.802364  26.430948  4.961548
  6922.007  6922.000  0.500  1.750553  153.670244  26.689122  5.045302
  6932.017  6932.000  0.500  1.740538  153.620118  26.948962  5.129586
  6942.023  6942.000  0.500  1.730263  153.640965  27.230974  5.220610
  6951.991  6952.000  0.500  1.720356  153.608857  27.496353  5.308104
  6962.004  6962.000  0.500  1.710317  153.628617  27.777350  5.400544
  6972.008  6972.000  0.500  1.699957  153.620163  28.065090  5.493523
  6982.021  6982.000  0.500  1.689988  153.577045  28.338314  5.585209
  6992.018  6992.000  0.500  1.679654  153.573793  28.632050  5.680821
  7002.013  7002.000  0.500  1.669762  153.513523  28.905340  5.773206
  7012.016  7012.000  0.500  1.659940  153.449187  29.178435  5.866830
  7022.014  7022.000  0.500  1.650341  153.387136  29.447941  5.958671
  7032.012  7032.000  0.500  1.640695  153.318568  29.720073  6.053258
  7042.017  7042.000  0.500  1.631018  153.239118  29.993538  6.146034
  7052.011  7052.000  0.500  1.621470  153.158844  30.265423  6.239519
  7062.006  7062.000  0.500  1.611436  152.408796  30.420907  6.306187
  7072.009  7072.000  0.500  1.602059  152.965996  30.819787  6.421239
  7083.600  7082.000  0.500  1.592186  152.048487  30.938870  6.469861
  7083.978  7084.000  0.500  1.591362  152.817780  31.121052  6.508796
  7085.980  7086.000  0.500  1.589263  152.939109  31.211206  6.530187
  7087.985  7088.000  0.500  1.587424  152.942691  31.269387  6.543215
  7089.983  7090.000  0.500  1.585686  152.928625  31.320891  6.553673
  7091.982  7092.000  0.500  1.583813  152.904863  31.374736  6.562589
  7094.366  7094.000  0.500  1.581681  152.866953  31.433914  6.569902
  7096.323  7096.000  0.500  1.580382  152.828930  31.466918  6.569537
  7097.997  7098.000  0.500  1.578591  152.847763  31.527212  6.569643
  7099.992  7100.000  0.500  1.577061  152.806083  31.566897  6.560824
  7101.995  7102.000  0.500  1.575225  152.777388  31.618961  6.543946
  7102.290  7102.300  0.500  1.575043  152.775353  31.624294  6.540607
  7102.585  7102.600  0.500  1.574845  152.790839  31.633761  6.536842
  7102.884  7102.900  0.500  1.574665  152.755068  31.632043  6.530399
  7103.188  7103.200  0.500  1.574632  152.743260  31.630654  6.523437
  7103.485  7103.500  0.500  1.574195  152.731101  31.641948  6.518357
  7103.781  7103.800  0.500  1.573925  152.718669  31.647924  6.512597
  7104.087  7104.100  0.500  1.573755  152.708631  31.651210  6.504384
  7104.384  7104.400  0.500  1.573604  152.694163  31.652995  6.496570
  7104.688  7104.700  0.500  1.573690  152.681401  31.647633  6.486276
  7104.987  7105.000  0.500  1.573086  152.673256  31.665066  6.478683
  7105.287  7105.300  0.500  1.573163  152.672499  31.662481  6.466413
  7105.582  7105.600  0.500  1.572938  152.652413  31.665438  6.455435
  7105.890  7105.900  0.500  1.572627  152.656117  31.676037  6.443464
  7106.190  7106.200  0.500  1.572704  152.648539  31.672035  6.428111
  7106.492  7106.500  0.500  1.572214  152.650457  31.687962  6.413843
  7106.792  7106.800  0.500  1.571876  152.645033  31.697547  6.398052
  7107.089  7107.100  0.500  1.571760  152.632138  31.698529  6.376372
  7107.385  7107.400  0.500  1.571500  152.618842  31.704035  6.353840
  7107.695  7107.700  0.500  1.571402  152.610673  31.705417  6.327424
  7107.987  7108.000  0.500  1.571541  152.600127  31.698837  6.295216
  7108.289  7108.300  0.500  1.571415  152.595638  31.701897  6.258544
  7108.586  7108.600  0.500  1.571211  152.597834  31.708821  6.216325
  7108.886  7108.900  0.500  1.570670  152.584680  31.723250  6.168076
  7109.193  7109.200  0.500  1.570759  152.578675  31.719165  6.102813
  7109.493  7109.500  0.500  1.570746  152.553912  31.714448  6.017990
  7109.791  7109.800  0.500  1.570685  152.551260  31.715810  5.909888
  7110.093  7110.100  0.500  1.570545  152.527397  31.715316  5.757427
  7110.397  7110.400  0.500  1.570425  152.511327  31.715777  5.540171
  7110.701  7110.700  0.500  1.570396  152.476803  31.709510  5.237685
  7110.995  7111.000  0.500  1.570490  152.438693  31.698602  4.848769
  7111.297  7111.300  0.500  1.570855  152.419937  31.683144  4.388542
  7111.591  7111.600  0.500  1.571478  152.389707  31.657108  3.919973
  7111.893  7111.900  0.500  1.572278  152.330209  31.619449  3.497314
  7112.196  7112.200  0.500  1.573633  152.287004  31.567698  3.163215
  7112.487  7112.500  0.500  1.575870  152.308218  31.501538  2.918553
  7112.790  7112.800  0.500  1.578798  152.281278  31.403866  2.727442
  7113.094  7113.100  0.500  1.581791  152.269546  31.307598  2.568644
  7113.393  7113.400  0.500  1.584372  152.238973  31.220657  2.432779
  7113.697  7113.700  0.500  1.586031  152.623285  31.247584  2.316300
  7113.998  7114.000  0.500  1.586894  152.706122  31.237571  2.208932
  7114.298  7114.300  0.500  1.586554  152.666944  31.240172  2.117317
  7114.598  7114.600  0.500  1.585333  152.660294  31.276972  2.042246
  7114.899  7114.900  0.500  1.583252  152.641931  31.338343  1.987520
  7115.201  7115.200  0.500  1.581394  152.645644  31.397390  1.948102
  7115.500  7115.500  0.500  1.580163  152.633126  31.433504  1.920318
  7115.798  7115.800  0.500  1.579534  152.616694  31.449877  1.899752
  7116.097  7116.100  0.500  1.579530  152.619299  31.450569  1.881451
  7116.395  7116.400  0.500  1.579627  152.603466  31.444247  1.862393
  7116.698  7116.700  0.500  1.579963  152.583222  31.429507  1.833972
  7116.994  7117.000  0.500  1.580401  152.582539  31.415610  1.793311
  7117.295  7117.300  0.500  1.580452  152.563556  31.410091  1.736017
  7117.598  7117.600  0.500  1.580843  152.553590  31.395748  1.657452
  7117.903  7117.900  0.500  1.581237  152.529079  31.378348  1.563538
  7118.201  7118.200  0.500  1.581747  152.518704  31.360211  1.459496
  7118.502  7118.500  0.500  1.582154  152.488067  31.341170  1.353392
  7118.796  7118.800  0.500  1.582891  152.462359  31.312779  1.251166
  7119.101  7119.100  0.500  1.584228  152.463845  31.271261  1.153383
  7119.402  7119.400  0.500  1.586003  152.440930  31.211121  1.063001
  7119.703  7119.700  0.500  1.588294  152.460501  31.143692  0.979453
  7119.995  7120.000  0.500  1.591424  152.437625  31.041704  0.898205
  7120.298  7120.300  0.500  1.595067  152.415514  30.924346  0.819947
  7120.595  7120.600  0.500  1.599744  152.401505  30.777199  0.746338
  7120.898  7120.900  0.500  1.605507  152.369212  30.593858  0.680223
  7121.197  7121.200  0.500  1.612685  152.367864  30.374780  0.621622
  7121.498  7121.500  0.500  1.620942  152.343162  30.120123  0.572165
  7121.797  7121.800  0.500  1.630422  152.318875  29.831167  0.529547
  7122.102  7122.100  0.500  1.641669  152.311193  29.496065  0.491090
  7122.403  7122.400  0.500  1.653659  152.290449  29.140550  0.458345
  7122.705  7122.700  0.500  1.666530  152.285300  28.766900  0.429195
  7123.004  7123.000  0.500  1.679467  152.272177  28.394695  0.403168
  7123.301  7123.300  0.500  1.692113  152.238520  28.031673  0.380298
  7123.602  7123.600  0.500  1.704389  152.214961  27.685380  0.360374
  7123.905  7123.900  0.500  1.715397  152.218186  27.382875  0.343300
  7124.200  7124.200  0.500  1.726477  152.212681  27.080174  0.327520
  7124.495  7124.500  0.500  1.737558  152.192534  26.778207  0.313146
  7124.794  7124.800  0.500  1.749639  152.180224  26.454514  0.299004
  7125.100  7125.100  0.500  1.762232  152.148568  26.118025  0.285781
  7125.401  7125.400  0.500  1.775731  152.152801  25.768533  0.273424
  7125.696  7125.700  0.500  1.790165  152.131685  25.395734  0.261459
  7125.997  7126.000  0.500  1.805406  152.056323  24.999227  0.249579
  7126.301  7126.300  0.500  1.822107  152.068896  24.587220  0.237722
  7126.605  7126.600  0.500  1.839518  152.057517  24.161027  0.226076
  7126.904  7126.900  0.500  1.856771  152.027973  23.743134  0.214587
  7127.199  7127.200  0.500  1.874459  152.012882  23.324543  0.202954
  7127.505  7127.500  0.500  1.891610  151.975591  22.922302  0.191231
  7127.804  7127.800  0.500  1.907987  151.953199  22.546625  0.180342
  7128.106  7128.100  0.500  1.923381  151.941252  22.200467  0.169466
  7128.403  7128.400  0.500  1.937531  151.918373  21.885241  0.159718
  7128.698  7128.700  0.500  1.950883  151.887450  21.590571  0.149744
  7128.994  7129.000  0.500  1.963357  151.877369  21.321512  0.140426
  7129.297  7129.300  0.500  1.975032  151.854969  21.070931  0.131863
  7129.601  7129.600  0.500  1.985732  151.816373  20.841360  0.124304
  7129.899  7129.900  0.500  1.994877  151.796535  20.648944  0.118003
  7130.203  7130.200  0.500  2.003091  151.765482  20.475839  0.112608
  7130.502  7130.500  0.500  2.010151  151.727933  20.326756  0.108564
  7130.800  7130.800  0.500  2.016135  151.694879  20.201077  0.106043
  7131.106  7131.100  0.500  2.021479  151.666531  20.089666  0.104809
  7131.404  7131.400  0.500  2.025762  151.654120  20.002161  0.104978
  7131.706  7131.700  0.500  2.028463  151.633280  19.945477  0.106627
  7132.005  7132.000  0.500  2.030132  151.624710  19.911086  0.109290
  7132.301  7132.300  0.500  2.030955  151.624146  19.894621  0.113215
  7132.599  7132.600  0.500  2.030668  151.621467  19.899995  0.117853
  7132.896  7132.900  0.500  2.029603  151.617691  19.920686  0.123183
  7133.196  7133.200  0.500  2.027669  151.603656  19.957405  0.128640
  7133.498  7133.500  0.500  2.024775  151.605199  20.015458  0.134857
  7133.798  7133.800  0.500  2.021349  151.606757  20.084355  0.141107
  7134.096  7134.100  0.500  2.017339  151.606638  20.165027  0.147228
  7134.398  7134.400  0.500  2.012896  151.585066  20.251945  0.152843
  7134.701  7134.700  0.500  2.008310  151.584262  20.344926  0.158042
  7135.005  7135.000  0.500  2.003702  151.589094  20.439547  0.163084
  7135.303  7135.300  0.500  1.999182  151.575793  20.530333  0.167333
  7135.603  7135.600  0.500  1.994601  151.562694  20.622831  0.171459
  7135.899  7135.900  0.500  1.990604  151.573232  20.706849  0.174436
  7136.201  7136.200  0.500  1.986580  151.574212  20.790484  0.176955
  7136.506  7136.500  0.500  1.983103  151.574891  20.862999  0.178605
  7136.801  7136.800  0.500  1.979863  151.573222  20.930463  0.179720
  7136.996  7137.000  0.500  1.977856  151.574335  20.972672  0.180054
  7138.000  7137.990  0.500  1.966777  151.562074  21.204605  0.178434
  7139.001  7138.990  0.500  1.954200  151.552302  21.471591  0.173224
  7140.030  7140.010  0.500  1.940108  151.559273  21.777307  0.167101
  7141.068  7141.060  0.500  1.926280  151.556345  22.080123  0.163898
  7142.138  7142.120  0.500  1.914590  151.559254  22.340177  0.165091
  7143.222  7143.200  0.500  1.904900  151.550914  22.556460  0.169267
  7144.294  7144.300  0.500  1.898329  151.521598  22.700774  0.173155
  7145.413  7145.420  0.500  1.894649  151.510392  22.782791  0.172732
  7146.554  7146.560  0.500  1.891522  151.499999  22.852561  0.167010
  7147.705  7147.710  0.500  1.886091  151.488884  22.975341  0.157339
  7148.882  7148.890  0.500  1.876734  151.458349  23.186644  0.148285
  7150.076  7150.080  0.500  1.864344  151.455799  23.475319  0.143157
  7151.306  7151.300  0.500  1.850276  151.467758  23.809783  0.140874
  7152.529  7152.530  0.500  1.838052  151.454296  24.100490  0.139807
  7153.786  7153.780  0.500  1.827479  151.447465  24.355549  0.140041
  7155.049  7155.050  0.500  1.819232  151.423090  24.553284  0.142385
  7156.350  7156.340  0.500  1.812155  151.405507  24.724806  0.145938
  7157.650  7157.650  0.500  1.805776  151.400338  24.882168  0.149196
  7158.989  7158.980  0.500  1.800822  151.366359  25.000143  0.150665
  7160.337  7160.330  0.500  1.797346  151.349258  25.084350  0.151658
  7161.698  7161.700  0.500  1.795629  151.294452  25.118360  0.153053
  7163.084  7163.080  0.500  1.795599  151.273244  25.115581  0.155644
  7164.486  7164.490  0.500  1.797242  151.215705  25.064829  0.158568
  7165.909  7165.910  0.500  1.800364  151.189138  24.982309  0.160684
  7167.351  7167.350  0.500  1.804877  151.152560  24.863783  0.161860
  7168.811  7168.810  0.500  1.810279  151.123455  24.725088  0.162978
  7170.296  7170.290  0.500  1.816622  151.080925  24.561825  0.164817
  7171.791  7171.790  0.500  1.822971  151.060764  24.403116  0.168651
  7173.314  7173.310  0.500  1.829756  151.019049  24.231418  0.175243
  7174.856  7174.850  0.500  1.837545  150.972682  24.036027  0.183026
  7176.413  7176.410  0.500  1.842304  150.971225  23.921672  0.192723
  7177.989  7177.980  0.500  1.844234  150.937312  23.870192  0.202672
  7179.592  7179.580  0.500  1.845419  150.914066  23.838245  0.209010
  7181.195  7181.190  0.500  1.846003  150.883630  23.819528  0.210519
  7182.836  7182.830  0.500  1.845698  150.854099  23.822139  0.208687
  7184.487  7184.480  0.500  1.844455  150.778119  23.839738  0.204380
  7186.154  7186.150  0.500  1.842922  150.785012  23.877410  0.196779
  7187.846  7187.840  0.500  1.841055  150.746289  23.915897  0.187212
  7189.566  7189.550  0.500  1.839113  150.725243  23.959042  0.177144
  7191.290  7191.280  0.500  1.836704  149.047355  23.749469  0.165464
  7193.035  7193.030  0.500  1.833610  150.354033  24.031911  0.158386
  7194.794  7194.790  0.500  1.830649  150.540454  24.133054  0.156083
  7196.582  7196.580  0.500  1.827755  150.522158  24.200063  0.160138
  7198.394  7198.380  0.500  1.824770  150.495099  24.268052  0.168845
  7200.215  7200.210  0.500  1.821484  150.441719  24.339294  0.180809
  7202.059  7202.050  0.500  1.818094  150.384103  24.412595  0.195634
  7203.918  7203.910  0.500  1.814463  150.345209  24.495058  0.212416
  7205.797  7205.790  0.500  1.810663  150.315635  24.583478  0.228847
  7207.697  7207.690  0.500  1.806381  150.252732  24.678642  0.236773
  7209.622  7209.610  0.500  1.802175  150.197568  24.773543  0.229898
  7211.557  7211.550  0.500  1.798165  150.138058  24.863239  0.207180
  7213.525  7213.510  0.500  1.794618  150.087865  24.943240  0.175750
  7215.484  7215.480  0.500  1.791519  150.020445  25.009409  0.147274
  7217.489  7217.480  0.500  1.788269  149.953672  25.079663  0.126700
  7219.497  7219.490  0.500  1.785780  149.904623  25.133939  0.115934
  7221.542  7221.520  0.500  1.783373  149.866369  25.188091  0.114285
  7223.588  7223.580  0.500  1.781351  149.823535  25.231858  0.122196
  7225.664  7225.650  0.500  1.779362  149.706860  25.262398  0.137811
  7227.753  7227.740  0.500  1.777601  147.640812  24.957675  0.157370
  7229.860  7229.850  0.500  1.775837  150.405122  25.469858  0.186587
  7231.993  7231.980  0.500  1.773440  150.319365  25.516407  0.215351
  7234.128  7234.120  0.500  1.770898  150.282390  25.575063  0.242107
  7236.303  7236.290  0.500  1.768241  150.229303  25.634069  0.261686
  7238.487  7238.480  0.500  1.765343  150.183305  25.700569  0.270640
  7240.690  7240.680  0.500  1.762982  150.151413  25.755852  0.269815
  7242.908  7242.900  0.500  1.760496  150.117423  25.814118  0.260675
  7245.162  7245.150  0.500  1.758199  147.311666  25.389904  0.243475
  7247.423  7247.410  0.500  1.756245  149.872033  25.881720  0.237258
  7249.696  7249.690  0.500  1.754532  149.879904  25.927450  0.233140
  7252.000  7251.990  0.500  1.753254  149.781447  25.943557  0.235861
  7254.324  7254.310  0.500  1.751881  147.349648  25.557408  0.239336
  7256.659  7256.650  0.500  1.751212  149.887053  26.014902  0.248464
  7259.013  7259.000  0.500  1.750801  149.710173  25.994908  0.246269
  7261.394  7261.380  0.500  1.749976  149.266478  25.939257  0.238930
  7263.782  7263.770  0.500  1.749502  136.589414  23.747497  0.212518
  7266.203  7266.190  0.500  1.747872  149.576127  26.047797  0.228116
  7268.634  7268.620  0.500  1.746635  150.078253  26.167604  0.222745
  7271.083  7271.070  0.500  1.745262  150.024527  26.194175  0.212312
  7273.561  7273.550  0.500  1.743538  148.617937  25.993362  0.199767
  7276.053  7276.040  0.500  1.741063  150.071137  26.312551  0.195991
  7278.564  7278.550  0.500  1.738651  150.013721  26.366001  0.192883
  7281.083  7281.070  0.500  1.735898  149.981720  26.433067  0.187800
  7283.630  7283.620  0.500  1.732702  148.701224  26.291271  0.179703
  7286.202  7286.190  0.500  1.729391  149.595481  26.537090  0.174825
  7288.783  7288.770  0.500  1.725757  149.704746  26.653159  0.173557
  7291.398  7291.380  0.500  1.721914  149.680921  26.751532  0.180607
  7294.016  7294.000  0.500  1.717914  149.648332  26.852913  0.197167
  7296.661  7296.650  0.500  1.714225  149.577575  26.939410  0.218793
  7299.325  7299.310  0.500  1.710627  149.458844  27.015042  0.240172
  7302.003  7301.990  0.500  1.706873  148.022018  26.855954  0.256889
  7304.702  7304.690  0.500  1.704037  149.588566  27.217258  0.274650
  7307.422  7307.410  0.500  1.700832  149.488595  27.286398  0.284773
  7310.168  7310.150  0.500  1.697760  149.437185  27.360929  0.289247
  7312.912  7312.900  0.500  1.694740  149.386789  27.434430  0.289795
  7315.690  7315.680  0.500  1.692157  149.321333  27.493328  0.290256
  7318.483  7318.470  0.500  1.689727  149.253564  27.547703  0.292264
  7321.307  7321.290  0.500  1.687082  149.203653  27.611435  0.294237
  7324.130  7324.120  0.500  1.684514  149.149952  27.672472  0.295873
  7326.981  7326.970  0.500  1.682189  149.099152  27.727451  0.296839
  7329.863  7329.850  0.500  1.679743  149.037205  27.783799  0.299179
  7332.750  7332.740  0.500  1.677145  148.973410  27.844135  0.305130
  7335.665  7335.650  0.500  1.674386  148.911786  27.909526  0.313286
  7338.578  7338.570  0.500  1.671747  147.495344  27.717090  0.314685
  7341.534  7341.520  0.500  1.668666  148.668682  28.023798  0.315159
  7344.506  7344.490  0.500  1.665561  148.669915  28.111178  0.304528
  7347.481  7347.470  0.500  1.662366  148.632815  28.194111  0.289396
  7350.493  7350.480  0.500  1.659036  148.570460  28.276267  0.274649
  7353.510  7353.500  0.500  1.655810  148.454035  28.345421  0.261911
  7356.564  7356.550  0.500  1.652306  148.447802  28.443708  0.252256
  7359.625  7359.610  0.500  1.649182  148.372986  28.518336  0.243706
  7362.707  7362.690  0.500  1.646410  148.305259  28.584436  0.237606
  7365.804  7365.790  0.500  1.643739  148.232625  28.646871  0.235481
