# XDI/1.0 BlueSky/1.10.0 BMM/2023-1.0-py310-tiled
# Beamline.name: BMM (06BM) -- Beamline for Materials Measurement (NIST)
# Beamline.xray_source: NSLS-II three-pole wiggler
# Beamline.collimation: paraboloid mirror, 5 nm Rh on 30 nm Pt
# Beamline.focusing: not in use
# Beamline.harmonic_rejection: flat mirror, Si stripe, pitch = 7.0 mrad relative to beam
# Beamline.software: Bluesky 1.10.0, Ophyd 1.7.0, DataBroker 2.0.0b13, Python 3.10.8, 2023-1.0-py310-tiled
# Detector.I0: 10 cm N2
# Detector.I1: 25 cm N2
# Detector.I2: 25 cm N2
# Element.symbol: Fe
# Element.edge: K
# Element.reference: Fe
# Element.reference_material: Fe foil
# Facility.name: NSLS-II
# Facility.energy: 3.0
# Facility.current: 399.8
# Facility.mode: top-off
# Facility.GUP: 123456
# Facility.SAF: 301027
# Facility.cycle: 2023-2
# Mono.name: Si(111)
# Mono.d_spacing: 3.1351860
# Mono.encoder_resolution: 0.0000050 deg/ct
# Mono.angle_offset: 16.0754326 deg
# Mono.scan_mode: pseudo channel cut
# Mono.scan_type: step
# Mono.direction: forward in energy
# Sample.name: Fe2SiO4
# Sample.prep: PEG pellet
# Sample.x: 116.329 mm
# Sample.y: 114.126 mm
# Sample.SDD_position: 205.000 mm
# Scan.experimenters: Bruce Ravel
# Scan.edge_energy: 7112.0
# Scan.start_time: 2023-05-05T18:05:59
# Scan.end_time: 2023-05-05T18:14:10
# Scan.transient_id: 74541
# Scan.uid: 8827c70c-3070-4774-8ee3-07582819dfd9
# Scan.plot_hint: ln(I0/It)  --  ln($5/$6)
# Column.1: energy eV
# Column.2: requested_energy eV
# Column.3: measurement_time seconds
# Column.4: xmu 
# Column.5: I0 nA
# Column.6: It nA
# Column.7: Ir nA
# ///////////
# courtesy Martin Stennett, University of Sheffield
# -----------
# energy  requested_energy  measurement_time  xmu  I0  It  Ir
  6912.003  6912.000  0.500  2.138412  153.824767  18.126998  3.402569
  6921.841  6922.000  0.500  2.126761  153.669407  18.320901  3.462876
  6932.017  6932.000  0.500  2.115069  153.649394  18.533948  3.528160
  6942.007  6942.000  0.500  2.103341  153.652479  18.752973  3.595425
  6952.004  6952.000  0.500  2.091778  153.653701  18.971221  3.662872
  6962.010  6962.000  0.500  2.080165  153.646901  19.191964  3.731439
  6972.020  6972.000  0.500  2.068652  153.631256  19.412229  3.799667
  6982.025  6982.000  0.500  2.057284  153.599380  19.630094  3.868892
  6992.016  6992.000  0.500  2.045962  153.588461  19.852187  3.939369
  7002.013  7002.000  0.500  2.034666  153.524846  20.069397  4.008953
  7012.014  7012.000  0.500  2.023681  153.466926  20.283424  4.077728
  7022.016  7022.000  0.500  2.012466  153.350144  20.496569  4.146527
  7032.014  7032.000  0.500  2.001685  153.327099  20.715637  4.219274
  7042.013  7042.000  0.500  1.991109  153.249630  20.925297  4.288995
  7052.016  7052.000  0.500  1.980623  153.133936  21.129909  4.356527
  7062.008  7062.000  0.500  1.970489  152.437058  21.247993  4.404911
  7072.015  7072.000  0.500  1.960861  152.940751  21.524457  4.485039
  7081.980  7082.000  0.500  1.952187  152.941443  21.712062  4.539708
  7083.985  7084.000  0.500  1.950662  152.682830  21.708428  4.541124
  7085.980  7086.000  0.500  1.949182  152.854314  21.765011  4.554794
  7087.988  7088.000  0.500  1.947863  152.847732  21.792795  4.560384
  7089.988  7090.000  0.500  1.946480  152.823834  21.819540  4.566116
  7091.989  7092.000  0.500  1.945307  152.792118  21.840614  4.568848
  7093.982  7094.000  0.500  1.944564  152.799404  21.857900  4.567817
  7096.105  7096.000  0.500  1.943998  152.731370  21.860524  4.563931
  7098.003  7098.000  0.500  1.943617  152.685872  21.862349  4.556286
  7099.992  7100.000  0.500  1.944005  152.662677  21.850547  4.542424
  7101.995  7102.000  0.500  1.944650  152.639754  21.833167  4.519087
  7102.288  7102.300  0.500  1.944802  152.593285  21.823220  4.512767
  7102.587  7102.600  0.500  1.944857  152.579486  21.820038  4.508711
  7102.887  7102.900  0.500  1.945198  152.573817  21.811791  4.503293
  7103.186  7103.200  0.500  1.945437  152.558624  21.804399  4.497432
  7103.485  7103.500  0.500  1.945703  152.552072  21.797675  4.490251
  7103.787  7103.800  0.500  1.945963  152.546613  21.791218  4.484496
  7104.087  7104.100  0.500  1.946374  152.777180  21.815192  4.483569
  7104.384  7104.400  0.500  1.946835  153.193582  21.864562  4.487812
  7104.688  7104.700  0.500  1.947033  153.200488  21.861234  4.481008
  7104.987  7105.000  0.500  1.947651  153.203550  21.848146  4.470979
  7105.287  7105.300  0.500  1.948364  153.203466  21.832565  4.460334
  7105.589  7105.600  0.500  1.948767  153.174655  21.819663  4.448702
  7105.886  7105.900  0.500  1.949438  153.171367  21.804571  4.435967
  7106.188  7106.200  0.500  1.949894  153.169359  21.794340  4.423970
  7106.490  7106.500  0.500  1.950670  153.153149  21.775122  4.408233
  7106.790  7106.800  0.500  1.951372  153.151321  21.759591  4.393110
  7107.087  7107.100  0.500  1.952145  153.140539  21.741235  4.376191
  7107.385  7107.400  0.500  1.952947  153.116539  21.720409  4.355732
  7107.687  7107.700  0.500  1.954130  153.079475  21.689486  4.330281
  7107.989  7108.000  0.500  1.954937  153.098481  21.674662  4.305655
  7108.287  7108.300  0.500  1.956178  153.095220  21.647321  4.275284
  7108.589  7108.600  0.500  1.957563  153.081707  21.615453  4.239709
  7108.886  7108.900  0.500  1.959188  153.052572  21.576252  4.198034
  7109.191  7109.200  0.500  1.961289  153.058931  21.531863  4.146149
  7109.495  7109.500  0.500  1.963545  153.038948  21.480547  4.080925
  7109.795  7109.800  0.500  1.966199  153.023685  21.421476  3.997259
  7110.091  7110.100  0.500  1.969697  153.000552  21.343443  3.884989
  7110.395  7110.400  0.500  1.974924  152.971509  21.228147  3.722969
  7110.699  7110.700  0.500  1.982536  152.946046  21.063652  3.501054
  7110.997  7111.000  0.500  1.992969  152.932836  20.843248  3.213885
  7111.299  7111.300  0.500  2.005458  152.903565  20.580613  2.880620
  7111.591  7111.600  0.500  2.017772  152.860300  20.322979  2.546052
  7111.889  7111.900  0.500  2.026770  152.850521  20.139648  2.251925
  7112.194  7112.200  0.500  2.030151  152.816770  20.067245  2.026531
  7112.492  7112.500  0.500  2.028706  152.791691  20.092959  1.870450
  7112.792  7112.800  0.500  2.025471  152.771548  20.155413  1.757137
  7113.094  7113.100  0.500  2.023541  152.737388  20.189823  1.663419
  7113.395  7113.400  0.500  2.024142  152.714678  20.174691  1.577512
  7113.701  7113.700  0.500  2.025956  152.706837  20.137093  1.497660
  7114.000  7114.000  0.500  2.026936  152.697917  20.116207  1.427039
  7114.298  7114.300  0.500  2.026647  152.674332  20.118899  1.366857
  7114.598  7114.600  0.500  2.027193  152.674313  20.107931  1.316232
  7114.897  7114.900  0.500  2.030206  152.631219  20.041780  1.273834
  7115.201  7115.200  0.500  2.036769  152.660678  19.914520  1.237369
  7115.498  7115.500  0.500  2.045537  152.634479  19.737286  1.207133
  7115.800  7115.800  0.500  2.057733  152.621042  19.496310  1.178186
  7116.092  7116.100  0.500  2.073736  152.612936  19.185773  1.148831
  7116.395  7116.400  0.500  2.095628  152.591369  18.767669  1.112722
  7116.700  7116.700  0.500  2.125471  152.583278  18.214888  1.064814
  7116.998  7117.000  0.500  2.162366  152.577898  17.554481  1.005171
  7117.295  7117.300  0.500  2.206427  152.553437  16.795111  0.933313
  7117.598  7117.600  0.500  2.260159  152.567953  15.918002  0.847321
  7117.898  7117.900  0.500  2.323437  152.536294  14.938863  0.752628
  7118.201  7118.200  0.500  2.397164  152.533735  13.876854  0.654476
  7118.506  7118.500  0.500  2.480994  152.522297  12.760023  0.558692
  7118.803  7118.800  0.500  2.572761  152.504347  11.639821  0.472251
  7119.101  7119.100  0.500  2.672101  152.515273  10.539856  0.395510
  7119.402  7119.400  0.500  2.775685  152.482422  9.500691  0.329361
  7119.701  7119.700  0.500  2.877332  152.479758  8.582278  0.274385
  7119.998  7120.000  0.500  2.974882  152.446904  7.782939  0.228998
  7120.296  7120.300  0.500  3.066937  152.435315  7.097934  0.191381
  7120.595  7120.600  0.500  3.153647  152.410957  6.507360  0.160512
  7120.894  7120.900  0.500  3.235372  152.399320  5.996238  0.135539
  7121.199  7121.200  0.500  3.314867  152.373783  5.537095  0.114868
  7121.496  7121.500  0.500  3.384982  152.350032  5.161351  0.099198
  7121.799  7121.800  0.500  3.453054  152.342663  4.821469  0.086657
  7122.102  7122.100  0.500  3.522074  152.318987  4.499217  0.075650
  7122.399  7122.400  0.500  3.596168  152.328259  4.178156  0.066642
  7122.702  7122.700  0.500  3.682881  152.318832  3.830880  0.057739
  7123.004  7123.000  0.500  3.780196  152.285995  3.474897  0.049974
  7123.298  7123.300  0.500  3.889782  152.273792  3.113969  0.042766
  7123.597  7123.600  0.500  4.001936  152.251904  2.783199  0.036664
  7123.899  7123.900  0.500  4.110969  152.247263  2.495621  0.031706
  7124.204  7124.200  0.500  4.211485  152.210899  2.256425  0.027650
  7124.499  7124.500  0.500  4.295250  152.189289  2.074821  0.024547
  7124.798  7124.800  0.500  4.361708  152.184361  1.941352  0.022257
  7125.095  7125.100  0.500  4.410305  152.168702  1.849073  0.020581
  7125.397  7125.400  0.500  4.447102  152.143132  1.781970  0.019112
  7125.702  7125.700  0.500  4.475280  152.111044  1.732094  0.018067
  7126.002  7126.000  0.500  4.499554  152.096313  1.690391  0.017177
  7126.299  7126.300  0.500  4.520428  152.061944  1.655098  0.016166
  7126.605  7126.600  0.500  4.535417  152.057152  1.630422  0.015386
  7126.906  7126.900  0.500  4.538647  152.007140  1.624630  0.014975
  7127.205  7127.200  0.500  4.527742  151.985705  1.642213  0.014410
  7127.503  7127.500  0.500  4.504417  151.963071  1.680717  0.014320
  7127.802  7127.800  0.500  4.471686  151.941153  1.736389  0.014086
  7128.102  7128.100  0.500  4.433914  151.926075  1.803050  0.013982
  7128.399  7128.400  0.500  4.392061  151.892745  1.879703  0.013947
  7128.707  7128.700  0.500  4.346844  151.884905  1.966547  0.013795
  7128.996  7129.000  0.500  4.300785  151.859359  2.058895  0.013905
  7129.297  7129.300  0.500  4.251991  151.833143  2.161476  0.013752
  7129.599  7129.600  0.500  4.203264  151.790879  2.268774  0.013719
  7129.901  7129.900  0.500  4.157884  151.767620  2.373739  0.013876
  7130.203  7130.200  0.500  4.114688  151.742690  2.478115  0.013814
  7130.502  7130.500  0.500  4.075366  151.690763  2.576619  0.013953
  7130.800  7130.800  0.500  4.037029  151.676787  2.677070  0.014376
  7131.106  7131.100  0.500  3.999183  151.662590  2.780067  0.014738
  7131.406  7131.400  0.500  3.963139  151.632433  2.881527  0.015346
  7131.704  7131.700  0.500  3.928335  151.615154  2.983241  0.016151
  7132.005  7132.000  0.500  3.896455  151.603534  3.079642  0.017188
  7132.295  7132.300  0.500  3.868693  151.598240  3.166227  0.018262
  7132.605  7132.600  0.500  3.842492  151.585561  3.250011  0.019377
  7132.896  7132.900  0.500  3.818738  151.592930  3.328297  0.020701
  7133.194  7133.200  0.500  3.795637  151.576832  3.405716  0.022169
  7133.494  7133.500  0.500  3.773140  151.576939  3.483207  0.023504
  7133.798  7133.800  0.500  3.752485  151.577366  3.555912  0.024905
  7134.103  7134.100  0.500  3.734204  151.571211  3.621366  0.026434
  7134.398  7134.400  0.500  3.719724  151.581059  3.674424  0.027715
  7134.698  7134.700  0.500  3.708607  151.572213  3.715285  0.028850
  7134.998  7135.000  0.500  3.701259  151.549574  3.742126  0.029892
  7135.305  7135.300  0.500  3.696582  151.560450  3.759940  0.030747
  7135.607  7135.600  0.500  3.692644  151.543961  3.774365  0.031356
  7135.901  7135.900  0.500  3.688967  151.552174  3.788472  0.032022
  7136.199  7136.200  0.500  3.684820  151.544660  3.804026  0.032415
  7136.499  7136.500  0.500  3.680129  151.527469  3.821482  0.032838
  7136.799  7136.800  0.500  3.674920  151.533316  3.841585  0.033086
  7136.996  7137.000  0.500  3.671642  151.517338  3.853795  0.033124
  7137.994  7137.990  0.500  3.659948  151.529511  3.899439  0.033033
  7138.999  7138.990  0.500  3.658240  151.499725  3.905335  0.031691
  7140.023  7140.010  0.500  3.651111  151.509829  3.933539  0.030379
  7141.070  7141.060  0.500  3.636125  151.510933  3.992959  0.029799
  7142.145  7142.120  0.500  3.621315  151.516008  4.052673  0.030007
  7143.190  7143.200  0.500  3.602253  151.500000  4.130228  0.030951
  7144.287  7144.300  0.500  3.575208  151.502870  4.243534  0.032389
  7145.411  7145.420  0.500  3.546259  151.488319  4.367757  0.033395
  7146.557  7146.560  0.500  3.518619  151.502489  4.490584  0.032790
  7147.703  7147.710  0.500  3.493080  151.510042  4.606976  0.031717
  7148.888  7148.890  0.500  3.472933  151.491994  4.700176  0.030335
  7150.085  7150.080  0.500  3.463216  151.475079  4.745538  0.029028
  7151.304  7151.300  0.500  3.462889  151.479899  4.747243  0.028150
  7152.525  7152.530  0.500  3.469656  151.451062  4.714327  0.027485
  7153.784  7153.780  0.500  3.484884  151.450559  4.643069  0.026780
  7155.056  7155.050  0.500  3.504917  151.423782  4.550172  0.026483
  7156.348  7156.340  0.500  3.526126  151.391503  4.453738  0.026469
  7157.656  7157.650  0.500  3.545936  151.387175  4.366250  0.026492
  7158.980  7158.980  0.500  3.567144  151.367146  4.274060  0.025836
  7160.326  7160.330  0.500  3.594364  151.325056  4.158134  0.025334
  7161.698  7161.700  0.500  3.627316  151.283290  4.022238  0.024642
  7163.080  7163.080  0.500  3.666026  151.774474  3.882076  0.024136
  7164.486  7164.490  0.500  3.705236  151.687611  3.730668  0.023729
  7165.909  7165.910  0.500  3.737188  151.627920  3.611928  0.023281
  7167.355  7167.350  0.500  3.759781  151.588760  3.530325  0.023104
  7168.814  7168.810  0.500  3.773784  151.519806  3.479652  0.023090
  7170.294  7170.290  0.500  3.784215  151.498518  3.443062  0.023240
  7171.791  7171.790  0.500  3.795950  151.468542  3.402219  0.023677
  7173.314  7173.310  0.500  3.795044  151.398730  3.403734  0.024676
  7174.860  7174.850  0.500  3.785823  151.367640  3.434558  0.026110
  7176.411  7176.410  0.500  3.772413  151.309470  3.479588  0.028088
  7177.989  7177.980  0.500  3.755374  151.263623  3.538315  0.030082
  7179.578  7179.580  0.500  3.735259  151.237946  3.609596  0.031711
  7181.199  7181.190  0.500  3.714606  151.201852  3.684039  0.032711
  7182.830  7182.830  0.500  3.694629  151.140539  3.756852  0.033089
  7184.485  7184.480  0.500  3.674495  151.108802  3.832452  0.033027
  7186.154  7186.150  0.500  3.653695  151.049513  3.911466  0.032328
  7187.846  7187.840  0.500  3.633416  151.006288  3.990454  0.031232
  7189.557  7189.550  0.500  3.614636  150.955588  4.064742  0.030254
  7191.286  7191.280  0.500  3.596939  149.311155  4.092245  0.028560
  7193.046  7193.030  0.500  3.582286  150.580437  4.187949  0.027796
  7194.798  7194.790  0.500  3.572517  150.723316  4.233076  0.027560
  7196.591  7196.580  0.500  3.567262  150.707397  4.254931  0.028191
  7198.390  7198.380  0.500  3.565584  150.646857  4.260362  0.029652
  7200.222  7200.210  0.500  3.568439  150.584123  4.246446  0.031522
  7202.064  7202.050  0.500  3.573092  150.542630  4.225571  0.033857
  7203.915  7203.910  0.500  3.576280  150.473288  4.210183  0.036431
  7205.799  7205.790  0.500  3.577448  150.425444  4.203928  0.039303
  7207.699  7207.690  0.500  3.577687  150.373283  4.201465  0.040378
  7209.618  7209.610  0.500  3.579749  150.294246  4.190608  0.038893
  7211.560  7211.550  0.500  3.584469  150.223887  4.168922  0.034878
  7213.523  7213.510  0.500  3.592679  150.162922  4.133157  0.029565
  7215.489  7215.480  0.500  3.600570  150.089131  4.098656  0.024384
  7217.491  7217.480  0.500  3.606383  150.030263  4.073301  0.020861
  7219.506  7219.490  0.500  3.608653  149.988337  4.062929  0.019007
  7221.529  7221.520  0.500  3.607788  149.902805  4.064128  0.018517
  7223.595  7223.580  0.500  3.601857  149.838431  4.086549  0.019846
  7225.667  7225.650  0.500  3.592419  149.720863  4.122062  0.022510
  7227.750  7227.740  0.500  3.579122  147.117686  4.104611  0.025788
  7229.862  7229.850  0.500  3.563614  149.892921  4.247403  0.031075
  7231.986  7231.980  0.500  3.546833  149.824100  4.317294  0.036175
  7234.130  7234.120  0.500  3.533925  149.717545  4.370274  0.041247
  7236.301  7236.290  0.500  3.527740  149.688550  4.396537  0.044948
  7238.485  7238.480  0.500  3.529757  149.658533  4.386796  0.046152
  7240.694  7240.680  0.500  3.540356  149.591880  4.338612  0.045494
  7242.910  7242.900  0.500  3.556503  149.562712  4.268286  0.043186
  7245.165  7245.150  0.500  3.573974  146.751847  4.115534  0.039429
  7247.423  7247.410  0.500  3.587056  149.310805  4.132878  0.038098
  7249.696  7249.690  0.500  3.593586  149.280512  4.105146  0.036899
  7252.007  7251.990  0.500  3.593470  149.202773  4.103485  0.037109
  7254.315  7254.310  0.500  3.587584  146.825266  4.061933  0.038021
  7256.671  7256.650  0.500  3.577560  149.285506  4.171604  0.039841
  7259.006  7259.000  0.500  3.565339  149.112959  4.218018  0.040061
  7261.394  7261.380  0.500  3.553332  148.663559  4.256102  0.039148
  7263.782  7263.770  0.500  3.542997  137.248922  3.970133  0.035479
  7266.201  7266.190  0.500  3.537630  148.909200  4.330604  0.037889
  7268.634  7268.620  0.500  3.531075  149.448427  4.374870  0.037338
  7271.085  7271.070  0.500  3.524279  149.392915  4.403066  0.035741
  7273.565  7273.550  0.500  3.518018  148.126646  4.393162  0.033935
  7276.060  7276.040  0.500  3.513167  149.432803  4.453454  0.033146
  7278.564  7278.550  0.500  3.509252  149.349334  4.468426  0.032824
  7281.080  7281.070  0.500  3.504745  149.302320  4.487196  0.031893
  7283.635  7283.620  0.500  3.498255  148.174707  4.482305  0.030744
  7286.198  7286.190  0.500  3.489709  148.922900  4.543602  0.030040
  7288.783  7288.770  0.500  3.479700  149.035900  4.592788  0.029881
  7291.395  7291.380  0.500  3.469566  148.966483  4.637406  0.031403
  7294.012  7294.000  0.500  3.461476  148.962555  4.674950  0.034296
  7296.661  7296.650  0.500  3.456094  148.896772  4.698107  0.038065
  7299.322  7299.310  0.500  3.453711  148.774597  4.705448  0.041901
  7302.001  7301.990  0.500  3.453884  147.152927  4.653354  0.044508
  7304.700  7304.690  0.500  3.454939  148.890196  4.703325  0.047412
  7307.426  7307.410  0.500  3.456393  148.793705  4.693448  0.048962
  7310.163  7310.150  0.500  3.456255  148.739950  4.692402  0.049569
  7312.914  7312.900  0.500  3.453848  148.652276  4.700935  0.049520
  7315.694  7315.680  0.500  3.449586  148.583275  4.718825  0.049794
  7318.486  7318.470  0.500  3.445128  148.523000  4.737985  0.050231
  7321.300  7321.290  0.500  3.441068  148.459050  4.755212  0.050599
  7324.130  7324.120  0.500  3.437513  148.424499  4.771037  0.050789
  7326.985  7326.970  0.500  3.433609  148.323676  4.786445  0.051213
  7329.863  7329.850  0.500  3.430090  148.275536  4.801758  0.051617
  7332.748  7332.740  0.500  3.426876  148.222651  4.815500  0.052723
  7335.665  7335.650  0.500  3.424828  148.146234  4.822882  0.054171
  7338.582  7338.570  0.500  3.423387  146.877984  4.788489  0.054294
  7341.539  7341.520  0.500  3.420967  147.929842  4.834466  0.054433
  7344.506  7344.490  0.500  3.417222  147.902856  4.851723  0.052555
  7347.477  7347.470  0.500  3.412233  147.837583  4.873836  0.049989
  7350.491  7350.480  0.500  3.405870  147.784385  4.903181  0.047580
  7353.517  7353.500  0.500  3.398605  147.714505  4.936598  0.045522
  7356.566  7356.550  0.500  3.390656  147.663909  4.974292  0.043965
  7359.621  7359.610  0.500  3.383208  147.577675  5.008552  0.042859
  7362.700  7362.690  0.500  3.376655  147.499136  5.038799  0.041818
  7365.795  7365.790  0.500  3.371338  147.430437  5.063302  0.041674
  7368.919  7368.910  0.500  3.366321  147.360344  5.086346  0.042323
  7372.063  7372.050  0.500  3.362092  147.298327  5.105754  0.044162
