# XDI/1.0 BlueSky/1.10.0 BMM/2023-1.0-py310-tiled
# Beamline.name: BMM (06BM) -- Beamline for Materials Measurement (NIST)
# Beamline.xray_source: NSLS-II three-pole wiggler
# Beamline.collimation: paraboloid mirror, 5 nm Rh on 30 nm Pt
# Beamline.focusing: not in use
# Beamline.harmonic_rejection: flat mirror, Si stripe, pitch = 7.0 mrad relative to beam
# Beamline.software: Bluesky 1.10.0, Ophyd 1.7.0, DataBroker 2.0.0b13, Python 3.10.8, 2023-1.0-py310-tiled
# Detector.I0: 10 cm N2
# Detector.I1: 25 cm N2
# Detector.I2: 25 cm N2
# Element.symbol: Fe
# Element.edge: K
# Element.reference: Fe
# Element.reference_material: Fe foil
# Facility.name: NSLS-II
# Facility.energy: 3.0
# Facility.current: 399.3
# Facility.mode: top-off
# Facility.GUP: 123456
# Facility.SAF: 301027
# Facility.cycle: 2023-2
# Mono.name: Si(111)
# Mono.d_spacing: 3.1351860
# Mono.encoder_resolution: 0.0000050 deg/ct
# Mono.angle_offset: 16.0754326 deg
# Mono.scan_mode: pseudo channel cut
# Mono.scan_type: step
# Mono.direction: forward in energy
# Sample.name: FeC2O4(H2O)2
# Sample.prep: PEG pellet
# Sample.x: 116.329 mm
# Sample.y: 114.126 mm
# Sample.SDD_position: 205.000 mm
# Scan.experimenters: Bruce Ravel
# Scan.edge_energy: 7112.0
# Scan.start_time: 2023-05-05T18:50:13
# Scan.end_time: 2023-05-05T18:58:23
# Scan.transient_id: 74566
# Scan.uid: 8826fc18-d0a2-4e26-83ae-67cfdac7097e
# Scan.plot_hint: ln(I0/It)  --  ln($5/$6)
# Column.1: energy eV
# Column.2: requested_energy eV
# Column.3: measurement_time seconds
# Column.4: xmu 
# Column.5: I0 nA
# Column.6: It nA
# Column.7: Ir nA
# ///////////
# courtesy Martin Stennett, University of Sheffield
# -----------
# energy  requested_energy  measurement_time  xmu  I0  It  Ir
  6912.001  6912.000  0.500  1.768845  154.083919  26.275910  4.932860
  6922.009  6922.000  0.500  1.757845  153.896667  26.534245  5.016819
  6932.017  6932.000  0.500  1.747321  153.862205  26.808963  5.104562
  6942.011  6942.000  0.500  1.736819  153.887691  27.096493  5.195417
  6952.006  6952.000  0.500  1.726633  153.852002  27.367557  5.285189
  6962.014  6962.000  0.500  1.716239  153.849943  27.653118  5.377228
  6972.016  6972.000  0.500  1.706163  154.343074  28.022698  5.486091
  6982.021  6982.000  0.500  1.696179  154.277004  28.291766  5.575810
  6992.014  6992.000  0.500  1.686500  154.298849  28.570981  5.670468
  7002.013  7002.000  0.500  1.676452  154.246844  28.849768  5.763539
  7012.016  7012.000  0.500  1.666677  154.202566  29.124802  5.856519
  7022.014  7022.000  0.500  1.657015  154.120347  29.391890  5.949881
  7032.012  7032.000  0.500  1.647177  154.033625  29.665785  6.043003
  7042.013  7042.000  0.500  1.637312  153.929514  29.939613  6.137130
  7052.009  7052.000  0.500  1.627884  153.828453  30.203385  6.227928
  7062.012  7062.000  0.500  1.618514  153.097788  30.342919  6.290899
  7072.013  7072.000  0.500  1.609800  153.622509  30.713367  6.399340
  7081.984  7082.000  0.500  1.600967  153.588953  30.979100  6.477108
  7083.981  7084.000  0.500  1.599683  153.369271  30.974540  6.479805
  7085.980  7086.000  0.500  1.597849  153.454300  31.048592  6.496641
  7087.985  7088.000  0.500  1.596119  153.459126  31.103353  6.509014
  7089.988  7090.000  0.500  1.594904  153.445547  31.138398  6.516411
  7091.989  7092.000  0.500  1.593522  153.432745  31.178871  6.522052
  7093.985  7094.000  0.500  1.592161  153.423581  31.219445  6.527188
  7095.984  7096.000  0.500  1.591602  153.415081  31.235182  6.522203
  7098.296  7098.000  0.500  1.590124  153.346016  31.267317  6.516921
  7099.999  7100.000  0.500  1.589400  153.313057  31.283224  6.502602
  7101.997  7102.000  0.500  1.588896  153.300166  31.296360  6.478677
  7102.288  7102.300  0.500  1.588851  153.273795  31.292397  6.472958
  7102.585  7102.600  0.500  1.588819  153.286357  31.295951  6.468316
  7102.887  7102.900  0.500  1.588612  153.272996  31.299688  6.462344
  7103.192  7103.200  0.500  1.588723  153.224635  31.286356  6.453568
  7103.485  7103.500  0.500  1.588676  153.215340  31.285922  6.447258
  7103.787  7103.800  0.500  1.588740  153.204389  31.281689  6.438527
  7104.089  7104.100  0.500  1.588926  153.230122  31.281127  6.430241
  7104.384  7104.400  0.500  1.588983  153.200786  31.273342  6.419926
  7104.688  7104.700  0.500  1.588857  153.211726  31.279524  6.412260
  7104.983  7105.000  0.500  1.589083  153.176451  31.265265  6.400284
  7105.285  7105.300  0.500  1.589205  153.176442  31.261437  6.387600
  7105.591  7105.600  0.500  1.589118  153.138711  31.256457  6.375818
  7105.886  7105.900  0.500  1.589343  153.147188  31.251158  6.358775
  7106.186  7106.200  0.500  1.589475  153.147377  31.247065  6.343365
  7106.490  7106.500  0.500  1.589709  153.119774  31.234142  6.325307
  7106.794  7106.800  0.500  1.589909  153.099494  31.223745  6.304241
  7107.087  7107.100  0.500  1.590304  153.099398  31.211405  6.282253
  7107.383  7107.400  0.500  1.590698  153.078087  31.194770  6.255406
  7107.685  7107.700  0.500  1.590952  153.067271  31.184639  6.226688
  7107.985  7108.000  0.500  1.591138  153.045763  31.174441  6.194448
  7108.291  7108.300  0.500  1.591513  153.031816  31.159914  6.156193
  7108.591  7108.600  0.500  1.591977  153.000423  31.139074  6.109024
  7108.891  7108.900  0.500  1.592461  152.980585  31.119970  6.056747
  7109.188  7109.200  0.500  1.593150  152.953097  31.092947  5.989424
  7109.495  7109.500  0.500  1.593915  152.953353  31.069242  5.906055
  7109.795  7109.800  0.500  1.595082  152.945948  31.031487  5.793148
  7110.095  7110.100  0.500  1.596458  152.920751  30.983705  5.640777
  7110.395  7110.400  0.500  1.598575  152.909021  30.915811  5.427178
  7110.697  7110.700  0.500  1.601750  152.897342  30.815475  5.124825
  7110.995  7111.000  0.500  1.606047  152.873404  30.678528  4.736174
  7111.299  7111.300  0.500  1.611120  152.804202  30.509477  4.269060
  7111.593  7111.600  0.500  1.615347  152.771696  30.374310  3.805631
  7111.889  7111.900  0.500  1.617724  152.738654  30.295656  3.389246
  7112.194  7112.200  0.500  1.618383  152.713968  30.270796  3.060877
  7112.490  7112.500  0.500  1.617898  152.702923  30.283297  2.824909
  7112.796  7112.800  0.500  1.617237  152.671517  30.297081  2.643354
  7113.097  7113.100  0.500  1.616551  152.639736  30.311566  2.499386
  7113.395  7113.400  0.500  1.616792  152.632268  30.302797  2.373040
  7113.699  7113.700  0.500  1.617761  152.609351  30.268894  2.254394
  7114.002  7114.000  0.500  1.618508  152.585164  30.241486  2.146999
  7114.298  7114.300  0.500  1.618912  152.541827  30.220692  2.055275
  7114.603  7114.600  0.500  1.619496  152.535601  30.201822  1.977917
  7114.897  7114.900  0.500  1.620967  152.522246  30.154770  1.918060
  7115.199  7115.200  0.500  1.624148  152.502662  30.055157  1.868989
  7115.498  7115.500  0.500  1.628555  152.484325  29.919403  1.830126
  7115.802  7115.800  0.500  1.633907  152.483656  29.759559  1.798714
  7116.094  7116.100  0.500  1.640258  152.469921  29.568485  1.770345
  7116.393  7116.400  0.500  1.646871  152.450446  29.369839  1.741460
  7116.696  7116.700  0.500  1.654028  152.433359  29.157137  1.704967
  7116.998  7117.000  0.500  1.662567  152.441005  28.910674  1.654732
  7117.299  7117.300  0.500  1.672744  152.419887  28.613962  1.587948
  7117.598  7117.600  0.500  1.686221  152.399621  28.227172  1.499849
  7117.898  7117.900  0.500  1.704375  152.377609  27.715348  1.392833
  7118.201  7118.200  0.500  1.728866  152.400659  27.048907  1.271691
  7118.506  7118.500  0.500  1.762266  152.353663  26.152345  1.141390
  7118.801  7118.800  0.500  1.804400  152.352858  25.073199  1.013754
  7119.099  7119.100  0.500  1.854857  152.337954  23.837135  0.891616
  7119.400  7119.400  0.500  1.910794  152.295184  22.534025  0.779355
  7119.699  7119.700  0.500  1.969808  152.273683  21.239683  0.678040
  7120.000  7120.000  0.500  2.031477  152.258404  19.967424  0.586691
  7120.298  7120.300  0.500  2.095850  152.249709  18.721497  0.504628
  7120.595  7120.600  0.500  2.164857  152.219994  17.469734  0.431197
  7120.892  7120.900  0.500  2.237807  152.220886  16.240778  0.367367
  7121.199  7121.200  0.500  2.312192  152.193134  15.073804  0.313247
  7121.500  7121.500  0.500  2.381701  152.179804  14.060390  0.270728
  7121.803  7121.800  0.500  2.444469  152.163850  13.203596  0.236987
  7122.100  7122.100  0.500  2.500383  152.140044  12.483635  0.210073
  7122.399  7122.400  0.500  2.549042  152.112385  11.888569  0.188755
  7122.705  7122.700  0.500  2.595063  152.099948  11.352918  0.170645
  7123.008  7123.000  0.500  2.638098  152.097675  10.874551  0.155630
  7123.301  7123.300  0.500  2.683086  152.073779  10.394536  0.141916
  7123.600  7123.600  0.500  2.731429  152.066282  9.903494  0.129868
  7123.899  7123.900  0.500  2.785142  152.039757  9.383939  0.118576
  7124.200  7124.200  0.500  2.846990  152.019641  8.819982  0.107464
  7124.499  7124.500  0.500  2.913701  152.010787  8.250311  0.097134
  7124.798  7124.800  0.500  2.983929  151.991118  7.689790  0.087841
  7125.095  7125.100  0.500  3.053225  151.993887  7.175090  0.079228
  7125.401  7125.400  0.500  3.118729  151.955218  6.718448  0.071794
  7125.704  7125.700  0.500  3.175147  151.949229  6.349649  0.065748
  7125.999  7126.000  0.500  3.217848  151.931483  6.083506  0.061156
  7126.301  7126.300  0.500  3.244798  151.909174  5.920880  0.057647
  7126.602  7126.600  0.500  3.252068  151.877287  5.876753  0.055521
  7126.900  7126.900  0.500  3.238507  151.869976  5.956709  0.054169
  7127.203  7127.200  0.500  3.207959  151.847570  6.140573  0.053718
  7127.503  7127.500  0.500  3.167363  151.816547  6.393681  0.053691
  7127.802  7127.800  0.500  3.124634  151.788214  6.671551  0.053701
  7128.097  7128.100  0.500  3.084371  151.766096  6.944637  0.053502
  7128.399  7128.400  0.500  3.047583  151.748277  7.204023  0.052725
  7128.698  7128.700  0.500  3.013767  151.738812  7.451336  0.052033
  7128.994  7129.000  0.500  2.984353  151.722303  7.672931  0.050966
  7129.297  7129.300  0.500  2.958323  151.697237  7.873981  0.049734
  7129.597  7129.600  0.500  2.935810  151.694022  8.053091  0.048298
  7129.897  7129.900  0.500  2.916561  151.627829  8.206020  0.047200
  7130.209  7130.200  0.500  2.898077  151.602186  8.357699  0.046248
  7130.500  7130.500  0.500  2.881225  151.582880  8.498652  0.045830
  7130.800  7130.800  0.500  2.864072  151.550968  8.643863  0.045605
  7131.104  7131.100  0.500  2.846359  151.520923  8.796597  0.046102
  7131.397  7131.400  0.500  2.827922  151.433795  8.955129  0.047144
  7131.704  7131.700  0.500  2.808527  151.478495  9.133203  0.048888
  7132.003  7132.000  0.500  2.789589  151.460805  9.306730  0.051201
  7132.299  7132.300  0.500  2.770631  151.452987  9.484364  0.053949
  7132.597  7132.600  0.500  2.751245  151.431134  9.668620  0.057222
  7132.899  7132.900  0.500  2.730361  151.454865  9.874212  0.060832
  7133.201  7133.200  0.500  2.709033  151.454187  10.087026  0.064852
  7133.498  7133.500  0.500  2.687548  151.664122  10.320375  0.069403
  7133.794  7133.800  0.500  2.666740  151.967494  10.558447  0.073960
  7134.100  7134.100  0.500  2.646555  151.969038  10.773853  0.078371
  7134.398  7134.400  0.500  2.628888  151.960772  10.965286  0.082409
  7134.703  7134.700  0.500  2.612710  151.962010  11.144211  0.086506
  7135.001  7135.000  0.500  2.598577  151.951093  11.302020  0.090038
  7135.301  7135.300  0.500  2.585921  151.955077  11.446270  0.093342
  7135.607  7135.600  0.500  2.575268  151.949822  11.568458  0.096052
  7135.903  7135.900  0.500  2.566351  151.932423  11.670745  0.098103
  7136.201  7136.200  0.500  2.559581  151.930282  11.749853  0.099884
  7136.497  7136.500  0.500  2.555389  151.940248  11.799982  0.101040
  7136.797  7136.800  0.500  2.552807  151.935635  11.830132  0.101668
  7136.996  7137.000  0.500  2.551868  151.933714  11.841097  0.101775
  7137.998  7137.990  0.500  2.553471  151.929526  11.821805  0.099790
  7139.003  7138.990  0.500  2.552944  151.909550  11.826480  0.095630
  7140.023  7140.010  0.500  2.547240  151.934925  11.896120  0.091502
  7141.083  7141.060  0.500  2.543637  151.929645  11.938641  0.088886
  7142.117  7142.120  0.500  2.544422  151.925307  11.928934  0.088372
  7143.194  7143.200  0.500  2.547785  151.918663  11.888363  0.089223
  7144.298  7144.300  0.500  2.543651  151.911981  11.937092  0.091010
  7145.426  7145.420  0.500  2.520311  151.922028  12.219790  0.092854
  7146.563  7146.560  0.500  2.480647  151.922993  12.714287  0.092960
  7147.713  7147.710  0.500  2.440062  151.914608  13.240191  0.090996
  7148.895  7148.890  0.500  2.407725  151.902523  13.674249  0.087722
  7150.083  7150.080  0.500  2.387930  151.879757  13.945535  0.085170
  7151.301  7151.300  0.500  2.379310  151.915104  14.069538  0.083584
  7152.529  7152.530  0.500  2.380842  151.893367  14.045986  0.081423
  7153.782  7153.780  0.500  2.390969  151.880313  13.903265  0.080028
  7155.054  7155.050  0.500  2.403456  151.866651  13.729503  0.079635
  7156.340  7156.340  0.500  2.415473  151.864411  13.565295  0.080016
  7157.654  7157.650  0.500  2.426533  151.844290  13.414312  0.080527
  7158.986  7158.980  0.500  2.439797  151.829415  13.236265  0.080023
  7160.337  7160.330  0.500  2.457030  151.799058  13.007523  0.078682
  7161.707  7161.700  0.500  2.477775  151.772818  12.738258  0.077658
  7163.080  7163.080  0.500  2.503531  151.741243  12.411781  0.076882
  7164.493  7164.490  0.500  2.535498  151.708085  12.018654  0.076094
  7165.913  7165.910  0.500  2.568835  151.658985  11.620839  0.074901
  7167.349  7167.350  0.500  2.599731  151.627701  11.264962  0.073475
  7168.818  7168.810  0.500  2.624329  151.593976  10.988802  0.072558
  7170.294  7170.290  0.500  2.642107  151.563225  10.792981  0.072625
  7171.795  7171.790  0.500  2.656245  151.526197  10.638860  0.073632
  7173.323  7173.310  0.500  2.658204  151.509576  10.616875  0.076749
  7174.853  7174.850  0.500  2.650160  151.486165  10.700972  0.081481
  7176.418  7176.410  0.500  2.635504  151.442700  10.855842  0.087364
  7177.989  7177.980  0.500  2.617757  151.435437  11.049685  0.093723
  7179.583  7179.580  0.500  2.599925  151.412366  11.246776  0.098661
  7181.193  7181.190  0.500  2.585079  151.389707  11.413292  0.100999
  7182.834  7182.830  0.500  2.573712  151.364763  11.541862  0.101255
  7184.487  7184.480  0.500  2.565163  151.257435  11.632702  0.099854
  7186.159  7186.150  0.500  2.557482  151.288097  11.724767  0.096806
  7187.849  7187.840  0.500  2.548392  151.268617  11.830310  0.092843
  7189.559  7189.550  0.500  2.538884  151.229899  11.940276  0.088663
  7191.290  7191.280  0.500  2.529657  149.649203  11.924997  0.083230
  7193.044  7193.030  0.500  2.519326  150.877641  12.147746  0.080196
  7194.796  7194.790  0.500  2.508360  151.051965  12.295872  0.079649
  7196.593  7196.580  0.500  2.496499  151.054420  12.442783  0.082317
  7198.392  7198.380  0.500  2.485142  151.004186  12.580722  0.087424
  7200.217  7200.210  0.500  2.475541  150.946184  12.697216  0.094231
  7202.055  7202.050  0.500  2.468725  150.917869  12.781657  0.102139
  7203.918  7203.910  0.500  2.463611  150.864665  12.842650  0.111166
  7205.806  7205.790  0.500  2.458912  150.834869  12.900600  0.119920
  7207.701  7207.690  0.500  2.454249  150.781853  12.956333  0.124129
  7209.616  7209.610  0.500  2.450312  150.722672  13.002348  0.121041
  7211.562  7211.550  0.500  2.446849  150.670476  13.042931  0.109055
  7213.523  7213.510  0.500  2.443751  150.647567  13.081410  0.092781
  7215.493  7215.480  0.500  2.443097  150.574110  13.083591  0.077459
  7217.489  7217.480  0.500  2.445357  150.516067  13.049011  0.066302
  7219.502  7219.490  0.500  2.449835  150.461348  12.985989  0.060019
  7221.533  7221.520  0.500  2.455823  150.409703  12.904035  0.058579
  7223.595  7223.580  0.500  2.462660  150.342314  12.810369  0.061903
  7225.660  7225.650  0.500  2.469320  150.225537  12.715451  0.069421
  7227.755  7227.740  0.500  2.474993  147.597156  12.422299  0.078261
  7229.860  7229.850  0.500  2.479677  150.412310  12.600079  0.091784
  7231.989  7231.980  0.500  2.483042  150.348075  12.552392  0.105479
  7234.130  7234.120  0.500  2.484930  150.291557  12.524009  0.118376
  7236.299  7236.290  0.500  2.485575  150.246855  12.512209  0.127621
  7238.491  7238.480  0.500  2.484978  150.218590  12.517319  0.131899
  7240.692  7240.680  0.500  2.483538  150.168540  12.531185  0.131390
  7242.910  7242.900  0.500  2.481618  150.137436  12.552666  0.127088
  7245.162  7245.150  0.500  2.478121  147.317722  12.360061  0.118848
  7247.419  7247.410  0.500  2.473269  149.873207  12.635633  0.116176
  7249.701  7249.690  0.500  2.467991  149.870790  12.702299  0.114161
  7252.000  7251.990  0.500  2.462145  149.771420  12.768295  0.116009
  7254.324  7254.310  0.500  2.456765  147.391143  12.633151  0.118361
  7256.664  7256.650  0.500  2.451367  149.849682  12.913403  0.123660
  7259.008  7259.000  0.500  2.446240  149.712788  12.967925  0.122904
  7261.397  7261.380  0.500  2.442099  149.260666  12.982408  0.119720
  7263.782  7263.770  0.500  2.438613  138.353381  12.075732  0.108304
  7266.201  7266.190  0.500  2.433936  149.467781  13.106980  0.114933
  7268.637  7268.620  0.500  2.429491  150.065104  13.217987  0.112803
  7271.081  7271.070  0.500  2.425070  149.992268  13.270104  0.107810
  7273.563  7273.550  0.500  2.420921  148.769368  13.216639  0.101700
  7276.053  7276.040  0.500  2.416517  150.008538  13.385547  0.099885
  7278.555  7278.550  0.500  2.412281  149.932386  13.435545  0.098341
  7281.089  7281.070  0.500  2.408047  149.895737  13.489251  0.096160
  7283.630  7283.620  0.500  2.403755  148.839045  13.451767  0.092093
  7286.200  7286.190  0.500  2.398770  149.542265  13.582868  0.089714
  7288.783  7288.770  0.500  2.393920  149.650688  13.658795  0.089046
  7291.398  7291.380  0.500  2.388808  149.610777  13.725136  0.092557
  7294.007  7294.000  0.500  2.383579  149.574408  13.793746  0.101202
  7296.664  7296.650  0.500  2.378387  149.486434  13.857383  0.112251
  7299.327  7299.310  0.500  2.374128  149.376551  13.906303  0.123491
  7302.003  7301.990  0.500  2.370716  147.704214  13.797615  0.131817
  7304.709  7304.690  0.500  2.368265  149.502337  13.999861  0.141179
  7307.424  7307.410  0.500  2.366205  149.415454  14.020570  0.146255
  7310.157  7310.150  0.500  2.364301  149.361871  14.042260  0.148428
  7312.914  7312.900  0.500  2.363172  149.307663  14.053022  0.148356
  7315.694  7315.680  0.500  2.361809  149.213539  14.063308  0.148511
  7318.486  7318.470  0.500  2.360217  149.160793  14.080743  0.149251
  7321.302  7321.290  0.500  2.358679  149.112280  14.097832  0.150073
  7324.132  7324.120  0.500  2.356568  149.027870  14.119624  0.151034
  7326.981  7326.970  0.500  2.354240  148.972278  14.147252  0.151476
  7329.863  7329.850  0.500  2.351561  148.905111  14.178808  0.152746
  7332.750  7332.740  0.500  2.348794  148.837087  14.211603  0.155752
  7335.663  7335.650  0.500  2.346068  148.768615  14.243838  0.159818
  7338.587  7338.570  0.500  2.342951  147.525573  14.168919  0.160824
  7341.532  7341.520  0.500  2.339712  148.530861  14.311747  0.160983
  7344.497  7344.490  0.500  2.336545  148.527782  14.356844  0.155805
  7347.484  7347.470  0.500  2.332875  148.471850  14.404204  0.147999
  7350.493  7350.480  0.500  2.329045  148.412772  14.453727  0.140338
  7353.515  7353.500  0.500  2.325309  148.348233  14.501517  0.134386
  7356.562  7356.550  0.500  2.320967  148.277568  14.557680  0.129262
  7359.621  7359.610  0.500  2.316255  148.186950  14.617509  0.124911
  7362.696  7362.690  0.500  2.311988  148.126418  14.674006  0.122042
  7365.799  7365.790  0.500  2.307290  148.048966  14.735405  0.121329
