# XDI/1.0 BlueSky/1.10.0 BMM/2023-1.0-py310-tiled
# Beamline.name: BMM (06BM) -- Beamline for Materials Measurement (NIST)
# Beamline.xray_source: NSLS-II three-pole wiggler
# Beamline.collimation: paraboloid mirror, 5 nm Rh on 30 nm Pt
# Beamline.focusing: not in use
# Beamline.harmonic_rejection: flat mirror, Si stripe, pitch = 7.0 mrad relative to beam
# Beamline.software: Bluesky 1.10.0, Ophyd 1.7.0, DataBroker 2.0.0b13, Python 3.10.8, 2023-1.0-py310-tiled
# Detector.I0: 10 cm N2
# Detector.I1: 25 cm N2
# Detector.I2: 25 cm N2
# Element.symbol: Fe
# Element.edge: K
# Element.reference: Fe
# Element.reference_material: Fe foil
# Facility.name: NSLS-II
# Facility.energy: 3.0
# Facility.current: 399.9
# Facility.mode: top-off
# Facility.GUP: 123456
# Facility.SAF: 301027
# Facility.cycle: 2023-2
# Mono.name: Si(111)
# Mono.d_spacing: 3.1351860
# Mono.encoder_resolution: 0.0000050 deg/ct
# Mono.angle_offset: 16.0754326 deg
# Mono.scan_mode: pseudo channel cut
# Mono.scan_type: step
# Mono.direction: forward in energy
# Sample.name: alpha-Fe2O3
# Sample.prep: powder on tape
# Sample.x: 116.329 mm
# Sample.y: 114.126 mm
# Sample.SDD_position: 205.000 mm
# Scan.experimenters: Bruce Ravel
# Scan.edge_energy: 7112.0
# Scan.start_time: 2023-05-05T16:46:36
# Scan.end_time: 2023-05-05T16:54:47
# Scan.transient_id: 74496
# Scan.uid: 130682c6-150e-4d2a-af8b-67bdc718fbff
# Scan.plot_hint: ln(I0/It)  --  ln($5/$6)
# Column.1: energy eV
# Column.2: requested_energy eV
# Column.3: measurement_time seconds
# Column.4: xmu 
# Column.5: I0 nA
# Column.6: It nA
# Column.7: Ir nA
# ///////////
# Welcome to BMM
# -----------
# energy  requested_energy  measurement_time  xmu  I0  It  Ir
  6911.995  6912.000  0.500  1.756907  153.764882  26.536419  4.981625
  6922.011  6922.000  0.500  1.746415  153.615519  26.790240  5.064952
  6932.017  6932.000  0.500  1.736384  153.592251  27.056231  5.151360
  6942.011  6942.000  0.500  1.725915  153.625216  27.346848  5.244414
  6951.999  6952.000  0.500  1.715885  153.625853  27.622615  5.333947
  6962.004  6962.000  0.500  1.705798  153.636022  27.904497  5.424649
  6972.014  6972.000  0.500  1.695789  153.647517  28.187310  5.517986
  6982.027  6982.000  0.500  1.685461  153.624832  28.475749  5.611992
  6992.012  6992.000  0.500  1.675632  153.623360  28.756740  5.706691
  7002.011  7002.000  0.500  1.665712  153.607842  29.040474  5.802352
  7012.016  7012.000  0.500  1.655837  153.559501  29.319458  5.896068
  7022.016  7022.000  0.500  1.646007  153.509119  29.599356  5.991909
  7032.008  7032.000  0.500  1.636362  153.456282  29.875956  6.085854
  7042.008  7042.000  0.500  1.626748  153.382444  30.150055  6.179597
  7052.009  7052.000  0.500  1.617315  153.312859  30.421979  6.272803
  7062.012  7062.000  0.500  1.607723  152.529537  30.558259  6.335446
  7072.007  7072.000  0.500  1.598469  153.124482  30.962675  6.450519
  7082.643  7082.000  0.500  1.589235  152.800441  31.183769  6.520655
  7083.978  7084.000  0.500  1.587784  152.917528  31.252975  6.537738
  7085.982  7086.000  0.500  1.585865  153.062478  31.342703  6.558702
  7087.981  7088.000  0.500  1.584204  153.024843  31.387091  6.568927
  7090.313  7090.000  0.500  1.582263  153.055178  31.454282  6.581711
  7091.965  7092.000  0.500  1.580933  153.067816  31.498767  6.589324
  7093.995  7094.000  0.500  1.579029  152.996160  31.544022  6.594166
  7095.984  7096.000  0.500  1.577688  152.986819  31.584422  6.595829
  7097.991  7098.000  0.500  1.576314  152.970909  31.624561  6.592766
  7099.992  7100.000  0.500  1.574969  152.973680  31.667699  6.583205
  7101.995  7102.000  0.500  1.573148  152.920603  31.714395  6.563974
  7102.284  7102.300  0.500  1.572975  152.926972  31.721222  6.559995
  7102.583  7102.600  0.500  1.572736  152.910819  31.725449  6.555887
  7102.882  7102.900  0.500  1.572376  152.920837  31.738950  6.553699
  7103.184  7103.200  0.500  1.572206  152.903528  31.740735  6.546237
  7103.479  7103.500  0.500  1.572114  152.898800  31.742675  6.539471
  7103.781  7103.800  0.500  1.571897  152.883803  31.746457  6.532596
  7104.084  7104.100  0.500  1.571724  152.854324  31.745832  6.525099
  7104.382  7104.400  0.500  1.571385  152.845958  31.754863  6.517786
  7104.686  7104.700  0.500  1.571164  152.850371  31.762775  6.508697
  7104.987  7105.000  0.500  1.571121  152.857803  31.765693  6.499706
  7105.283  7105.300  0.500  1.570988  152.868846  31.772225  6.489646
  7105.587  7105.600  0.500  1.570954  152.860232  31.771511  6.476927
  7105.886  7105.900  0.500  1.570935  152.858889  31.771844  6.462299
  7106.186  7106.200  0.500  1.570567  152.834707  31.778491  6.448285
  7106.492  7106.500  0.500  1.570581  152.824677  31.775966  6.430658
  7106.792  7106.800  0.500  1.570337  152.814549  31.781627  6.413377
  7107.092  7107.100  0.500  1.570109  152.809185  31.787758  6.394443
  7107.389  7107.400  0.500  1.570388  152.804240  31.777852  6.368234
  7107.691  7107.700  0.500  1.570197  152.798547  31.782735  6.341727
  7107.989  7108.000  0.500  1.569934  152.800727  31.791540  6.310993
  7108.289  7108.300  0.500  1.569775  152.784764  31.793278  6.273238
  7108.586  7108.600  0.500  1.569810  152.771922  31.789501  6.229584
  7108.893  7108.900  0.500  1.569610  152.767705  31.794974  6.177366
  7109.188  7109.200  0.500  1.569772  152.771424  31.790620  6.111130
  7109.491  7109.500  0.500  1.570140  152.755857  31.775670  6.023143
  7109.793  7109.800  0.500  1.570098  152.705940  31.766606  5.910225
  7110.095  7110.100  0.500  1.570040  152.736222  31.774748  5.755390
  7110.397  7110.400  0.500  1.570222  152.715211  31.764596  5.529686
  7110.699  7110.700  0.500  1.570427  152.691680  31.753214  5.215712
  7110.997  7111.000  0.500  1.570757  152.669702  31.738159  4.816549
  7111.295  7111.300  0.500  1.571387  152.636330  31.711238  4.353619
  7111.595  7111.600  0.500  1.572465  153.126678  31.778851  3.893228
  7111.893  7111.900  0.500  1.574129  153.101784  31.720850  3.476888
  7112.191  7112.200  0.500  1.576860  153.075261  31.628863  3.149947
  7112.498  7112.500  0.500  1.580658  153.047633  31.503250  2.899677
  7112.788  7112.800  0.500  1.584757  153.028576  31.370501  2.712039
  7113.090  7113.100  0.500  1.588164  153.004733  31.258931  2.556083
  7113.397  7113.400  0.500  1.590683  152.982764  31.175788  2.418442
  7113.695  7113.700  0.500  1.593096  152.974878  31.099059  2.296578
  7113.995  7114.000  0.500  1.595392  152.956210  31.023943  2.187049
  7114.300  7114.300  0.500  1.597155  152.946562  30.967350  2.092052
  7114.598  7114.600  0.500  1.596743  152.935805  30.977935  2.017463
  7114.901  7114.900  0.500  1.594976  152.945661  31.034728  1.964154
  7115.204  7115.200  0.500  1.593180  152.935040  31.088343  1.926069
  7115.500  7115.500  0.500  1.591840  152.923341  31.127663  1.899200
  7115.800  7115.800  0.500  1.591299  152.922394  31.144305  1.879507
  7116.094  7116.100  0.500  1.591201  152.913217  31.145494  1.861832
  7116.399  7116.400  0.500  1.591466  152.898695  31.134278  1.841625
  7116.698  7116.700  0.500  1.592110  152.887654  31.111989  1.813119
  7116.992  7117.000  0.500  1.593025  152.874646  31.080893  1.770820
  7117.293  7117.300  0.500  1.594046  152.869171  31.048049  1.710419
  7117.593  7117.600  0.500  1.594753  152.850419  31.022301  1.631258
  7117.903  7117.900  0.500  1.595261  152.831099  31.002627  1.536327
  7118.197  7118.200  0.500  1.596075  152.826205  30.976435  1.433226
  7118.504  7118.500  0.500  1.597075  152.807530  30.941685  1.327558
  7118.796  7118.800  0.500  1.599343  152.797565  30.869556  1.225075
  7119.097  7119.100  0.500  1.602223  152.785328  30.778339  1.128123
  7119.407  7119.400  0.500  1.605421  152.785773  30.680157  1.036869
  7119.703  7119.700  0.500  1.609616  152.749709  30.544505  0.952446
  7120.000  7120.000  0.500  1.614973  152.748181  30.381021  0.872293
  7120.298  7120.300  0.500  1.621913  152.740837  30.169443  0.793293
  7120.599  7120.600  0.500  1.630182  152.726354  29.918173  0.720382
  7120.896  7120.900  0.500  1.640186  152.714032  29.617965  0.653377
  7121.201  7121.200  0.500  1.652142  152.694907  29.262304  0.595269
  7121.498  7121.500  0.500  1.666129  152.686483  28.854271  0.545072
  7121.797  7121.800  0.500  1.682634  152.658288  28.376680  0.501251
  7122.100  7122.100  0.500  1.702449  152.641486  27.816876  0.461580
  7122.399  7122.400  0.500  1.725081  152.626218  27.191677  0.425981
  7122.700  7122.700  0.500  1.749978  152.608533  26.519968  0.394069
  7123.001  7123.000  0.500  1.775544  152.586176  25.846756  0.365720
  7123.303  7123.300  0.500  1.800335  152.579856  25.212830  0.340862
  7123.604  7123.600  0.500  1.823201  152.568897  24.641078  0.319724
  7123.907  7123.900  0.500  1.843779  152.547316  24.135793  0.301346
  7124.200  7124.200  0.500  1.862690  152.533793  23.681552  0.285646
  7124.495  7124.500  0.500  1.882141  152.536715  23.225825  0.270607
  7124.800  7124.800  0.500  1.903109  152.512720  22.740302  0.256526
  7125.097  7125.100  0.500  1.925595  152.506361  22.233743  0.242922
  7125.397  7125.400  0.500  1.949889  152.483016  21.696779  0.229629
  7125.696  7125.700  0.500  1.975582  152.438797  21.140306  0.216954
  7125.997  7126.000  0.500  2.002426  152.442767  20.580904  0.204966
  7126.301  7126.300  0.500  2.031042  152.413670  19.996475  0.192946
  7126.600  7126.600  0.500  2.059867  152.398386  19.426366  0.181268
  7126.904  7126.900  0.500  2.088351  152.368689  18.877155  0.169914
  7127.199  7127.200  0.500  2.115560  152.333097  18.366150  0.159327
  7127.501  7127.500  0.500  2.142023  152.312459  17.884079  0.148683
  7127.806  7127.800  0.500  2.167925  152.294464  17.424745  0.138730
  7128.102  7128.100  0.500  2.192614  152.288722  16.999164  0.129386
  7128.401  7128.400  0.500  2.216613  152.273291  16.594382  0.120434
  7128.696  7128.700  0.500  2.239772  152.261947  16.213268  0.111962
  7128.996  7129.000  0.500  2.260765  152.236283  15.873784  0.104212
  7129.300  7129.300  0.500  2.278334  152.198812  15.593486  0.097168
  7129.601  7129.600  0.500  2.291474  152.177648  15.387799  0.091441
  7129.899  7129.900  0.500  2.300006  152.138082  15.253089  0.086798
  7130.201  7130.200  0.500  2.304785  152.114271  15.177994  0.083301
  7130.500  7130.500  0.500  2.307881  152.083461  15.128010  0.080885
  7130.802  7130.800  0.500  2.310365  152.065544  15.088705  0.079150
  7131.102  7131.100  0.500  2.313572  152.020392  15.035935  0.078598
  7131.402  7131.400  0.500  2.317791  151.995358  14.970154  0.078753
  7131.704  7131.700  0.500  2.324138  151.977213  14.873678  0.079771
  7132.001  7132.000  0.500  2.331566  151.967619  14.762664  0.081618
  7132.303  7132.300  0.500  2.339493  151.956793  14.645057  0.083986
  7132.599  7132.600  0.500  2.346254  151.951021  14.545828  0.086663
  7132.899  7132.900  0.500  2.351366  151.956317  14.472168  0.089876
  7133.196  7133.200  0.500  2.354338  151.955265  14.429114  0.093553
  7133.498  7133.500  0.500  2.354434  151.963428  14.428508  0.097842
  7133.800  7133.800  0.500  2.351756  151.968558  14.467687  0.102278
  7134.098  7134.100  0.500  2.345593  151.944006  14.554777  0.106855
  7134.398  7134.400  0.500  2.337217  151.957983  14.678550  0.111487
  7134.703  7134.700  0.500  2.326836  151.955967  14.831525  0.115756
  7135.005  7135.000  0.500  2.315443  151.961779  15.002045  0.120238
  7135.301  7135.300  0.500  2.303732  151.952396  15.177828  0.124397
  7135.601  7135.600  0.500  2.292189  151.933777  15.352148  0.127944
  7135.899  7135.900  0.500  2.281578  151.932402  15.515789  0.131086
  7136.201  7136.200  0.500  2.272116  151.928470  15.662886  0.133640
  7136.503  7136.500  0.500  2.264249  151.926604  15.786392  0.135471
  7136.801  7136.800  0.500  2.257645  151.921162  15.890429  0.136631
  7136.994  7137.000  0.500  2.253819  151.905586  15.949699  0.137218
  7137.990  7137.990  0.500  2.235035  151.905172  16.252089  0.137012
  7139.001  7138.990  0.500  2.211143  151.894899  16.643938  0.134207
  7140.030  7140.010  0.500  2.182396  151.895589  17.129413  0.131333
  7141.079  7141.060  0.500  2.154365  151.907334  17.617730  0.130684
  7142.141  7142.120  0.500  2.131036  151.905398  18.033329  0.133356
  7143.194  7143.200  0.500  2.114225  151.862316  18.333860  0.137848
  7144.292  7144.300  0.500  2.105308  151.853700  18.497022  0.141151
  7145.411  7145.420  0.500  2.103407  151.845004  18.531156  0.140688
  7146.557  7146.560  0.500  2.104497  151.849535  18.511511  0.135126
  7147.713  7147.710  0.500  2.101106  151.850865  18.574560  0.127045
  7148.892  7148.890  0.500  2.088491  151.827513  18.807464  0.120285
  7150.080  7150.080  0.500  2.070806  151.825717  19.142816  0.116675
  7151.310  7151.300  0.500  2.052633  151.831356  19.494593  0.115508
  7152.534  7152.530  0.500  2.037877  151.808489  19.781412  0.114790
  7153.784  7153.780  0.500  2.024684  151.794270  20.042238  0.115298
  7155.049  7155.050  0.500  2.011867  151.778210  20.298628  0.117696
  7156.346  7156.340  0.500  1.998676  151.776818  20.567964  0.121553
  7157.650  7157.650  0.500  1.985580  151.754902  20.836100  0.125005
  7158.984  7158.980  0.500  1.976065  151.742206  21.033525  0.126915
  7160.330  7160.330  0.500  1.971149  151.709970  21.132708  0.127912
  7161.703  7161.700  0.500  1.970354  151.680911  21.145465  0.129012
  7163.084  7163.080  0.500  1.972224  151.640267  21.100302  0.131064
  7164.495  7164.490  0.500  1.976479  151.590559  21.003809  0.132963
  7165.909  7165.910  0.500  1.981380  151.558541  20.896714  0.134706
  7167.355  7167.350  0.500  1.987060  151.516500  20.772601  0.135453
  7168.811  7168.810  0.500  1.995096  151.462557  20.598997  0.135965
  7170.294  7170.290  0.500  2.006682  151.445608  20.359439  0.136758
  7171.797  7171.790  0.500  2.022203  151.426767  20.043376  0.138842
  7173.316  7173.310  0.500  2.040982  151.396501  19.666568  0.142372
  7174.856  7174.850  0.500  2.060407  151.367056  19.284491  0.147051
  7176.413  7176.410  0.500  2.073444  151.342950  19.031668  0.153747
  7177.985  7177.980  0.500  2.080885  151.328805  18.888823  0.160663
  7179.587  7179.580  0.500  2.085185  151.288765  18.802798  0.165224
  7181.191  7181.190  0.500  2.086372  151.271774  18.778376  0.166094
  7182.836  7182.830  0.500  2.085006  151.237631  18.799803  0.164751
  7184.483  7184.480  0.500  2.081691  151.213152  18.859167  0.161819
  7186.157  7186.150  0.500  2.077218  151.170543  18.938382  0.156084
  7187.849  7187.840  0.500  2.073116  151.140845  19.012493  0.148657
  7189.557  7189.550  0.500  2.069496  151.131247  19.080220  0.141138
  7191.286  7191.280  0.500  2.065310  149.378088  18.938002  0.131773
  7193.037  7193.030  0.500  2.059306  150.745600  19.226468  0.127012
  7194.803  7194.790  0.500  2.052206  150.903210  19.383704  0.125650
  7196.587  7196.580  0.500  2.044527  150.893518  19.531872  0.129396
  7198.392  7198.380  0.500  2.037378  150.871009  19.669068  0.136873
  7200.215  7200.210  0.500  2.029873  150.821098  19.810676  0.147451
  7202.064  7202.050  0.500  2.022306  150.792130  19.957334  0.160276
  7203.918  7203.910  0.500  2.013806  150.758426  20.123179  0.175142
  7205.801  7205.790  0.500  2.006699  150.708483  20.260004  0.188811
  7207.699  7207.690  0.500  2.001458  150.627270  20.355491  0.195276
  7209.620  7209.610  0.500  1.997386  150.563677  20.429918  0.189430
  7211.555  7211.550  0.500  1.994328  151.092279  20.564422  0.170963
  7213.518  7213.510  0.500  1.992154  151.042388  20.602380  0.144861
  7215.489  7215.480  0.500  1.991385  150.987769  20.610773  0.121099
  7217.489  7217.480  0.500  1.992104  150.947211  20.590424  0.104054
  7219.504  7219.490  0.500  1.994020  150.902402  20.544912  0.094604
  7221.533  7221.520  0.500  1.995500  150.845305  20.506756  0.093123
  7223.588  7223.580  0.500  1.994986  150.773815  20.507586  0.099349
  7225.662  7225.650  0.500  1.992982  150.664375  20.533817  0.112414
  7227.748  7227.740  0.500  1.990036  148.058487  20.238186  0.128049
  7229.860  7229.850  0.500  1.985775  150.841013  20.706581  0.152238
  7231.991  7231.980  0.500  1.981249  150.789342  20.793388  0.175987
  7234.130  7234.120  0.500  1.977914  150.719731  20.853207  0.197890
  7236.303  7236.290  0.500  1.975963  150.678048  20.888169  0.213587
  7238.491  7238.480  0.500  1.974206  150.638449  20.919400  0.220814
  7240.692  7240.680  0.500  1.972222  150.597311  20.955212  0.219505
  7242.910  7242.900  0.500  1.968887  150.593280  21.024656  0.212441
  7245.162  7245.150  0.500  1.963600  147.824799  20.747534  0.199140
  7247.421  7247.410  0.500  1.958079  150.341959  21.217650  0.194571
  7249.699  7249.690  0.500  1.953394  150.353494  21.318920  0.191991
  7252.003  7251.990  0.500  1.950282  150.253031  21.371084  0.194557
  7254.321  7254.310  0.500  1.948327  147.747909  21.055891  0.197415
  7256.659  7256.650  0.500  1.947993  150.345428  21.433230  0.204812
  7259.019  7259.000  0.500  1.949500  150.183395  21.377887  0.202980
  7261.392  7261.380  0.500  1.951651  149.718668  21.265950  0.195813
  7263.784  7263.770  0.500  1.954955  135.776053  19.221922  0.172146
  7266.203  7266.190  0.500  1.953675  150.011388  21.264448  0.186219
  7268.632  7268.620  0.500  1.953442  150.540505  21.344409  0.181821
  7271.090  7271.070  0.500  1.951104  150.482424  21.386134  0.173268
  7273.561  7273.550  0.500  1.948877  148.909214  21.209725  0.163135
  7276.060  7276.040  0.500  1.947908  150.544786  21.463479  0.159924
  7278.568  7278.550  0.500  1.947627  150.476917  21.459828  0.156840
  7281.076  7281.070  0.500  1.946991  150.442316  21.468545  0.152747
  7283.633  7283.620  0.500  1.944959  149.081861  21.317677  0.145887
  7286.207  7286.190  0.500  1.941663  150.118788  21.536816  0.142180
  7288.781  7288.770  0.500  1.937334  150.180603  21.639161  0.140803
  7291.398  7291.380  0.500  1.932683  150.117509  21.730906  0.147141
  7294.018  7294.000  0.500  1.928064  150.116261  21.831338  0.160674
  7296.661  7296.650  0.500  1.923420  150.071997  21.926473  0.178263
  7299.322  7299.310  0.500  1.918207  149.955085  22.023918  0.196026
  7302.006  7301.990  0.500  1.912115  148.683664  21.970613  0.210451
  7304.709  7304.690  0.500  1.906030  150.105929  22.316165  0.225496
  7307.422  7307.410  0.500  1.899576  150.043819  22.451360  0.234669
  7310.163  7310.150  0.500  1.893402  149.994818  22.583040  0.238869
  7312.919  7312.900  0.500  1.887202  149.920673  22.712258  0.240140
  7315.692  7315.680  0.500  1.880877  149.834730  22.843264  0.241253
  7318.481  7318.470  0.500  1.875415  149.778594  22.959756  0.243847
  7321.304  7321.290  0.500  1.871456  149.738364  23.044655  0.245512
  7324.134  7324.120  0.500  1.869464  149.678710  23.081406  0.246655
  7326.981  7326.970  0.500  1.869029  149.621147  23.082556  0.247198
  7329.856  7329.850  0.500  1.870129  149.535294  23.043948  0.248355
  7332.757  7332.740  0.500  1.871003  149.509998  23.019919  0.252712
  7335.661  7335.650  0.500  1.872061  149.477288  22.990557  0.258150
  7338.585  7338.570  0.500  1.872998  147.918626  22.729516  0.258386
  7341.527  7341.520  0.500  1.872859  149.236864  22.935256  0.257949
  7344.502  7344.490  0.500  1.871246  149.245304  22.973583  0.248648
  7347.481  7347.470  0.500  1.868328  149.145090  23.025260  0.236337
  7350.491  7350.480  0.500  1.863897  149.132588  23.125570  0.224428
  7353.510  7353.500  0.500  1.859041  149.076293  23.229356  0.214904
  7356.557  7356.550  0.500  1.854630  148.998155  23.319825  0.206813
  7359.621  7359.610  0.500  1.850059  148.928304  23.415686  0.200044
  7362.703  7362.690  0.500  1.845356  148.849469  23.513623  0.195418
  7365.806  7365.790  0.500  1.840269  148.792675  23.624507  0.194382
