# XDI/1.0 BlueSky/1.10.0 BMM/2023-1.0-py310-tiled
# Beamline.name: BMM (06BM) -- Beamline for Materials Measurement (NIST)
# Beamline.xray_source: NSLS-II three-pole wiggler
# Beamline.collimation: paraboloid mirror, 5 nm Rh on 30 nm Pt
# Beamline.focusing: not in use
# Beamline.harmonic_rejection: flat mirror, Si stripe, pitch = 7.0 mrad relative to beam
# Beamline.software: Bluesky 1.10.0, Ophyd 1.7.0, DataBroker 2.0.0b13, Python 3.10.8, 2023-1.0-py310-tiled
# Detector.I0: 10 cm N2
# Detector.I1: 25 cm N2
# Detector.I2: 25 cm N2
# Element.symbol: Fe
# Element.edge: K
# Element.reference: Fe
# Element.reference_material: Fe foil
# Facility.name: NSLS-II
# Facility.energy: 3.0
# Facility.current: 400.2
# Facility.mode: top-off
# Facility.GUP: 123456
# Facility.SAF: 301027
# Facility.cycle: 2023-2
# Mono.name: Si(111)
# Mono.d_spacing: 3.1351860
# Mono.encoder_resolution: 0.0000050 deg/ct
# Mono.angle_offset: 16.0754326 deg
# Mono.scan_mode: pseudo channel cut
# Mono.scan_type: step
# Mono.direction: forward in energy
# Sample.name: Ca2Fe4Al0.75(Si7AlO22)OH
# Sample.prep: PEG pellet
# Sample.x: 142.329 mm
# Sample.y: 114.126 mm
# Sample.SDD_position: 205.000 mm
# Scan.experimenters: Bruce Ravel
# Scan.edge_energy: 7112.0
# Scan.start_time: 2023-05-05T19:44:00
# Scan.end_time: 2023-05-05T19:52:16
# Scan.transient_id: 74596
# Scan.uid: d0565109-e969-418c-aca0-5e111c3b5b9f
# Scan.plot_hint: ln(I0/It)  --  ln($5/$6)
# Column.1: energy eV
# Column.2: requested_energy eV
# Column.3: measurement_time seconds
# Column.4: xmu 
# Column.5: I0 nA
# Column.6: It nA
# Column.7: Ir nA
# ///////////
# courtesy Martin Stennett, University of Sheffield
# -----------
# energy  requested_energy  measurement_time  xmu  I0  It  Ir
  6912.003  6912.000  0.500  2.586037  154.408048  11.629697  2.184183
  6921.823  6922.000  0.500  2.573513  154.344679  11.771430  2.226634
  6932.015  6932.000  0.500  2.560387  154.398055  11.931079  2.271846
  6942.011  6942.000  0.500  2.547555  154.407961  12.085940  2.317960
  6951.995  6952.000  0.500  2.534791  154.423177  12.242405  2.364797
  6962.010  6962.000  0.500  2.522316  154.450486  12.398274  2.410676
  6972.034  6972.000  0.500  2.509974  154.453977  12.552526  2.458247
  6982.010  6982.000  0.500  2.497454  154.461123  12.711268  2.505938
  6992.012  6992.000  0.500  2.484899  154.399428  12.866714  2.554330
  7002.013  7002.000  0.500  2.472952  154.397186  13.021165  2.602097
  7012.008  7012.000  0.500  2.460323  154.365579  13.183951  2.651942
  7022.008  7022.000  0.500  2.448404  154.307293  13.336994  2.700618
  7032.012  7032.000  0.500  2.436167  154.250751  13.496255  2.750688
  7042.011  7042.000  0.500  2.424198  154.178116  13.652331  2.798715
  7052.009  7052.000  0.500  2.412444  154.099713  13.806731  2.847379
  7062.004  7062.000  0.500  2.400657  153.356257  13.903026  2.883268
  7072.011  7072.000  0.500  2.388976  153.883616  14.114756  2.941860
  7081.782  7082.000  0.500  2.377980  153.963388  14.278220  2.985616
  7083.981  7084.000  0.500  2.375236  153.700242  14.292978  2.991357
  7085.987  7086.000  0.500  2.373324  153.838519  14.333207  3.000215
  7087.990  7088.000  0.500  2.371420  153.861025  14.362635  3.006876
  7089.983  7090.000  0.500  2.369077  153.843422  14.394676  3.012945
  7091.989  7092.000  0.500  2.367497  153.803713  14.413716  3.016094
  7093.982  7094.000  0.500  2.364844  153.815191  14.453088  3.022269
  7095.984  7096.000  0.500  2.363205  154.142346  14.507577  3.030283
  7097.999  7098.000  0.500  2.361276  154.092094  14.530858  3.029459
  7099.990  7100.000  0.500  2.359476  154.064481  14.554425  3.026455
  7101.999  7102.000  0.500  2.357672  154.040416  14.578428  3.018751
  7102.290  7102.300  0.500  2.357481  154.015530  14.578862  3.016404
  7102.585  7102.600  0.500  2.357026  154.005300  14.584525  3.014415
  7102.884  7102.900  0.500  2.356952  153.996679  14.584793  3.012150
  7103.186  7103.200  0.500  2.356781  154.010789  14.588612  3.010486
  7103.485  7103.500  0.500  2.356622  153.993764  14.589319  3.007674
  7103.781  7103.800  0.500  2.356568  153.988429  14.589600  3.003070
  7104.084  7104.100  0.500  2.356488  153.981744  14.590140  3.000537
  7104.386  7104.400  0.500  2.356126  153.986760  14.595895  2.997802
  7104.681  7104.700  0.500  2.355865  153.956702  14.596865  2.993565
  7104.985  7105.000  0.500  2.355736  153.939364  14.597103  2.988574
  7105.285  7105.300  0.500  2.355572  153.926546  14.598272  2.983780
  7105.589  7105.600  0.500  2.355343  153.934361  14.602366  2.978687
  7105.888  7105.900  0.500  2.355239  153.916356  14.602177  2.971946
  7106.188  7106.200  0.500  2.355081  153.908823  14.603758  2.965297
  7106.490  7106.500  0.500  2.355016  153.901113  14.603982  2.957968
  7106.794  7106.800  0.500  2.355161  153.883474  14.600185  2.949489
  7107.089  7107.100  0.500  2.354836  153.818042  14.598726  2.939048
  7107.387  7107.400  0.500  2.354855  153.890861  14.605355  2.929780
  7107.685  7107.700  0.500  2.354804  153.873293  14.604441  2.917301
  7107.985  7108.000  0.500  2.354770  153.863030  14.603967  2.903309
  7108.291  7108.300  0.500  2.354757  153.842152  14.602169  2.885818
  7108.586  7108.600  0.500  2.354761  153.791694  14.597314  2.864868
  7108.891  7108.900  0.500  2.354868  153.814006  14.597871  2.841861
  7109.191  7109.200  0.500  2.354970  153.819946  14.596958  2.812173
  7109.491  7109.500  0.500  2.355141  153.817080  14.594181  2.775325
  7109.797  7109.800  0.500  2.355577  153.812865  14.587423  2.724390
  7110.097  7110.100  0.500  2.356135  153.787601  14.576887  2.655385
  7110.395  7110.400  0.500  2.356585  153.753345  14.567080  2.557482
  7110.695  7110.700  0.500  2.357917  153.704910  14.543120  2.420797
  7110.999  7111.000  0.500  2.359949  153.694848  14.512649  2.240251
  7111.297  7111.300  0.500  2.361728  153.637137  14.481402  2.026539
  7111.593  7111.600  0.500  2.363503  153.623206  14.454418  1.811279
  7111.893  7111.900  0.500  2.364868  153.577196  14.430377  1.613283
  7112.187  7112.200  0.500  2.366001  153.559670  14.412392  1.461306
  7112.492  7112.500  0.500  2.366902  153.543891  14.397937  1.345290
  7112.794  7112.800  0.500  2.368035  153.524990  14.379855  1.255766
  7113.094  7113.100  0.500  2.369026  153.500525  14.363320  1.185997
  7113.397  7113.400  0.500  2.369781  153.471611  14.349782  1.124512
  7113.697  7113.700  0.500  2.370155  153.451504  14.342528  1.069582
  7113.998  7114.000  0.500  2.370274  153.417561  14.337655  1.020144
  7114.304  7114.300  0.500  2.370269  153.405018  14.336562  0.976534
  7114.600  7114.600  0.500  2.370587  153.394284  14.330999  0.940216
  7114.899  7114.900  0.500  2.370568  153.381667  14.330085  0.912872
  7115.199  7115.200  0.500  2.370749  153.367492  14.326163  0.892240
  7115.500  7115.500  0.500  2.370799  153.367905  14.325497  0.877820
  7115.802  7115.800  0.500  2.371325  153.361370  14.317352  0.867092
  7116.092  7116.100  0.500  2.373033  153.357851  14.292591  0.857451
  7116.395  7116.400  0.500  2.375452  153.325830  14.255086  0.846707
  7116.689  7116.700  0.500  2.379166  153.326123  14.202265  0.832020
  7116.996  7117.000  0.500  2.384708  153.298643  14.121235  0.809953
  7117.303  7117.300  0.500  2.391056  153.272906  14.029521  0.779170
  7117.598  7117.600  0.500  2.399797  153.275675  13.907675  0.740031
  7117.898  7117.900  0.500  2.410920  153.251697  13.751685  0.691694
  7118.197  7118.200  0.500  2.425008  153.219033  13.556421  0.638493
  7118.502  7118.500  0.500  2.443268  153.226912  13.311818  0.581594
  7118.803  7118.800  0.500  2.464537  153.220496  13.031130  0.526580
  7119.101  7119.100  0.500  2.488866  153.193605  12.715686  0.475544
  7119.400  7119.400  0.500  2.517159  153.175078  12.359466  0.427378
  7119.697  7119.700  0.500  2.549505  153.168455  11.965575  0.381936
  7119.998  7120.000  0.500  2.586301  153.144484  11.531487  0.339189
  7120.301  7120.300  0.500  2.626409  153.133030  11.077302  0.298268
  7120.595  7120.600  0.500  2.665623  153.126865  10.650895  0.262730
  7120.894  7120.900  0.500  2.701877  153.113567  10.270775  0.232031
  7121.195  7121.200  0.500  2.732935  153.114893  9.956777  0.206809
  7121.498  7121.500  0.500  2.757512  153.077805  9.712703  0.186876
  7121.803  7121.800  0.500  2.777449  153.059728  9.519850  0.170640
  7122.105  7122.100  0.500  2.795726  153.034770  9.345912  0.157381
  7122.399  7122.400  0.500  2.815493  153.007761  9.161371  0.145676
  7122.700  7122.700  0.500  2.840764  152.993000  8.931889  0.134838
  7122.999  7123.000  0.500  2.872912  152.967279  8.647858  0.124059
  7123.307  7123.300  0.500  2.912194  152.953841  8.314011  0.113899
  7123.600  7123.600  0.500  2.954658  152.952808  7.968302  0.105000
  7123.903  7123.900  0.500  3.000169  152.957652  7.614027  0.096460
  7124.200  7124.200  0.500  3.045908  152.924139  7.272022  0.088986
  7124.499  7124.500  0.500  3.090295  152.887514  6.954630  0.082116
  7124.800  7124.800  0.500  3.128605  152.877540  6.692797  0.076441
  7125.097  7125.100  0.500  3.158478  152.855132  6.494870  0.071889
  7125.399  7125.400  0.500  3.178971  152.834956  6.362287  0.068330
  7125.702  7125.700  0.500  3.190630  152.808223  6.287441  0.065351
  7126.002  7126.000  0.500  3.196260  152.800423  6.251818  0.062935
  7126.303  7126.300  0.500  3.198754  152.772560  6.235109  0.060860
  7126.605  7126.600  0.500  3.200794  152.769100  6.222266  0.058839
  7126.900  7126.900  0.500  3.203956  152.753917  6.202004  0.056666
  7127.203  7127.200  0.500  3.209775  152.734665  6.165242  0.054158
  7127.505  7127.500  0.500  3.218446  152.702912  6.110743  0.051667
  7127.802  7127.800  0.500  3.230159  152.672618  6.038386  0.048869
  7128.097  7128.100  0.500  3.245903  152.633009  5.942521  0.046144
  7128.397  7128.400  0.500  3.265399  152.604243  5.826687  0.043101
  7128.698  7128.700  0.500  3.290588  152.592906  5.681331  0.039937
  7128.998  7129.000  0.500  3.319453  152.576036  5.519074  0.037015
  7129.302  7129.300  0.500  3.350671  152.539969  5.348178  0.034106
  7129.601  7129.600  0.500  3.378918  152.533012  5.198984  0.031571
  7129.901  7129.900  0.500  3.399699  152.498307  5.090900  0.029655
  7130.203  7130.200  0.500  3.410356  152.479165  5.036300  0.028197
  7130.505  7130.500  0.500  3.409414  152.455457  5.040262  0.027468
  7130.804  7130.800  0.500  3.399041  152.422445  5.091716  0.027119
  7131.106  7131.100  0.500  3.381097  152.373688  5.182249  0.027383
  7131.402  7131.400  0.500  3.358976  152.333848  5.296777  0.028079
  7131.701  7131.700  0.500  3.334529  152.318071  5.427301  0.029193
  7132.003  7132.000  0.500  3.311709  152.308431  5.552227  0.030774
  7132.303  7132.300  0.500  3.290997  152.280980  5.667397  0.032396
  7132.597  7132.600  0.500  3.273026  152.254313  5.769160  0.034349
  7132.896  7132.900  0.500  3.255986  152.253022  5.868257  0.036353
  7133.196  7133.200  0.500  3.239350  152.256692  5.966841  0.038800
  7133.498  7133.500  0.500  3.223168  152.267744  6.064624  0.041003
  7133.798  7133.800  0.500  3.206398  152.252972  6.166587  0.043592
  7134.098  7134.100  0.500  3.189123  152.260675  6.274359  0.045878
  7134.400  7134.400  0.500  3.171582  152.257650  6.385260  0.048225
  7134.703  7134.700  0.500  3.154390  152.261263  6.496139  0.050761
  7135.003  7135.000  0.500  3.138068  152.270949  6.603461  0.052962
  7135.305  7135.300  0.500  3.123002  152.233155  6.702033  0.054940
  7135.603  7135.600  0.500  3.110016  152.219359  6.789024  0.056709
  7135.903  7135.900  0.500  3.098637  152.216948  6.866606  0.058226
  7136.199  7136.200  0.500  3.089038  152.213959  6.932698  0.059275
  7136.501  7136.500  0.500  3.081124  152.198122  6.987053  0.060103
  7136.795  7136.800  0.500  3.074385  152.191453  7.033988  0.060823
  7137.000  7137.000  0.500  3.069909  152.182212  7.065119  0.061058
  7138.000  7137.990  0.500  3.049980  152.175684  7.207023  0.061131
  7139.003  7138.990  0.500  3.037050  152.182397  7.301138  0.059423
  7140.026  7140.010  0.500  3.035812  152.188007  7.310448  0.056473
  7141.087  7141.060  0.500  3.040704  152.169317  7.273878  0.054382
  7142.108  7142.120  0.500  3.043941  152.086857  7.246441  0.053983
  7143.188  7143.200  0.500  3.041434  152.100386  7.265280  0.054907
  7144.292  7144.300  0.500  3.031084  152.665000  7.368118  0.056577
  7145.417  7145.420  0.500  3.013634  152.634941  7.496343  0.057317
  7146.557  7146.560  0.500  2.992631  152.663223  7.656872  0.056379
  7147.709  7147.710  0.500  2.968791  152.650131  7.840932  0.054116
  7148.892  7148.890  0.500  2.944388  152.616313  8.032844  0.051739
  7150.080  7150.080  0.500  2.924505  152.603973  8.193501  0.050349
  7151.301  7151.300  0.500  2.909126  152.563207  8.318257  0.049650
  7152.532  7152.530  0.500  2.899837  152.572851  8.396414  0.049109
  7153.784  7153.780  0.500  2.895544  152.565986  8.432162  0.048834
  7155.045  7155.050  0.500  2.894852  152.547259  8.436962  0.049224
  7156.344  7156.340  0.500  2.896173  152.516976  8.424151  0.050099
  7157.658  7157.650  0.500  2.900988  152.494978  8.382477  0.050525
  7158.980  7158.980  0.500  2.908004  152.469397  8.322480  0.050632
  7160.328  7160.330  0.500  2.918360  152.449733  8.235675  0.050187
  7161.707  7161.700  0.500  2.930628  152.403285  8.132777  0.050053
  7163.082  7163.080  0.500  2.944524  152.361179  8.018325  0.050057
  7164.500  7164.490  0.500  2.958503  152.320095  7.904891  0.050328
  7165.911  7165.910  0.500  2.970344  152.276890  7.809621  0.050594
  7167.353  7167.350  0.500  2.979006  152.236472  7.740213  0.050701
  7168.816  7168.810  0.500  2.984367  152.161286  7.695024  0.050972
  7170.294  7170.290  0.500  2.988171  152.101592  7.662798  0.051695
  7171.795  7171.790  0.500  2.993672  152.077632  7.619560  0.053007
  7173.314  7173.310  0.500  2.998410  152.045342  7.581938  0.055117
  7174.860  7174.850  0.500  3.003058  151.995074  7.544285  0.057810
  7176.415  7176.410  0.500  3.008363  151.981236  7.503682  0.060729
  7177.985  7177.980  0.500  3.010624  151.946899  7.485045  0.063777
  7179.585  7179.580  0.500  3.012066  151.909790  7.472431  0.065865
  7181.197  7181.190  0.500  3.012293  151.863820  7.468476  0.066349
  7182.836  7182.830  0.500  3.010911  151.800467  7.475688  0.065873
  7184.492  7184.480  0.500  3.007103  151.787059  7.503547  0.064831
  7186.150  7186.150  0.500  3.001440  151.736460  7.543644  0.062661
  7187.851  7187.840  0.500  2.994831  151.710141  7.592348  0.059828
  7189.552  7189.550  0.500  2.987666  151.669660  7.644904  0.057156
  7191.288  7191.280  0.500  2.980073  150.090759  7.622982  0.053632
  7193.039  7193.030  0.500  2.970967  151.289154  7.754135  0.051646
  7194.801  7194.790  0.500  2.961965  151.436703  7.831878  0.050905
  7196.591  7196.580  0.500  2.952580  151.429075  7.905331  0.052569
  7198.390  7198.380  0.500  2.943376  151.345918  7.974048  0.055634
  7200.217  7200.210  0.500  2.934730  151.329581  8.042417  0.059925
  7202.055  7202.050  0.500  2.927162  151.287625  8.101270  0.065157
  7203.924  7203.910  0.500  2.920099  151.227912  8.155474  0.070996
  7205.797  7205.790  0.500  2.915116  151.181857  8.193712  0.076512
  7207.706  7207.690  0.500  2.911456  151.121297  8.220468  0.079224
  7209.616  7209.610  0.500  2.909759  151.080979  8.232234  0.077035
  7211.560  7211.550  0.500  2.908959  151.009628  8.234925  0.069278
  7213.525  7213.510  0.500  2.908276  150.944305  8.236986  0.058603
  7215.489  7215.480  0.500  2.907654  150.874419  8.238300  0.049212
  7217.494  7217.480  0.500  2.906670  150.830205  8.243995  0.042253
  7219.504  7219.490  0.500  2.905126  150.755726  8.252650  0.038345
  7221.536  7221.520  0.500  2.902393  150.690053  8.271635  0.037781
  7223.593  7223.580  0.500  2.898292  150.637044  8.302707  0.040250
  7225.662  7225.650  0.500  2.893593  150.515117  8.335061  0.045711
  7227.753  7227.740  0.500  2.888846  147.869407  8.227510  0.052013
  7229.860  7229.850  0.500  2.885108  150.696365  8.416207  0.061736
  7231.995  7231.980  0.500  2.882788  150.628343  8.431946  0.071198
  7234.130  7234.120  0.500  2.882237  150.575230  8.433619  0.079932
  7236.303  7236.290  0.500  2.882822  150.529884  8.426149  0.086303
  7238.489  7238.480  0.500  2.884287  150.470261  8.410476  0.089159
  7240.694  7240.680  0.500  2.885901  150.416688  8.393929  0.088307
  7242.914  7242.900  0.500  2.887124  150.388419  8.382090  0.085123
  7245.162  7245.150  0.500  2.888307  147.578197  8.215732  0.079353
  7247.425  7247.410  0.500  2.889221  150.122483  8.349738  0.077044
  7249.701  7249.690  0.500  2.888783  150.143773  8.354587  0.075517
  7252.003  7251.990  0.500  2.887164  150.064946  8.363727  0.076384
  7254.315  7254.310  0.500  2.884255  147.730565  8.257607  0.077704
  7256.668  7256.650  0.500  2.880577  150.123486  8.422289  0.080906
  7259.004  7259.000  0.500  2.876588  149.953241  8.446357  0.080399
  7261.394  7261.380  0.500  2.872399  149.501811  8.456284  0.078396
  7263.782  7263.770  0.500  2.868584  138.852123  7.883920  0.070881
  7266.205  7266.190  0.500  2.863330  149.684444  8.543742  0.075277
  7268.630  7268.620  0.500  2.859308  150.299796  8.613439  0.073841
  7271.081  7271.070  0.500  2.854967  150.244946  8.647755  0.070636
  7273.567  7273.550  0.500  2.850155  149.050292  8.620379  0.066767
  7276.058  7276.040  0.500  2.845419  150.262030  8.731715  0.065441
  7278.559  7278.550  0.500  2.841128  150.218056  8.766694  0.064465
  7281.080  7281.070  0.500  2.836555  150.173912  8.804292  0.063083
  7283.630  7283.620  0.500  2.831955  149.128484  8.783308  0.060392
  7286.202  7286.190  0.500  2.827306  149.781411  8.862877  0.058806
  7288.786  7288.770  0.500  2.822922  149.873186  8.907271  0.058215
  7291.389  7291.380  0.500  2.818988  149.865844  8.941943  0.060611
  7294.016  7294.000  0.500  2.814998  149.833732  8.975766  0.066085
  7296.661  7296.650  0.500  2.810744  149.769777  9.010181  0.073324
  7299.322  7299.310  0.500  2.806251  149.640995  9.042971  0.080583
  7302.003  7301.990  0.500  2.801700  147.912711  8.979300  0.086171
  7304.705  7304.690  0.500  2.797216  149.767336  9.132749  0.092512
  7307.424  7307.410  0.500  2.793272  149.683324  9.163702  0.095881
  7310.163  7310.150  0.500  2.789585  149.617964  9.193528  0.097550
  7312.916  7312.900  0.500  2.786736  149.548076  9.215454  0.097850
  7315.692  7315.680  0.500  2.784148  149.473228  9.234710  0.097794
  7318.483  7318.470  0.500  2.781526  149.439962  9.256891  0.098627
  7321.302  7321.290  0.500  2.778903  149.366844  9.276668  0.099134
  7324.137  7324.120  0.500  2.776135  149.318476  9.299372  0.099619
  7326.987  7326.970  0.500  2.773238  149.182862  9.317876  0.100165
  7329.859  7329.850  0.500  2.770046  149.168679  9.346783  0.100984
  7332.760  7332.740  0.500  2.766338  149.121283  9.378524  0.103171
  7335.663  7335.650  0.500  2.762485  149.026452  9.408741  0.106049
  7338.585  7338.570  0.500  2.758116  147.799688  9.372147  0.106796
  7341.536  7341.520  0.500  2.753726  148.816277  9.478126  0.106994
  7344.500  7344.490  0.500  2.749436  148.835599  9.520106  0.103634
  7347.488  7347.470  0.500  2.745810  148.760889  9.549899  0.098495
  7350.496  7350.480  0.500  2.741918  148.699064  9.583149  0.093575
  7353.515  7353.500  0.500  2.738259  148.634079  9.614076  0.089383
  7356.569  7356.550  0.500  2.734391  148.571995  9.647303  0.086055
  7359.621  7359.610  0.500  2.730578  148.512855  9.680303  0.083092
  7362.703  7362.690  0.500  2.726233  148.429111  9.716977  0.081093
  7365.799  7365.790  0.500  2.722010  148.338417  9.752134  0.080525
  7368.924  7368.910  0.500  2.717954  148.288889  9.788503  0.081870
  7372.067  7372.050  0.500  2.714250  148.222387  9.820422  0.085480
