# XDI/1.0 BlueSky/1.10.0 BMM/2023-1.0-py310-tiled
# Beamline.name: BMM (06BM) -- Beamline for Materials Measurement (NIST)
# Beamline.xray_source: NSLS-II three-pole wiggler
# Beamline.collimation: paraboloid mirror, 5 nm Rh on 30 nm Pt
# Beamline.focusing: not in use
# Beamline.harmonic_rejection: flat mirror, Si stripe, pitch = 7.0 mrad relative to beam
# Beamline.software: Bluesky 1.10.0, Ophyd 1.7.0, DataBroker 2.0.0b13, Python 3.10.8, 2023-1.0-py310-tiled
# Detector.I0: 10 cm N2
# Detector.I1: 25 cm N2
# Detector.I2: 25 cm N2
# Element.symbol: Fe
# Element.edge: K
# Element.reference: Fe
# Element.reference_material: Fe foil
# Facility.name: NSLS-II
# Facility.energy: 3.0
# Facility.current: 400.8
# Facility.mode: top-off
# Facility.GUP: 123456
# Facility.SAF: 301027
# Facility.cycle: 2023-2
# Mono.name: Si(111)
# Mono.d_spacing: 3.1351860
# Mono.encoder_resolution: 0.0000050 deg/ct
# Mono.angle_offset: 16.0754326 deg
# Mono.scan_mode: pseudo channel cut
# Mono.scan_type: step
# Mono.direction: forward in energy
# Sample.name: FePO4
# Sample.prep: powder on tape
# Sample.x: 116.329 mm
# Sample.y: 114.126 mm
# Sample.SDD_position: 205.000 mm
# Scan.experimenters: Bruce Ravel
# Scan.edge_energy: 7112.0
# Scan.start_time: 2023-05-05T17:12:59
# Scan.end_time: 2023-05-05T17:21:05
# Scan.transient_id: 74511
# Scan.uid: 43bba369-1f24-4edf-9205-895accda971d
# Scan.plot_hint: ln(I0/It)  --  ln($5/$6)
# Column.1: energy eV
# Column.2: requested_energy eV
# Column.3: measurement_time seconds
# Column.4: xmu 
# Column.5: I0 nA
# Column.6: It nA
# Column.7: Ir nA
# ///////////
# Welcome to BMM
# -----------
# energy  requested_energy  measurement_time  xmu  I0  It  Ir
  6911.999  6912.000  0.500  1.127091  154.087113  49.920277  9.376513
  6922.011  6922.000  0.500  1.119952  153.958532  50.235979  9.503508
  6932.017  6932.000  0.500  1.112164  153.909425  50.612601  9.642396
  6942.003  6942.000  0.500  1.104649  153.926397  50.999971  9.783686
  6951.991  6952.000  0.500  1.097148  153.908610  51.378069  9.925733
  6962.006  6962.000  0.500  1.089657  153.932764  51.772476  10.071482
  6972.016  6972.000  0.500  1.082206  153.927336  52.157831  10.217002
  6982.023  6982.000  0.500  1.074824  153.885235  52.529930  10.359190
  6992.010  6992.000  0.500  1.067658  153.870413  52.902611  10.503205
  7002.013  7002.000  0.500  1.061002  153.829705  53.241804  10.640667
  7012.010  7012.000  0.500  1.053913  153.776738  53.602154  10.784183
  7022.016  7022.000  0.500  1.046839  153.724296  53.964240  10.928862
  7032.014  7032.000  0.500  1.039368  153.663757  54.347515  11.075597
  7042.015  7042.000  0.500  1.032376  153.589165  54.702268  11.217394
  7052.013  7052.000  0.500  1.025490  153.508608  55.051365  11.356528
  7062.008  7062.000  0.500  1.018606  152.733830  55.151880  11.440304
  7072.011  7072.000  0.500  1.011849  153.336467  55.744879  11.619845
  7081.980  7082.000  0.500  1.005496  153.377242  56.115096  11.737907
  7083.981  7084.000  0.500  1.004340  153.139156  56.092787  11.738509
  7085.985  7086.000  0.500  1.003022  153.253934  56.208837  11.765320
  7087.988  7088.000  0.500  1.001898  153.268703  56.277495  11.781738
  7089.981  7090.000  0.500  1.000955  153.260106  56.327427  11.791300
  7091.989  7092.000  0.500  0.999584  153.226060  56.392166  11.801692
  7093.978  7094.000  0.500  0.998445  153.235369  56.459852  11.807992
  7095.973  7096.000  0.500  0.997438  153.206148  56.505961  11.803970
  7097.997  7098.000  0.500  0.996207  153.080444  56.529176  11.786914
  7099.988  7100.000  0.500  0.995509  153.142172  56.591454  11.768800
  7101.995  7102.000  0.500  0.994687  153.102734  56.623365  11.725100
  7102.286  7102.300  0.500  0.994553  153.087054  56.625165  11.717792
  7102.585  7102.600  0.500  0.994504  153.100123  56.632811  11.708842
  7102.884  7102.900  0.500  0.994416  153.100874  56.638032  11.700201
  7103.184  7103.200  0.500  0.994352  153.088376  56.637045  11.688834
  7103.485  7103.500  0.500  0.994271  153.085664  56.640655  11.675497
  7103.781  7103.800  0.500  0.994337  153.076617  56.633569  11.660760
  7104.084  7104.100  0.500  0.994080  153.062058  56.642732  11.646304
  7104.384  7104.400  0.500  0.994112  153.047303  56.635418  11.630529
  7104.686  7104.700  0.500  0.994208  153.050846  56.631318  11.612769
  7104.987  7105.000  0.500  0.994199  153.038562  56.627300  11.593412
  7105.283  7105.300  0.500  0.994156  153.036933  56.629127  11.572213
  7105.587  7105.600  0.500  0.994001  153.036983  56.637905  11.551108
  7105.888  7105.900  0.500  0.993955  153.030559  56.638119  11.526999
  7106.190  7106.200  0.500  0.993842  153.011253  56.637403  11.500231
  7106.492  7106.500  0.500  0.993862  153.014571  56.637498  11.470152
  7106.790  7106.800  0.500  0.993878  153.016195  56.637201  11.437301
  7107.087  7107.100  0.500  0.993769  152.995363  56.635660  11.400836
  7107.389  7107.400  0.500  0.993872  152.983261  56.625357  11.355684
  7107.693  7107.700  0.500  0.993806  152.988076  56.630834  11.306453
  7107.989  7108.000  0.500  0.994344  152.966868  56.592558  11.243458
  7108.289  7108.300  0.500  0.994419  152.967595  56.588590  11.175873
  7108.586  7108.600  0.500  0.994757  152.946334  56.561578  11.094173
  7108.888  7108.900  0.500  0.995092  152.942701  56.541325  10.997179
  7109.193  7109.200  0.500  0.995251  152.927801  56.526817  10.877762
  7109.495  7109.500  0.500  0.995463  152.908620  56.507717  10.727570
  7109.793  7109.800  0.500  0.995537  152.880307  56.493091  10.530928
  7110.093  7110.100  0.500  0.995972  152.867639  56.463850  10.254311
  7110.397  7110.400  0.500  0.996501  152.854079  56.428960  9.855145
  7110.697  7110.700  0.500  0.997309  152.830652  56.374774  9.310279
  7110.995  7111.000  0.500  0.998338  152.781053  56.298514  8.607048
  7111.297  7111.300  0.500  0.999914  152.781062  56.209862  7.781096
  7111.593  7111.600  0.500  1.002002  152.733609  56.075199  6.934954
  7111.893  7111.900  0.500  1.005219  152.700570  55.883007  6.179331
  7112.194  7112.200  0.500  1.009880  152.680998  55.615979  5.577125
  7112.492  7112.500  0.500  1.017207  152.663509  55.203661  5.115119
  7112.792  7112.800  0.500  1.028391  152.631540  54.578261  4.743002
  7113.094  7113.100  0.500  1.044767  152.621576  53.688250  4.408301
  7113.395  7113.400  0.500  1.064084  152.594852  52.651920  4.106916
  7113.699  7113.700  0.500  1.082123  152.588479  51.708447  3.836328
  7114.000  7114.000  0.500  1.090495  152.576959  51.273480  3.627168
  7114.298  7114.300  0.500  1.083808  152.553836  51.609673  3.496595
  7114.598  7114.600  0.500  1.065844  152.543602  52.541671  3.429301
  7114.899  7114.900  0.500  1.045857  152.538613  53.600653  3.397610
  7115.201  7115.200  0.500  1.030451  152.533336  54.430882  3.377553
  7115.500  7115.500  0.500  1.020731  152.535167  54.963205  3.359020
  7115.798  7115.800  0.500  1.014526  152.511732  55.296847  3.340747
  7116.097  7116.100  0.500  1.011348  152.482407  55.462191  3.319311
  7116.395  7116.400  0.500  1.009826  152.503257  55.554254  3.291090
  7116.696  7116.700  0.500  1.009436  152.498319  55.574121  3.245239
  7116.994  7117.000  0.500  1.010034  152.474169  55.532083  3.170763
  7117.295  7117.300  0.500  1.010454  152.466053  55.505821  3.067652
  7117.598  7117.600  0.500  1.011387  152.453325  55.449415  2.926874
  7117.903  7117.900  0.500  1.012431  152.433893  55.384536  2.757531
  7118.201  7118.200  0.500  1.013595  152.420604  55.315268  2.572563
  7118.502  7118.500  0.500  1.014872  152.405027  55.239000  2.384385
  7118.801  7118.800  0.500  1.016578  152.387899  55.138681  2.200587
  7119.104  7119.100  0.500  1.018800  152.359995  55.006222  2.028576
  7119.404  7119.400  0.500  1.021679  152.364939  54.849858  1.866416
  7119.703  7119.700  0.500  1.025188  152.343477  54.650021  1.716543
  7119.995  7120.000  0.500  1.030362  152.341944  54.367439  1.572373
  7120.298  7120.300  0.500  1.037466  152.311334  53.971754  1.430284
  7120.597  7120.600  0.500  1.046819  152.300812  53.465587  1.296289
  7120.903  7120.900  0.500  1.058704  152.292983  52.831215  1.174420
  7121.197  7121.200  0.500  1.073201  152.263959  52.060902  1.066468
  7121.496  7121.500  0.500  1.089969  152.248196  51.189946  0.973200
  7121.799  7121.800  0.500  1.109767  152.219799  50.177069  0.891012
  7122.105  7122.100  0.500  1.133478  152.206102  48.996920  0.816598
  7122.403  7122.400  0.500  1.160231  152.171513  47.692670  0.751176
  7122.702  7122.700  0.500  1.190909  152.202970  46.261310  0.690835
  7123.001  7123.000  0.500  1.224067  152.181054  44.746066  0.636325
  7123.303  7123.300  0.500  1.257740  152.152417  43.256276  0.587933
  7123.606  7123.600  0.500  1.289793  152.137774  41.887758  0.545832
  7123.901  7123.900  0.500  1.316218  152.114449  40.789130  0.512202
  7124.202  7124.200  0.500  1.336923  152.492646  40.052593  0.485217
  7124.499  7124.500  0.500  1.351524  152.474632  39.467381  0.461852
  7124.796  7124.800  0.500  1.362444  152.472941  39.038313  0.441750
  7125.100  7125.100  0.500  1.371251  152.456102  38.691704  0.423660
  7125.397  7125.400  0.500  1.379326  152.428806  38.373677  0.407504
  7125.700  7125.700  0.500  1.386784  152.412357  38.084451  0.392156
  7125.999  7126.000  0.500  1.392801  152.387648  37.849841  0.378278
  7126.297  7126.300  0.500  1.397064  152.347786  37.678946  0.364579
  7126.607  7126.600  0.500  1.399185  152.344269  37.598263  0.351717
  7126.902  7126.900  0.500  1.398991  152.304813  37.595836  0.339571
  7127.201  7127.200  0.500  1.398128  152.288285  37.624195  0.327418
  7127.501  7127.500  0.500  1.397294  152.264723  37.649761  0.314274
  7127.804  7127.800  0.500  1.397827  152.240816  37.623773  0.300641
  7128.108  7128.100  0.500  1.400570  152.214191  37.514176  0.286581
  7128.399  7128.400  0.500  1.405492  152.180369  37.321689  0.272239
  7128.696  7128.700  0.500  1.413359  152.165508  37.025609  0.256868
  7128.998  7129.000  0.500  1.423075  152.141795  36.661882  0.241659
  7129.297  7129.300  0.500  1.433619  152.114189  36.270787  0.227371
  7129.601  7129.600  0.500  1.444406  152.079004  35.873325  0.213959
  7129.903  7129.900  0.500  1.453718  152.068491  35.538381  0.203194
  7130.201  7130.200  0.500  1.462304  152.033110  35.226334  0.193968
  7130.502  7130.500  0.500  1.470499  151.996291  34.930381  0.186828
  7130.804  7130.800  0.500  1.478135  151.975726  34.659995  0.182007
  7131.102  7131.100  0.500  1.485685  151.928193  34.388518  0.179543
  7131.404  7131.400  0.500  1.492556  151.906678  34.148207  0.179372
  7131.699  7131.700  0.500  1.498327  151.881454  33.946063  0.181550
  7132.003  7132.000  0.500  1.503344  151.872833  33.774295  0.186120
  7132.301  7132.300  0.500  1.507666  151.883621  33.631006  0.191805
  7132.599  7132.600  0.500  1.511365  151.873498  33.504621  0.198744
  7132.896  7132.900  0.500  1.514606  151.857637  33.392706  0.206366
  7133.196  7133.200  0.500  1.517826  151.855243  33.284829  0.214923
  7133.501  7133.500  0.500  1.521036  151.854105  33.177897  0.224000
  7133.796  7133.800  0.500  1.523237  151.857580  33.105727  0.232782
  7134.098  7134.100  0.500  1.525128  151.838753  33.039068  0.241533
  7134.398  7134.400  0.500  1.526311  151.845493  33.001500  0.249616
  7134.698  7134.700  0.500  1.527064  151.822823  32.971718  0.257151
  7135.007  7135.000  0.500  1.527477  151.839313  32.961686  0.263810
  7135.303  7135.300  0.500  1.527820  151.840976  32.950749  0.269203
  7135.599  7135.600  0.500  1.527921  151.826162  32.944193  0.274074
  7135.903  7135.900  0.500  1.527957  151.825465  32.942865  0.278012
  7136.203  7136.200  0.500  1.527782  151.818560  32.947121  0.281103
  7136.503  7136.500  0.500  1.527293  151.792933  32.957672  0.283054
  7136.801  7136.800  0.500  1.526552  151.789963  32.981481  0.283781
  7136.994  7137.000  0.500  1.525975  151.774615  32.997164  0.284048
  7137.996  7137.990  0.500  1.522058  151.776891  33.127173  0.279560
  7139.007  7138.990  0.500  1.517595  151.769564  33.273744  0.268517
  7140.026  7140.010  0.500  1.513097  151.765863  33.422908  0.256789
  7141.072  7141.060  0.500  1.509059  151.752953  33.555315  0.249556
  7142.136  7142.120  0.500  1.507503  151.775196  33.612470  0.248872
  7143.216  7143.200  0.500  1.505960  151.773234  33.663956  0.253301
  7144.313  7144.300  0.500  1.504171  151.770632  33.723638  0.257730
  7145.439  7145.420  0.500  1.502102  151.745817  33.787988  0.256667
  7146.578  7146.560  0.500  1.499205  151.779226  33.893459  0.247589
  7147.739  7147.710  0.500  1.495362  151.756423  34.018834  0.233093
  7148.884  7148.890  0.500  1.490010  151.723243  34.193937  0.218967
  7150.072  7150.080  0.500  1.483462  151.702672  34.413914  0.210101
  7151.295  7151.300  0.500  1.474504  151.703958  34.723858  0.206024
  7152.525  7152.530  0.500  1.463467  151.698420  35.107949  0.203978
  7153.777  7153.780  0.500  1.451326  151.687524  35.534250  0.204503
  7155.054  7155.050  0.500  1.439870  151.665618  35.938477  0.208674
  7156.340  7156.340  0.500  1.428478  151.658932  36.348627  0.215111
  7157.661  7157.650  0.500  1.416608  151.624547  36.774299  0.220943
  7158.986  7158.980  0.500  1.405229  151.595642  37.188073  0.224386
  7160.332  7160.330  0.500  1.395550  151.580932  37.546117  0.227182
  7161.711  7161.700  0.500  1.387366  151.547996  37.846438  0.231063
  7163.095  7163.080  0.500  1.381456  151.505036  38.059978  0.236161
  7164.500  7164.490  0.500  1.377495  151.453591  38.198034  0.241983
  7165.920  7165.910  0.500  1.374442  151.414380  38.304934  0.246792
  7167.357  7167.350  0.500  1.372288  151.374018  38.377271  0.250157
  7168.809  7168.810  0.500  1.372088  151.335001  38.375060  0.253409
  7170.290  7170.290  0.500  1.374529  151.318096  38.277231  0.257308
  7171.793  7171.790  0.500  1.379074  151.292983  38.097319  0.263830
  7173.314  7173.310  0.500  1.385344  151.263537  37.851855  0.273785
  7174.860  7174.850  0.500  1.392859  151.239541  37.562474  0.286474
  7176.409  7176.410  0.500  1.397009  151.191267  37.394984  0.301998
  7177.989  7177.980  0.500  1.398389  151.190337  37.343182  0.317863
  7179.585  7179.580  0.500  1.400031  151.185208  37.280646  0.327593
  7181.197  7181.190  0.500  1.402041  151.147724  37.196564  0.329357
  7182.843  7182.830  0.500  1.404499  151.111518  37.096366  0.325311
  7184.487  7184.480  0.500  1.407148  151.074347  36.989116  0.317493
  7186.157  7186.150  0.500  1.409719  151.031811  36.883765  0.304327
  7187.846  7187.840  0.500  1.411676  150.980979  36.799263  0.288378
  7189.559  7189.550  0.500  1.412335  150.985575  36.776137  0.272525
  7191.288  7191.280  0.500  1.412169  149.298373  36.371204  0.253598
  7193.035  7193.030  0.500  1.411413  150.627583  36.722782  0.242708
  7194.801  7194.790  0.500  1.410690  150.794838  36.790136  0.238371
  7196.587  7196.580  0.500  1.409778  150.784363  36.821162  0.244153
  7198.394  7198.380  0.500  1.408679  150.734034  36.849351  0.256841
  7200.222  7200.210  0.500  1.407661  150.681204  36.873951  0.274531
  7202.059  7202.050  0.500  1.406839  150.643317  36.894984  0.296293
  7203.915  7203.910  0.500  1.406980  150.608277  36.881203  0.320688
  7205.806  7205.790  0.500  1.407341  150.560978  36.856333  0.343867
  7207.697  7207.690  0.500  1.407926  150.519763  36.824677  0.353796
  7209.622  7209.610  0.500  1.408541  150.461311  36.787771  0.341807
  7211.557  7211.550  0.500  1.408473  150.407476  36.777082  0.306858
  7213.523  7213.510  0.500  1.407989  150.357269  36.782630  0.259754
  7215.489  7215.480  0.500  1.406434  150.305575  36.827190  0.217350
  7217.496  7217.480  0.500  1.404299  150.246046  36.891275  0.186878
  7219.500  7219.490  0.500  1.401706  150.171712  36.968760  0.170648
  7221.529  7221.520  0.500  1.398698  150.128102  37.069382  0.168521
  7223.588  7223.580  0.500  1.395248  150.083757  37.186502  0.180286
  7225.660  7225.650  0.500  1.391360  149.968160  37.302593  0.203943
  7227.750  7227.740  0.500  1.387455  147.357902  36.796728  0.232780
  7229.862  7229.850  0.500  1.383590  150.135588  37.635534  0.276196
  7231.991  7231.980  0.500  1.379448  150.090935  37.780503  0.319610
  7234.130  7234.120  0.500  1.375316  150.030438  37.921644  0.359984
  7236.301  7236.290  0.500  1.371648  149.959267  38.042931  0.389384
  7238.489  7238.480  0.500  1.368025  149.928442  38.173168  0.402903
  7240.699  7240.680  0.500  1.364465  149.865890  38.293334  0.401869
  7242.905  7242.900  0.500  1.361089  149.861713  38.421774  0.388851
  7245.165  7245.150  0.500  1.357724  147.070162  37.833165  0.363483
  7247.423  7247.410  0.500  1.354826  149.614845  38.599462  0.354576
  7249.696  7249.690  0.500  1.352416  149.645632  38.700564  0.348409
  7252.003  7251.990  0.500  1.350506  149.565589  38.753803  0.352775
  7254.321  7254.310  0.500  1.349327  147.108848  38.162224  0.358185
  7256.664  7256.650  0.500  1.348565  149.665124  38.854957  0.371881
  7259.008  7259.000  0.500  1.348045  149.476894  38.826271  0.368520
  7261.394  7261.380  0.500  1.347889  148.993192  38.706663  0.357177
  7263.791  7263.770  0.500  1.348423  135.844307  35.271886  0.316369
  7266.194  7266.190  0.500  1.348194  149.297578  38.773916  0.340430
  7268.632  7268.620  0.500  1.348602  149.826134  38.895319  0.331606
  7271.079  7271.070  0.500  1.348744  149.757102  38.871856  0.315735
  7273.561  7273.550  0.500  1.348772  148.291788  38.490455  0.296450
  7276.049  7276.040  0.500  1.348488  149.783340  38.888627  0.290406
  7278.568  7278.550  0.500  1.347281  149.744592  38.925502  0.284943
  7281.078  7281.070  0.500  1.345589  149.718257  38.984576  0.277285
  7283.633  7283.620  0.500  1.343502  148.453062  38.735889  0.265248
  7286.205  7286.190  0.500  1.341468  149.360388  39.051999  0.257856
  7288.779  7288.770  0.500  1.339322  149.429053  39.153891  0.255225
  7291.398  7291.380  0.500  1.337850  149.395244  39.202678  0.265214
  7294.018  7294.000  0.500  1.336192  149.364081  39.259573  0.288931
  7296.664  7296.650  0.500  1.334673  149.323316  39.308494  0.319670
  7299.322  7299.310  0.500  1.333370  149.207774  39.329296  0.350399
  7302.001  7301.990  0.500  1.332024  147.813069  39.014145  0.373753
  7304.700  7304.690  0.500  1.330858  149.317791  39.457308  0.398960
  7307.422  7307.410  0.500  1.329477  149.246812  39.493054  0.413077
  7310.166  7310.150  0.500  1.327837  149.182003  39.540682  0.419198
  7312.919  7312.900  0.500  1.325499  149.087051  39.607998  0.419227
  7315.692  7315.680  0.500  1.323296  149.024309  39.678668  0.419641
  7318.486  7318.470  0.500  1.320591  148.970978  39.771895  0.422327
  7321.304  7321.290  0.500  1.317807  149.400650  39.997813  0.427042
  7324.130  7324.120  0.500  1.314687  149.333415  40.104719  0.429289
  7326.981  7326.970  0.500  1.311492  149.261029  40.213563  0.431165
  7329.861  7329.850  0.500  1.308496  149.182653  40.313064  0.434834
  7332.753  7332.740  0.500  1.305765  149.115718  40.405169  0.444161
  7335.663  7335.650  0.500  1.303284  149.050546  40.487827  0.455026
  7338.580  7338.570  0.500  1.300991  147.623233  40.192159  0.457400
  7341.529  7341.520  0.500  1.298794  148.830847  40.610065  0.457759
  7344.502  7344.490  0.500  1.296358  148.804254  40.701850  0.442179
  7347.481  7347.470  0.500  1.293903  148.780092  40.795284  0.419324
  7350.496  7350.480  0.500  1.291168  148.716588  40.889536  0.397800
  7353.508  7353.500  0.500  1.288406  148.677108  40.991756  0.379543
  7356.559  7356.550  0.500  1.286004  148.584671  41.064776  0.364839
  7359.625  7359.610  0.500  1.283319  148.485109  41.147611  0.351941
  7362.703  7362.690  0.500  1.280638  148.449937  41.248291  0.343410
  7365.802  7365.790  0.500  1.277655  148.358779  41.346129  0.340680
