# XDI/1.0 BlueSky/1.10.0 BMM/2023-1.0-py310-tiled
# Beamline.name: BMM (06BM) -- Beamline for Materials Measurement (NIST)
# Beamline.xray_source: NSLS-II three-pole wiggler
# Beamline.collimation: paraboloid mirror, 5 nm Rh on 30 nm Pt
# Beamline.focusing: not in use
# Beamline.harmonic_rejection: flat mirror, Si stripe, pitch = 7.0 mrad relative to beam
# Beamline.software: Bluesky 1.10.0, Ophyd 1.7.0, DataBroker 2.0.0b13, Python 3.10.8, 2023-1.0-py310-tiled
# Detector.I0: 10 cm N2
# Detector.I1: 25 cm N2
# Detector.I2: 25 cm N2
# Element.symbol: Fe
# Element.edge: K
# Element.reference: Fe
# Element.reference_material: Fe foil
# Facility.name: NSLS-II
# Facility.energy: 3.0
# Facility.current: 399.2
# Facility.mode: top-off
# Facility.GUP: 123456
# Facility.SAF: 301027
# Facility.cycle: 2023-2
# Mono.name: Si(111)
# Mono.d_spacing: 3.1351860
# Mono.encoder_resolution: 0.0000050 deg/ct
# Mono.angle_offset: 16.0754326 deg
# Mono.scan_mode: pseudo channel cut
# Mono.scan_type: step
# Mono.direction: forward in energy
# Sample.name: FeTiO3
# Sample.prep: PEG pellet
# Sample.x: 116.329 mm
# Sample.y: 114.126 mm
# Sample.SDD_position: 205.000 mm
# Scan.experimenters: Bruce Ravel
# Scan.edge_energy: 7112.0
# Scan.start_time: 2023-05-05T17:39:21
# Scan.end_time: 2023-05-05T17:47:28
# Scan.transient_id: 74526
# Scan.uid: 2a0cec3e-a24d-4c20-99a1-97dcad027227
# Scan.plot_hint: ln(I0/It)  --  ln($5/$6)
# Column.1: energy eV
# Column.2: requested_energy eV
# Column.3: measurement_time seconds
# Column.4: xmu 
# Column.5: I0 nA
# Column.6: It nA
# Column.7: Ir nA
# ///////////
# courtesy Martin Stennett, University of Sheffield
# -----------
# energy  requested_energy  measurement_time  xmu  I0  It  Ir
  6911.997  6912.000  0.500  2.598170  153.756574  11.440968  2.146097
  6922.011  6922.000  0.500  2.585356  153.570962  11.574532  2.186636
  6932.038  6932.000  0.500  2.572521  153.545875  11.722126  2.230305
  6942.013  6942.000  0.500  2.560030  153.543655  11.869301  2.274253
  6951.999  6952.000  0.500  2.547247  153.537360  12.021501  2.319647
  6962.004  6962.000  0.500  2.534663  153.528263  12.173019  2.365351
  6972.016  6972.000  0.500  2.522135  153.495232  12.323820  2.410979
  6982.021  6982.000  0.500  2.509821  153.450659  12.472901  2.456767
  6992.014  6992.000  0.500  2.497515  153.448010  12.627118  2.504021
  7002.013  7002.000  0.500  2.485206  153.388948  12.778585  2.551217
  7012.008  7012.000  0.500  2.472908  153.325245  12.931335  2.598758
  7022.014  7022.000  0.500  2.460635  153.257347  13.085216  2.646551
  7032.008  7032.000  0.500  2.448768  153.189333  13.235553  2.693911
  7042.008  7042.000  0.500  2.436912  153.119624  13.387320  2.742444
  7052.007  7052.000  0.500  2.425078  153.586690  13.587996  2.800023
  7062.008  7062.000  0.500  2.413225  152.820421  13.681424  2.834646
  7072.013  7072.000  0.500  2.401888  153.371620  13.887317  2.891306
  7081.980  7082.000  0.500  2.390768  153.359247  14.041470  2.933497
  7083.978  7084.000  0.500  2.388820  153.123612  14.047230  2.936717
  7085.978  7086.000  0.500  2.386410  153.248990  14.092657  2.946678
  7087.983  7088.000  0.500  2.384313  153.240892  14.121494  2.953067
  7089.988  7090.000  0.500  2.382313  153.215878  14.147456  2.958661
  7091.984  7092.000  0.500  2.380254  153.193507  14.174550  2.963445
  7093.982  7094.000  0.500  2.378395  153.176245  14.199323  2.966319
  7096.133  7096.000  0.500  2.376455  153.158291  14.225222  2.968404
  7098.008  7098.000  0.500  2.374858  153.142065  14.246457  2.967342
  7099.988  7100.000  0.500  2.373410  153.112530  14.264340  2.962799
  7101.995  7102.000  0.500  2.372180  153.071875  14.278113  2.953832
  7102.290  7102.300  0.500  2.372100  153.068508  14.278936  2.951440
  7102.585  7102.600  0.500  2.371703  153.063965  14.284190  2.950085
  7102.887  7102.900  0.500  2.371450  153.049551  14.286458  2.948097
  7103.188  7103.200  0.500  2.371288  153.065710  14.290279  2.945563
  7103.483  7103.500  0.500  2.371168  153.040987  14.289689  2.942111
  7103.783  7103.800  0.500  2.371015  153.054500  14.293130  2.938933
  7104.091  7104.100  0.500  2.370944  153.005332  14.289558  2.935152
  7104.382  7104.400  0.500  2.371291  152.981462  14.282374  2.929627
  7104.686  7104.700  0.500  2.370988  153.003242  14.288731  2.926989
  7104.985  7105.000  0.500  2.370693  153.004276  14.293040  2.923540
  7105.283  7105.300  0.500  2.371135  153.025094  14.288671  2.917087
  7105.584  7105.600  0.500  2.371011  153.005666  14.288624  2.911442
  7105.888  7105.900  0.500  2.371001  152.999459  14.288187  2.905281
  7106.190  7106.200  0.500  2.370663  152.986031  14.291768  2.899208
  7106.492  7106.500  0.500  2.370967  152.976183  14.286509  2.890590
  7106.790  7106.800  0.500  2.370895  152.954397  14.285503  2.882036
  7107.092  7107.100  0.500  2.370773  152.955661  14.287356  2.873701
  7107.383  7107.400  0.500  2.370665  152.923544  14.285897  2.862812
  7107.693  7107.700  0.500  2.370789  152.940516  14.285720  2.850627
  7107.987  7108.000  0.500  2.370987  152.950366  14.283811  2.835954
  7108.287  7108.300  0.500  2.371202  152.926066  14.278460  2.818478
  7108.586  7108.600  0.500  2.371486  152.918429  14.273696  2.797689
  7108.891  7108.900  0.500  2.371760  152.901471  14.268207  2.774218
  7109.188  7109.200  0.500  2.372114  152.881584  14.261296  2.744805
  7109.495  7109.500  0.500  2.372690  152.864792  14.251529  2.706597
  7109.793  7109.800  0.500  2.373510  152.853610  14.238804  2.655364
  7110.093  7110.100  0.500  2.374777  152.850392  14.220470  2.586546
  7110.395  7110.400  0.500  2.376382  152.811599  14.194062  2.487455
  7110.697  7110.700  0.500  2.378891  152.802921  14.157697  2.349757
  7110.995  7111.000  0.500  2.382501  152.773922  14.103996  2.170943
  7111.295  7111.300  0.500  2.386840  152.748406  14.040581  1.962323
  7111.591  7111.600  0.500  2.391004  152.713524  13.979053  1.745886
  7111.887  7111.900  0.500  2.393880  152.680740  13.935908  1.554914
  7112.191  7112.200  0.500  2.394781  152.652884  13.920826  1.403563
  7112.494  7112.500  0.500  2.394603  152.626969  13.920939  1.294649
  7112.792  7112.800  0.500  2.394393  152.592290  13.920693  1.212926
  7113.092  7113.100  0.500  2.395136  152.560498  13.907461  1.144609
  7113.397  7113.400  0.500  2.396821  152.563475  13.884315  1.084201
  7113.699  7113.700  0.500  2.399584  152.568766  13.846484  1.029095
  7114.002  7114.000  0.500  2.402765  152.571826  13.802782  0.978013
  7114.296  7114.300  0.500  2.407500  152.551381  13.735738  0.932759
  7114.598  7114.600  0.500  2.415018  152.521503  13.630189  0.891402
  7114.899  7114.900  0.500  2.425871  152.498462  13.481035  0.855904
  7115.201  7115.200  0.500  2.438717  152.480170  13.307357  0.826215
  7115.500  7115.500  0.500  2.451144  152.487851  13.143675  0.803190
  7115.798  7115.800  0.500  2.462424  152.476900  12.995322  0.784062
  7116.092  7116.100  0.500  2.469978  152.466860  12.896668  0.771274
  7116.391  7116.400  0.500  2.474209  152.475420  12.842948  0.760337
  7116.698  7116.700  0.500  2.476983  152.448486  12.805107  0.747366
  7116.994  7117.000  0.500  2.481009  152.432707  12.752339  0.728553
  7117.295  7117.300  0.500  2.488032  152.426369  12.662556  0.701422
  7117.595  7117.600  0.500  2.498973  152.399198  12.522539  0.663669
  7117.903  7117.900  0.500  2.512302  152.385797  12.355656  0.618355
  7118.199  7118.200  0.500  2.525551  152.378291  12.192425  0.570209
  7118.502  7118.500  0.500  2.536600  152.366120  12.057495  0.523080
  7118.798  7118.800  0.500  2.546637  152.360058  11.936604  0.479597
  7119.101  7119.100  0.500  2.557725  152.367716  11.805569  0.438102
  7119.404  7119.400  0.500  2.572587  152.335684  11.628972  0.398617
  7119.705  7119.700  0.500  2.592876  152.323586  11.394508  0.360564
  7119.998  7120.000  0.500  2.619890  152.308803  11.089741  0.323861
  7120.296  7120.300  0.500  2.655498  152.292120  10.700629  0.286659
  7120.595  7120.600  0.500  2.699884  152.275112  10.234911  0.251144
  7120.896  7120.900  0.500  2.752176  152.251840  9.711982  0.218480
  7121.199  7121.200  0.500  2.811997  152.228494  9.146633  0.189131
  7121.500  7121.500  0.500  2.873651  152.209602  8.598669  0.164897
  7121.797  7121.800  0.500  2.936383  152.192975  8.074944  0.144636
  7122.105  7122.100  0.500  2.996613  152.169492  7.601779  0.127563
  7122.403  7122.400  0.500  3.048655  152.170665  7.216335  0.114053
  7122.702  7122.700  0.500  3.089708  152.162129  6.925696  0.103635
  7123.004  7123.000  0.500  3.118600  152.141075  6.727530  0.095853
  7123.298  7123.300  0.500  3.138596  152.119207  6.593396  0.089752
  7123.602  7123.600  0.500  3.154426  152.112911  6.489575  0.084819
  7123.903  7123.900  0.500  3.169698  152.107243  6.390982  0.080368
  7124.202  7124.200  0.500  3.184912  152.077818  6.293268  0.076260
  7124.493  7124.500  0.500  3.200157  152.068204  6.197661  0.072593
  7124.798  7124.800  0.500  3.213630  152.045319  6.113800  0.069136
  7125.097  7125.100  0.500  3.224187  152.023076  6.048709  0.066176
  7125.403  7125.400  0.500  3.232743  152.009242  5.996635  0.063732
  7125.702  7125.700  0.500  3.239827  151.987020  5.953435  0.061419
  7125.997  7126.000  0.500  3.246561  151.929804  5.911252  0.059114
  7126.301  7126.300  0.500  3.253090  151.946639  5.873433  0.056861
  7126.607  7126.600  0.500  3.259918  151.919686  5.832432  0.054754
  7126.904  7126.900  0.500  3.266750  151.897385  5.791871  0.052465
  7127.201  7127.200  0.500  3.272984  151.858629  5.754407  0.050042
  7127.503  7127.500  0.500  3.279282  151.849470  5.717934  0.047938
  7127.802  7127.800  0.500  3.284227  151.827894  5.688922  0.045634
  7128.102  7128.100  0.500  3.286571  151.788364  5.674124  0.043509
  7128.405  7128.400  0.500  3.286513  151.796137  5.674745  0.041522
  7128.701  7128.700  0.500  3.282837  151.760235  5.694295  0.039579
  7128.996  7129.000  0.500  3.275602  151.679875  5.732608  0.037928
  7129.293  7129.300  0.500  3.265560  151.693468  5.790981  0.036332
  7129.601  7129.600  0.500  3.254202  151.678613  5.856554  0.035135
  7129.901  7129.900  0.500  3.243793  151.670072  5.917503  0.033889
  7130.201  7130.200  0.500  3.235454  151.633391  5.965615  0.032912
  7130.500  7130.500  0.500  3.229772  151.620210  5.999086  0.032248
  7130.802  7130.800  0.500  3.226111  151.587579  6.019793  0.031655
  7131.108  7131.100  0.500  3.224638  151.571937  6.028044  0.031384
  7131.404  7131.400  0.500  3.223922  151.541092  6.031134  0.031825
  7131.704  7131.700  0.500  3.221855  151.505212  6.042180  0.032307
  7132.003  7132.000  0.500  3.217867  151.489802  6.065708  0.033309
  7132.301  7132.300  0.500  3.211000  151.459521  6.106283  0.034672
  7132.603  7132.600  0.500  3.200879  151.471591  6.168893  0.036300
  7132.894  7132.900  0.500  3.188649  151.445905  6.243739  0.038251
  7133.196  7133.200  0.500  3.174006  151.448715  6.335958  0.040647
  7133.496  7133.500  0.500  3.158236  151.442375  6.436397  0.043186
  7133.800  7133.800  0.500  3.141977  151.461223  6.542721  0.045866
  7134.100  7134.100  0.500  3.125898  151.457107  6.648589  0.048244
  7134.398  7134.400  0.500  3.110585  151.453140  6.751005  0.050708
  7134.698  7134.700  0.500  3.095906  151.452985  6.850823  0.052979
  7135.007  7135.000  0.500  3.081342  151.456055  6.951474  0.055225
  7135.305  7135.300  0.500  3.067708  151.451036  7.046661  0.057324
  7135.605  7135.600  0.500  3.055104  151.423807  7.134760  0.059151
  7135.901  7135.900  0.500  3.043834  151.428936  7.215866  0.060635
  7136.203  7136.200  0.500  3.034056  151.442478  7.287419  0.061758
  7136.501  7136.500  0.500  3.025843  151.423640  7.346605  0.062709
  7136.801  7136.800  0.500  3.019045  151.425004  7.396784  0.063433
  7136.994  7137.000  0.500  3.014845  151.414184  7.427387  0.063693
  7137.998  7137.990  0.500  2.994843  151.392267  7.576350  0.063893
  7139.001  7138.990  0.500  2.971566  151.910982  7.781343  0.062641
  7140.028  7140.010  0.500  2.948788  151.893435  7.959695  0.060974
  7141.079  7141.060  0.500  2.934128  151.883977  8.076744  0.059995
  7142.136  7142.120  0.500  2.931480  151.882861  8.098103  0.059724
  7143.218  7143.200  0.500  2.939076  151.883538  8.036861  0.060264
  7144.315  7144.300  0.500  2.947302  151.867691  7.970185  0.060645
  7145.433  7145.420  0.500  2.947768  151.887184  7.967494  0.060400
  7146.587  7146.560  0.500  2.939795  151.879250  8.030857  0.058497
  7147.705  7147.710  0.500  2.931936  151.840225  8.092133  0.055393
  7148.879  7148.890  0.500  2.930404  151.839207  8.104491  0.051945
  7150.072  7150.080  0.500  2.932104  151.840836  8.090810  0.049315
  7151.293  7151.300  0.500  2.932554  151.836417  8.086937  0.047857
  7152.523  7152.530  0.500  2.930471  151.843182  8.104160  0.047097
  7153.779  7153.780  0.500  2.926268  151.829489  8.137557  0.046707
  7155.049  7155.050  0.500  2.921852  151.840981  8.174193  0.047343
  7156.342  7156.340  0.500  2.918386  151.842660  8.202665  0.048358
  7157.656  7157.650  0.500  2.919614  151.797411  8.190158  0.049054
  7158.986  7158.980  0.500  2.926120  151.754829  8.134757  0.049076
  7160.334  7160.330  0.500  2.936196  151.741252  8.052483  0.048719
  7161.716  7161.700  0.500  2.946498  151.698110  7.967689  0.048500
  7163.089  7163.080  0.500  2.956058  151.647841  7.889263  0.048804
  7164.493  7164.490  0.500  2.965187  151.629795  7.816643  0.049201
  7165.915  7165.910  0.500  2.974151  151.574803  7.744078  0.049724
  7167.355  7167.350  0.500  2.984182  151.544295  7.665240  0.049838
  7168.818  7168.810  0.500  2.998334  151.526041  7.556616  0.049734
  7170.299  7170.290  0.500  3.014160  151.513117  7.437330  0.049818
  7171.793  7171.790  0.500  3.028636  151.483451  7.329012  0.050545
  7173.314  7173.310  0.500  3.033397  151.453936  7.292775  0.052540
  7174.858  7174.850  0.500  3.032476  151.422064  7.297959  0.055412
  7176.407  7176.410  0.500  3.028617  151.376713  7.323982  0.059017
  7177.993  7177.980  0.500  3.021210  151.359137  7.377576  0.062412
  7179.583  7179.580  0.500  3.011427  151.359482  7.450126  0.065391
  7181.195  7181.190  0.500  3.000875  151.340248  7.528200  0.066367
  7182.836  7182.830  0.500  2.990761  151.321285  7.603772  0.066504
  7184.485  7184.480  0.500  2.981041  151.279543  7.675920  0.065701
  7186.159  7186.150  0.500  2.973194  151.248649  7.734814  0.063711
  7187.840  7187.840  0.500  2.967664  151.214684  7.775960  0.060642
  7189.559  7189.550  0.500  2.962658  151.204821  7.814468  0.057794
  7191.290  7191.280  0.500  2.957080  149.529209  7.771104  0.054203
  7193.035  7193.030  0.500  2.950471  150.840237  7.891220  0.051959
  7194.798  7194.790  0.500  2.942839  150.971437  7.958592  0.051512
  7196.589  7196.580  0.500  2.933270  150.947643  8.033846  0.052917
  7198.387  7198.380  0.500  2.922589  150.892623  8.117152  0.056135
  7200.222  7200.210  0.500  2.911720  150.843666  8.203198  0.060814
  7202.057  7202.050  0.500  2.903654  150.795248  8.266975  0.066046
  7203.915  7203.910  0.500  2.898842  150.755685  8.304672  0.071783
  7205.810  7205.790  0.500  2.896363  150.652221  8.319578  0.077176
  7207.699  7207.690  0.500  2.895564  150.615790  8.324214  0.079656
  7209.620  7209.610  0.500  2.895938  150.558604  8.317935  0.077211
  7211.560  7211.550  0.500  2.897831  150.483506  8.298067  0.069086
  7213.523  7213.510  0.500  2.902501  150.424026  8.256141  0.058363
  7215.495  7215.480  0.500  2.907893  150.373082  8.208963  0.048407
  7217.491  7217.480  0.500  2.911943  150.288618  8.171190  0.041368
  7219.497  7219.490  0.500  2.913454  150.224580  8.155378  0.037657
  7221.538  7221.520  0.500  2.912939  150.140745  8.155022  0.036840
  7223.593  7223.580  0.500  2.910798  150.056855  8.167938  0.039525
  7225.660  7225.650  0.500  2.907532  149.907059  8.186472  0.044470
  7227.748  7227.740  0.500  2.904376  147.298183  8.069428  0.050609
  7229.860  7229.850  0.500  2.903656  150.076303  8.227550  0.059916
  7231.993  7231.980  0.500  2.904348  149.990400  8.217146  0.069094
  7234.130  7234.120  0.500  2.905202  149.857786  8.202876  0.077346
  7236.301  7236.290  0.500  2.904323  149.843228  8.209288  0.083588
  7238.491  7238.480  0.500  2.901174  149.765062  8.230891  0.086500
  7240.692  7240.680  0.500  2.895961  149.757472  8.273489  0.086556
  7242.917  7242.900  0.500  2.890831  149.731045  8.314575  0.083936
  7245.160  7245.150  0.500  2.886471  146.913708  8.193768  0.078459
  7247.416  7247.410  0.500  2.883409  149.419957  8.359110  0.076401
  7249.701  7249.690  0.500  2.879676  149.429129  8.390886  0.075229
  7252.005  7251.990  0.500  2.876147  149.321191  8.414466  0.076336
  7254.319  7254.310  0.500  2.874037  146.889874  8.294941  0.077338
  7256.666  7256.650  0.500  2.873154  149.338148  8.440650  0.080467
  7259.015  7259.000  0.500  2.871654  149.166401  8.443597  0.079766
  7261.392  7261.380  0.500  2.869371  148.717557  8.437428  0.077534
  7263.782  7263.770  0.500  2.862512  136.619917  7.804421  0.069620
  7266.198  7266.190  0.500  2.861247  148.957633  8.519986  0.074325
  7268.634  7268.620  0.500  2.857058  149.493225  8.586518  0.072997
  7271.088  7271.070  0.500  2.855303  149.450456  8.599141  0.069695
  7273.561  7273.550  0.500  2.853966  148.097775  8.532711  0.065542
  7276.056  7276.040  0.500  2.851664  149.436431  8.629675  0.064134
  7278.564  7278.550  0.500  2.847890  149.382720  8.659197  0.063142
  7281.083  7281.070  0.500  2.843163  149.314427  8.696244  0.061540
  7283.630  7283.620  0.500  2.837816  148.146103  8.674456  0.059264
  7286.202  7286.190  0.500  2.832548  148.939034  8.766951  0.057760
  7288.786  7288.770  0.500  2.828469  149.022276  8.807702  0.057153
  7291.393  7291.380  0.500  2.826418  148.978173  8.823173  0.059399
  7294.012  7294.000  0.500  2.824849  148.936139  8.834537  0.064634
  7296.659  7296.650  0.500  2.821854  148.882423  8.857839  0.071609
  7299.325  7299.310  0.500  2.816741  148.769705  8.896503  0.078765
  7302.006  7301.990  0.500  2.810923  147.241592  8.856504  0.084323
  7304.700  7304.690  0.500  2.803649  148.875516  9.020152  0.090668
  7307.422  7307.410  0.500  2.795944  148.770193  9.083493  0.094630
  7310.163  7310.150  0.500  2.788812  148.684794  9.143257  0.096457
  7312.907  7312.900  0.500  2.782826  148.606096  9.193280  0.096732
  7315.690  7315.680  0.500  2.779152  148.497259  9.220361  0.097201
  7318.492  7318.470  0.500  2.777874  148.481479  9.231172  0.097605
  7321.302  7321.290  0.500  2.778641  148.417075  9.220098  0.098189
  7324.128  7324.120  0.500  2.780324  148.342334  9.199952  0.097972
  7326.981  7326.970  0.500  2.781626  148.283341  9.184328  0.098088
  7329.865  7329.850  0.500  2.782332  148.228701  9.174472  0.098365
  7332.753  7332.740  0.500  2.781901  148.151073  9.173616  0.100254
  7335.661  7335.650  0.500  2.780143  148.076183  9.185113  0.102668
  7338.582  7338.570  0.500  2.777014  146.724058  9.129765  0.103437
  7341.534  7341.520  0.500  2.773371  147.838564  9.232682  0.103521
  7344.504  7344.490  0.500  2.768909  147.811453  9.272276  0.100292
  7347.481  7347.470  0.500  2.764172  147.789194  9.314893  0.095489
  7350.493  7350.480  0.500  2.759380  147.715201  9.354955  0.090592
  7353.512  7353.500  0.500  2.754561  147.649422  9.395961  0.086640
  7356.564  7356.550  0.500  2.749345  147.561862  9.439498  0.083563
  7359.625  7359.610  0.500  2.743737  147.500344  9.488620  0.080919
  7362.703  7362.690  0.500  2.737711  147.419715  9.540756  0.078980
  7365.799  7365.790  0.500  2.731656  147.335460  9.593217  0.078564
  7368.921  7368.910  0.500  2.726198  147.260498  9.640806  0.079949
  7372.063  7372.050  0.500  2.721658  147.209514  9.681323  0.083738
