# XDI/1.0 BlueSky/1.10.0 BMM/2023-1.0-py310-tiled
# Beamline.name: BMM (06BM) -- Beamline for Materials Measurement (NIST)
# Beamline.xray_source: NSLS-II three-pole wiggler
# Beamline.collimation: paraboloid mirror, 5 nm Rh on 30 nm Pt
# Beamline.focusing: not in use
# Beamline.harmonic_rejection: flat mirror, Si stripe, pitch = 7.0 mrad relative to beam
# Beamline.software: Bluesky 1.10.0, Ophyd 1.7.0, DataBroker 2.0.0b13, Python 3.10.8, 2023-1.0-py310-tiled
# Detector.I0: 10 cm N2
# Detector.I1: 25 cm N2
# Detector.I2: 25 cm N2
# Element.symbol: Fe
# Element.edge: K
# Element.reference: Fe
# Element.reference_material: Fe foil
# Facility.name: NSLS-II
# Facility.energy: 3.0
# Facility.current: 399.7
# Facility.mode: top-off
# Facility.GUP: 301027
# Facility.SAF: 310583
# Facility.cycle: 2023-2
# Mono.name: Si(111)
# Mono.d_spacing: 3.1351860
# Mono.encoder_resolution: 0.0000050 deg/ct
# Mono.angle_offset: 16.0754326 deg
# Mono.scan_mode: pseudo channel cut
# Mono.scan_type: step
# Mono.direction: forward in energy
# Sample.name: Fe foil
# Sample.prep: reference foil
# Sample.x: 109.138 mm
# Sample.y: 153.150 mm
# Sample.SDD_position: 205.000 mm
# Scan.experimenters: Bruce Ravel
# Scan.edge_energy: 7112.0
# Scan.start_time: 2023-05-28T13:17:39
# Scan.end_time: 2023-05-28T13:25:42
# Scan.transient_id: 78714
# Scan.uid: b69c6f83-b7d6-4772-a0ba-608a9260d9af
# Scan.plot_hint: ln(It/Ir)  --  ln($6/$7)
# Column.1: energy eV
# Column.2: requested_energy eV
# Column.3: measurement_time seconds
# Column.4: xmu 
# Column.5: I0 nA
# Column.6: It nA
# Column.7: Ir nA
# ///////////
# standard reference foil
# -----------
# energy  requested_energy  measurement_time  xmu  I0  It  Ir
  6912.001  6912.000  0.500  1.981854  152.383728  141.274296  19.469501
  6922.007  6922.000  0.500  1.973350  152.320668  141.703876  19.695482
  6932.064  6932.000  0.500  1.964941  152.360795  142.189886  19.929935
  6942.039  6942.000  0.500  1.956677  152.433953  142.698230  20.167142
  6952.020  6952.000  0.500  1.948396  152.478341  143.172998  20.402495
  6962.000  6962.000  0.500  1.940179  152.531073  143.722293  20.649756
  6972.006  6972.000  0.500  1.932054  152.596032  144.236183  20.892659
  6982.006  6982.000  0.500  1.923958  152.623788  144.706142  21.131116
  6992.008  6992.000  0.500  1.915859  152.684652  145.206622  21.376649
  7002.009  7002.000  0.500  1.907951  152.707890  145.697778  21.619230
  7012.016  7012.000  0.500  1.900069  152.753931  146.201026  21.865572
  7022.012  7022.000  0.500  1.892278  152.803761  146.705283  22.112594
  7032.012  7032.000  0.500  1.884662  152.853398  147.205597  22.357646
  7042.011  7042.000  0.500  1.877230  152.875865  147.667355  22.595078
  7051.978  7052.000  0.500  1.869977  152.705689  147.933971  22.800643
  7061.983  7062.000  0.500  1.863156  152.595791  148.254895  23.006511
  7071.986  7072.000  0.500  1.857056  152.538018  148.639123  23.207276
  7081.980  7082.000  0.500  1.852171  152.572092  149.123408  23.396899
  7083.989  7084.000  0.500  1.851434  151.909475  148.579297  23.328704
  7085.987  7086.000  0.500  1.850853  152.441914  149.196539  23.439232
  7087.988  7088.000  0.500  1.850414  152.477075  149.322049  23.469250
  7089.985  7090.000  0.500  1.850227  152.487322  149.379839  23.482725
  7091.984  7092.000  0.500  1.850254  152.772553  149.759138  23.541733
  7093.980  7094.000  0.500  1.850486  152.889985  149.983343  23.571486
  7095.988  7096.000  0.500  1.851421  152.958003  150.133986  23.573127
  7097.986  7098.000  0.500  1.852719  152.983314  150.258277  23.562040
  7099.988  7100.000  0.500  1.855048  152.989374  150.380336  23.526324
  7101.984  7102.000  0.500  1.858637  152.998359  150.457079  23.454006
  7102.284  7102.300  0.500  1.859268  152.963906  150.425263  23.434250
  7102.579  7102.600  0.500  1.860011  152.989484  150.455209  23.421489
  7102.880  7102.900  0.500  1.860794  152.960494  150.457191  23.403471
  7103.180  7103.200  0.500  1.861708  152.953908  150.453857  23.381583
  7103.479  7103.500  0.500  1.862674  152.990601  150.488646  23.364414
  7103.783  7103.800  0.500  1.863671  152.968135  150.465815  23.337569
  7104.082  7104.100  0.500  1.864811  152.982038  150.449171  23.308401
  7104.384  7104.400  0.500  1.865841  152.962247  150.460876  23.286234
  7104.688  7104.700  0.500  1.867191  152.962888  150.470965  23.256376
  7104.987  7105.000  0.500  1.868611  152.950763  150.472226  23.223565
  7105.289  7105.300  0.500  1.870160  152.967036  150.500735  23.192018
  7105.591  7105.600  0.500  1.871761  152.967669  150.525205  23.158669
  7105.888  7105.900  0.500  1.873650  152.952752  150.522838  23.114603
  7106.184  7106.200  0.500  1.875619  152.958808  150.519794  23.068675
  7106.486  7106.500  0.500  1.877850  152.937721  150.547664  23.021525
  7106.787  7106.800  0.500  1.880260  152.957674  150.582758  22.971460
  7107.085  7107.100  0.500  1.883021  152.947991  150.599559  22.910690
  7107.387  7107.400  0.500  1.886170  152.931761  150.613090  22.840702
  7107.687  7107.700  0.500  1.889749  152.940134  150.650168  22.764714
  7107.991  7108.000  0.500  1.893987  152.940509  150.707740  22.677107
  7108.299  7108.300  0.500  1.898767  152.927682  150.687170  22.565886
  7108.593  7108.600  0.500  1.904314  152.908292  150.689602  22.441411
  7108.893  7108.900  0.500  1.910789  152.892453  150.694782  22.297347
  7109.197  7109.200  0.500  1.918752  152.915083  150.707878  22.122408
  7109.495  7109.500  0.500  1.928605  152.906025  150.662199  21.898865
  7109.795  7109.800  0.500  1.941576  152.905964  150.656660  21.615860
  7110.095  7110.100  0.500  1.958650  152.896749  150.668537  21.251598
  7110.395  7110.400  0.500  1.982149  152.873380  150.665127  20.757554
  7110.693  7110.700  0.500  2.016094  152.850074  150.667589  20.065110
  7110.993  7111.000  0.500  2.064833  152.840246  150.704769  19.115313
  7111.291  7111.300  0.500  2.135274  152.808198  150.624932  17.805712
  7111.591  7111.600  0.500  2.230317  152.770312  150.580337  16.186540
  7111.900  7111.900  0.500  2.345404  152.739457  150.555752  14.424520
  7112.200  7112.200  0.500  2.458294  152.688603  150.566393  12.885598
  7112.498  7112.500  0.500  2.559578  152.696270  150.575057  11.645082
  7112.796  7112.800  0.500  2.640116  152.679657  150.539929  10.741475
  7113.101  7113.100  0.500  2.705449  152.634692  150.545544  10.062514
  7113.395  7113.400  0.500  2.762067  152.626897  150.560706  9.509574
  7113.695  7113.700  0.500  2.814999  152.615136  150.573521  9.020074
  7113.989  7114.000  0.500  2.864402  152.602411  150.578736  8.585583
  7114.294  7114.300  0.500  2.911663  152.599996  150.595499  8.190168
  7114.596  7114.600  0.500  2.955360  152.594405  150.617282  7.841127
  7114.901  7114.900  0.500  2.993429  152.591662  150.640767  7.549405
  7115.197  7115.200  0.500  3.023327  152.583345  150.627236  7.326378
  7115.504  7115.500  0.500  3.046615  152.618593  150.674476  7.159976
  7115.802  7115.800  0.500  3.063769  152.596620  150.649918  7.037058
  7116.107  7116.100  0.500  3.076314  152.591244  150.665762  6.950059
  7116.404  7116.400  0.500  3.086014  152.572042  150.666480  6.883000
  7116.704  7116.700  0.500  3.095591  152.553019  150.614461  6.815042
  7117.001  7117.000  0.500  3.108694  152.564196  150.679293  6.729220
  7117.299  7117.300  0.500  3.128077  152.519965  150.636503  6.598169
  7117.598  7117.600  0.500  3.157640  152.529118  150.675218  6.407610
  7117.896  7117.900  0.500  3.199165  152.509407  150.680250  6.147192
  7118.199  7118.200  0.500  3.254612  152.519551  150.692506  5.816094
  7118.502  7118.500  0.500  3.321586  152.506119  150.679915  5.438871
  7118.803  7118.800  0.500  3.394739  152.471054  150.649773  5.054194
  7119.097  7119.100  0.500  3.470518  152.478019  150.697287  4.686826
  7119.402  7119.400  0.500  3.548001  152.460974  150.702254  4.337531
  7119.705  7119.700  0.500  3.625339  152.445051  150.683722  4.014225
  7120.006  7120.000  0.500  3.706676  152.461121  150.663114  3.700138
  7120.303  7120.300  0.500  3.790613  152.429329  150.681153  3.402645
  7120.604  7120.600  0.500  3.878497  152.413125  150.687638  3.116505
  7120.900  7120.900  0.500  3.965852  152.397706  150.686808  2.855799
  7121.195  7121.200  0.500  4.051354  152.380432  150.683735  2.621717
  7121.498  7121.500  0.500  4.132630  152.336477  150.673132  2.416894
  7121.795  7121.800  0.500  4.207518  152.351873  150.682037  2.242640
  7122.094  7122.100  0.500  4.277273  152.345902  150.709722  2.091921
  7122.399  7122.400  0.500  4.342461  152.339200  150.722615  1.960071
  7122.700  7122.700  0.500  4.400747  152.323692  150.715408  1.849002
  7122.999  7123.000  0.500  4.454976  152.331161  150.727304  1.751541
  7123.303  7123.300  0.500  4.504578  152.318713  150.719371  1.666694
  7123.600  7123.600  0.500  4.548750  152.299032  150.727661  1.594762
  7123.903  7123.900  0.500  4.590049  152.262907  150.681431  1.529772
  7124.202  7124.200  0.500  4.628356  152.236485  150.673175  1.472199
  7124.499  7124.500  0.500  4.665051  152.250981  150.663564  1.419066
  7124.798  7124.800  0.500  4.700338  152.235799  150.665554  1.369882
  7125.100  7125.100  0.500  4.733579  152.199699  150.637975  1.324852
  7125.401  7125.400  0.500  4.766427  152.199594  150.677142  1.282373
  7125.700  7125.700  0.500  4.797433  152.191704  150.684846  1.243285
  7126.006  7126.000  0.500  4.827591  152.175765  150.692909  1.206415
  7126.301  7126.300  0.500  4.857943  152.153132  150.680744  1.170254
  7126.602  7126.600  0.500  4.888857  152.125669  150.628682  1.134238
  7126.902  7126.900  0.500  4.921965  152.081735  150.593916  1.097046
  7127.203  7127.200  0.500  4.956650  152.099306  150.662026  1.060128
  7127.498  7127.500  0.500  4.992978  152.063834  150.655979  1.022265
  7127.800  7127.800  0.500  5.032646  152.043607  150.635406  0.982373
  7128.097  7128.100  0.500  5.073087  151.990086  150.567520  0.943013
  7128.397  7128.400  0.500  5.117926  152.009808  150.571478  0.901687
  7128.703  7128.700  0.500  5.165823  151.985666  150.597375  0.859665
  7129.004  7129.000  0.500  5.216519  151.970271  150.623970  0.817314
  7129.302  7129.300  0.500  5.267558  151.938833  150.611218  0.776579
  7129.606  7129.600  0.500  5.319601  151.919334  150.644207  0.737359
  7129.903  7129.900  0.500  5.367907  151.893661  150.637800  0.702557
  7130.201  7130.200  0.500  5.411339  151.875209  150.542743  0.672272
  7130.505  7130.500  0.500  5.449357  151.839565  150.552883  0.647237
  7130.802  7130.800  0.500  5.479340  151.810905  150.507745  0.627931
  7131.100  7131.100  0.500  5.500146  151.766661  150.447396  0.614754
  7131.397  7131.400  0.500  5.509262  151.770146  150.507091  0.609417
  7131.701  7131.700  0.500  5.505820  151.752741  150.520362  0.611572
  7131.999  7132.000  0.500  5.490046  151.731431  150.512698  0.621264
  7132.301  7132.300  0.500  5.464205  151.714376  150.482700  0.637401
  7132.601  7132.600  0.500  5.431785  151.686992  150.494127  0.658454
  7132.903  7132.900  0.500  5.392903  151.698547  150.511759  0.684641
  7133.205  7133.200  0.500  5.350214  151.683266  150.519868  0.714538
  7133.505  7133.500  0.500  5.306004  151.692787  150.555672  0.747014
  7133.800  7133.800  0.500  5.262871  151.681872  150.516984  0.779739
  7134.103  7134.100  0.500  5.220661  151.679435  150.531967  0.813438
  7134.407  7134.400  0.500  5.182155  151.681741  150.559208  0.845524
  7134.703  7134.700  0.500  5.147902  151.685685  150.570496  0.875053
  7135.003  7135.000  0.500  5.117466  151.684957  150.575607  0.902127
  7135.298  7135.300  0.500  5.091078  151.644587  150.521350  0.925915
  7135.596  7135.600  0.500  5.068117  151.664810  150.564236  0.947691
  7135.894  7135.900  0.500  5.049162  151.672682  150.610491  0.966123
  7136.192  7136.200  0.500  5.034170  151.665708  150.611144  0.980720
  7136.495  7136.500  0.500  5.023333  151.629009  150.568116  0.991122
  7136.801  7136.800  0.500  5.015956  151.635682  150.599563  0.998669
  7137.007  7137.000  0.500  5.013264  151.614444  150.601656  1.001376
  7137.996  7137.990  0.500  5.020523  151.629089  150.657856  0.994503
  7138.997  7138.990  0.500  5.056983  151.610010  150.675712  0.959011
  7140.026  7140.010  0.500  5.107467  151.618572  150.756475  0.912287
  7141.074  7141.060  0.500  5.148132  151.620971  150.774170  0.876035
  7142.130  7142.120  0.500  5.162699  151.619246  150.865097  0.863887
  7143.216  7143.200  0.500  5.151452  151.614194  150.891515  0.873811
  7144.315  7144.300  0.500  5.132996  151.608333  150.919976  0.890256
  7145.435  7145.420  0.500  5.129529  151.606570  150.987097  0.893745
  7146.572  7146.560  0.500  5.157318  151.601766  151.005875  0.869359
  7147.722  7147.710  0.500  5.215079  151.603196  151.068447  0.820906
  7148.905  7148.890  0.500  5.285195  151.583476  151.094709  0.765453
  7150.087  7150.080  0.500  5.339771  151.589245  151.122105  0.724928
  7151.314  7151.300  0.500  5.373463  151.582908  151.170586  0.701136
  7152.542  7152.530  0.500  5.395083  151.578358  151.234296  0.686429
  7153.786  7153.780  0.500  5.409511  151.544494  151.239829  0.676621
  7155.060  7155.050  0.500  5.405389  151.545069  151.249798  0.679460
  7156.350  7156.340  0.500  5.388082  151.534422  151.296068  0.691534
  7157.658  7157.650  0.500  5.370498  151.530145  151.357714  0.704088
  7158.991  7158.980  0.500  5.361959  151.500206  151.420692  0.710421
  7160.341  7160.330  0.500  5.359418  151.458539  151.423295  0.712241
  7161.714  7161.700  0.500  5.353361  151.466103  151.457681  0.716731
  7163.093  7163.080  0.500  5.338566  151.409798  151.461826  0.727434
  7164.495  7164.490  0.500  5.317999  151.364774  151.504205  0.742758
  7165.922  7165.910  0.500  5.299567  151.331992  151.565953  0.756883
  7167.353  7167.350  0.500  5.286084  151.290809  151.603832  0.767349
  7168.824  7168.810  0.500  5.274512  151.268323  151.631391  0.776422
  7170.299  7170.290  0.500  5.258001  151.265273  151.644347  0.789415
  7171.793  7171.790  0.500  5.231588  151.229833  151.653146  0.810590
  7173.329  7173.310  0.500  5.190397  151.203404  151.710104  0.844994
  7174.858  7174.850  0.500  5.140362  151.186790  151.762325  0.888655
  7176.418  7176.410  0.500  5.083804  151.166319  151.795475  0.940570
  7177.993  7177.980  0.500  5.029409  151.131007  151.831595  0.993385
  7179.592  7179.580  0.500  4.991126  151.145907  151.937219  1.032870
  7181.206  7181.190  0.500  4.977873  151.121572  151.979097  1.046939
  7182.839  7182.830  0.500  4.984318  151.480717  152.412026  1.043175
  7184.496  7184.480  0.500  5.001977  151.484340  152.477088  1.025353
  7186.154  7186.150  0.500  5.037352  151.495376  152.567404  0.990302
  7187.860  7187.840  0.500  5.087300  151.504530  152.654132  0.942589
  7189.557  7189.550  0.500  5.141179  151.510120  152.755570  0.893740
  7191.292  7191.280  0.500  5.201691  151.250045  152.559068  0.840180
  7193.035  7193.030  0.500  5.258687  150.207234  151.606993  0.788680
  7194.805  7194.790  0.500  5.286863  151.286261  152.751449  0.772556
  7196.585  7196.580  0.500  5.272177  151.327649  152.875300  0.784621
  7198.403  7198.380  0.500  5.226752  151.302392  152.940738  0.821436
  7200.195  7200.210  0.500  5.162861  151.228322  152.918676  0.875504
  7202.039  7202.050  0.500  5.089503  151.211934  152.982749  0.942540
  7203.898  7203.910  0.500  5.009552  151.180080  153.034671  1.021337
  7205.784  7205.790  0.500  4.935827  151.149297  153.103299  1.099973
  7207.684  7207.690  0.500  4.895388  151.124263  153.136258  1.145613
  7209.611  7209.610  0.500  4.914126  151.079785  153.150392  1.124451
  7211.555  7211.550  0.500  5.007307  151.046645  153.249103  1.025067
  7213.514  7213.510  0.500  5.165271  150.999655  153.252987  0.875307
  7215.493  7215.480  0.500  5.345821  150.957998  153.289036  0.730887
  7217.487  7217.480  0.500  5.504936  150.924628  153.343270  0.623593
  7219.500  7219.490  0.500  5.609797  150.895207  153.430703  0.561834
  7221.527  7221.520  0.500  5.640938  150.844883  153.427882  0.544598
  7223.588  7223.580  0.500  5.589847  150.811116  153.488771  0.573373
  7225.653  7225.650  0.500  5.477182  150.761914  153.531640  0.641930
  7227.748  7227.740  0.500  5.335350  149.175021  151.997818  0.732360
  7229.858  7229.850  0.500  5.185611  150.852233  153.781344  0.860640
  7231.984  7231.980  0.500  5.041696  150.806036  153.843115  0.994254
  7234.132  7234.120  0.500  4.920605  150.769068  153.882824  1.122531
  7236.290  7236.290  0.500  4.838210  150.743025  153.954641  1.219509
  7238.489  7238.480  0.500  4.798720  150.721868  154.020972  1.269177
  7240.686  7240.680  0.500  4.798851  150.698779  154.091417  1.269591
  7242.908  7242.900  0.500  4.830392  150.636099  154.106229  1.230290
  7245.154  7245.150  0.500  4.880714  148.017829  151.497900  1.150111
  7247.416  7247.410  0.500  4.927671  150.488111  154.079577  1.116053
  7249.694  7249.690  0.500  4.952327  150.544979  154.270376  1.090220
  7252.003  7251.990  0.500  4.945498  150.452786  154.286313  1.097804
  7254.317  7254.310  0.500  4.917434  148.721814  152.615073  1.116819
  7256.659  7256.650  0.500  4.893157  150.629085  154.631081  1.159380
  7259.010  7259.000  0.500  4.896426  150.465264  154.552615  1.155009
  7261.383  7261.380  0.500  4.922953  150.102711  154.274153  1.122747
  7263.787  7263.770  0.500  4.952591  144.877665  149.059217  1.053115
  7266.201  7266.190  0.500  4.974229  149.506368  153.918521  1.064170
  7268.630  7268.620  0.500  4.999928  150.865337  155.426196  1.047329
  7271.081  7271.070  0.500  5.044912  150.824957  155.491936  1.001683
  7273.570  7273.550  0.500  5.099389  150.366248  155.118878  0.946298
  7276.049  7276.040  0.500  5.133568  150.894274  155.772447  0.918355
  7278.562  7278.550  0.500  5.152750  150.832493  155.820529  0.901185
  7281.080  7281.070  0.500  5.178897  150.807907  155.899524  0.878372
  7283.635  7283.620  0.500  5.215820  150.542048  155.735038  0.845638
  7286.205  7286.190  0.500  5.252754  150.400405  155.692309  0.814752
  7288.795  7288.770  0.500  5.270822  150.562307  155.955927  0.801518
  7291.386  7291.380  0.500  5.242208  150.579127  156.081347  0.825447
  7294.009  7294.000  0.500  5.163351  150.557957  156.168246  0.893672
  7296.664  7296.650  0.500  5.063346  150.501541  156.224005  0.988018
  7299.329  7299.310  0.500  4.970475  150.380012  156.182553  1.083884
  7302.003  7301.990  0.500  4.895006  148.088117  153.908255  1.151829
  7304.705  7304.690  0.500  4.838987  150.528372  156.529889  1.238945
  7307.426  7307.410  0.500  4.802434  150.477350  156.625974  1.285859
  7310.163  7310.150  0.500  4.786390  150.404547  156.662738  1.306962
  7312.912  7312.900  0.500  4.785871  150.367213  156.728863  1.308192
  7315.694  7315.680  0.500  4.786588  150.323713  156.819855  1.308014
  7318.483  7318.470  0.500  4.782183  150.284388  156.905687  1.314507
  7321.302  7321.290  0.500  4.777644  150.264135  156.978835  1.321103
  7324.132  7324.120  0.500  4.773708  150.222863  157.047638  1.326894
  7326.974  7326.970  0.500  4.771760  150.164350  157.092603  1.329862
  7329.861  7329.850  0.500  4.766919  150.127536  157.184005  1.337094
  7332.748  7332.740  0.500  4.750301  150.098657  157.268465  1.360229
  7335.654  7335.650  0.500  4.726427  150.062859  157.313348  1.393491
  7338.573  7338.570  0.500  4.711951  149.361800  156.678376  1.408105
  7341.527  7341.520  0.500  4.718527  149.808829  157.276760  1.404217
  7344.495  7344.490  0.500  4.751237  149.872270  157.476780  1.360756
  7347.477  7347.470  0.500  4.803871  149.845843  157.579765  1.291831
  7350.491  7350.480  0.500  4.858791  149.814903  157.651353  1.223352
  7353.503  7353.500  0.500  4.908007  149.803261  157.816574  1.165822
