# XDI/1.0 BlueSky/1.10.0 BMM/2023-1.0-py310-tiled
# Beamline.name: BMM (06BM) -- Beamline for Materials Measurement (NIST)
# Beamline.xray_source: NSLS-II three-pole wiggler
# Beamline.collimation: paraboloid mirror, 5 nm Rh on 30 nm Pt
# Beamline.focusing: not in use
# Beamline.harmonic_rejection: flat mirror, Si stripe, pitch = 7.0 mrad relative to beam
# Beamline.software: Bluesky 1.10.0, Ophyd 1.7.0, DataBroker 2.0.0b13, Python 3.10.8, 2023-1.0-py310-tiled
# Detector.I0: 10 cm N2
# Detector.I1: 25 cm N2
# Detector.I2: 25 cm N2
# Detector.fluorescence: SII Vortex ME4 (4-element silicon drift)
# Detector.deadtime_correction: Xspress3
# Element.symbol: Fe
# Element.edge: K
# Element.reference: Fe
# Element.reference_material: Fe foil
# Facility.name: NSLS-II
# Facility.energy: 3.0
# Facility.current: 400.1
# Facility.mode: top-off
# Facility.GUP: 301027
# Facility.SAF: 310583
# Facility.cycle: 2023-2
# Mono.name: Si(111)
# Mono.d_spacing: 3.1351860
# Mono.encoder_resolution: 0.0000050 deg/ct
# Mono.angle_offset: 16.0754326 deg
# Mono.scan_mode: pseudo channel cut
# Mono.scan_type: step
# Mono.direction: forward in energy
# Sample.name: Ca(Zn,Mn,Fe,Mg)Si2O6
# Sample.prep: powder on tape
# Sample.x: 119.711 mm
# Sample.y: 114.376 mm
# Sample.SDD_position: 25.000 mm
# Scan.experimenters: Bruce Ravel
# Scan.edge_energy: 7112.0
# Scan.start_time: 2023-06-27T10:25:12
# Scan.end_time: 2023-06-27T10:42:39
# Scan.transient_id: 85117
# Scan.uid: 02ad399c-7d5d-432b-9c44-3b78d3ef97ef
# Scan.plot_hint: (Fe1+Fe2+Fe3+Fe4)/I0  --  ($8+$9+$10+$11)/$5
# Column.1: energy eV
# Column.2: requested_energy eV
# Column.3: measurement_time seconds
# Column.4: xmu 
# Column.5: I0 nA
# Column.6: It nA
# Column.7: Ir nA
# Column.8: Fe1 
# Column.9: Fe2 
# Column.10: Fe3 
# Column.11: Fe4 
# ///////////
# sample courtesy Martin Stennett, University of Sheffield
# -----------
# energy  requested_energy  measurement_time  xmu  I0  It  Ir  Fe1  Fe2  Fe3  Fe4
  6912.001  6912.000  2.000  20.824166  591.613657  224.975095  41.035000  3508.898187  3111.327623  2606.277032  3093.358212
  6922.011  6922.000  2.000  20.654225  592.005109  226.683813  41.644609  3454.452134  3151.331717  2538.266249  3083.356398
  6932.019  6932.000  2.000  20.560313  592.782058  228.597675  42.298935  3497.834272  3124.329988  2643.281081  2922.339029
  6942.015  6942.000  2.000  20.464363  593.733685  230.575214  42.971282  3414.417812  3264.347184  2510.269431  2961.346941
  6952.018  6952.000  2.000  20.447877  594.525516  232.505089  43.640703  3441.819542  3030.323392  2642.283287  3042.358201
  6962.014  6962.000  2.000  20.409995  595.440101  234.486875  44.320633  3526.960883  3115.338053  2592.282932  2918.347412
  6972.010  6972.000  2.000  20.346416  596.471892  236.526708  45.023794  3470.074029  3150.348547  2546.282192  2969.360463
  6982.012  6982.000  2.000  20.041463  597.112179  238.335406  45.682008  3376.021381  3107.340001  2603.289682  2880.350468
  6992.006  6992.000  2.000  20.056627  597.900750  240.340742  46.386545  3321.872334  3110.346726  2524.281884  3035.371322
  7002.004  7002.000  2.000  20.297362  598.516667  242.215150  47.067581  3324.274279  3109.351920  2619.297880  3095.385086
  7012.004  7012.000  2.000  20.249202  599.050249  244.090587  47.753005  3359.254805  3172.360777  2590.296136  3008.377665
  7022.005  7022.000  2.000  19.817958  599.670715  245.963486  48.437660  3349.233371  3080.354125  2542.293747  2912.368015
  7032.004  7032.000  2.000  20.030401  600.156150  247.836257  49.124403  3363.333038  3144.360344  2575.301359  2938.373762
  7042.002  7042.000  2.000  20.001924  600.611537  249.661128  49.801254  3363.333038  3174.372394  2629.312922  2846.367823
  7052.003  7052.000  2.000  20.027369  600.933945  251.459324  50.466536  3369.070270  3042.356374  2634.311195  2989.387911
  7062.002  7062.000  2.000  20.458272  601.562725  253.409500  51.148820  3332.827467  3169.376106  2808.337089  2996.392997
  7072.003  7072.000  2.000  20.411950  601.323139  254.958573  51.720529  3430.084790  3184.379479  2708.325101  2951.388773
  7081.997  7082.000  2.000  20.329236  601.827322  256.815570  52.294781  3380.579302  3171.382548  2689.327158  2993.400387
  7084.000  7084.000  2.000  20.450997  597.184547  255.126940  51.976979  3362.908165  3143.380526  2702.328131  3004.402309
  7085.997  7086.000  2.000  20.183097  601.328119  257.191349  52.417106  3333.557664  3143.380526  2751.335475  2908.389925
  7088.005  7088.000  2.000  21.120769  601.511567  257.629128  52.516980  3532.239794  3213.386811  2864.348127  3094.411867
  7090.000  7090.000  2.000  20.579109  601.596915  258.005413  52.594517  3433.200444  3209.387995  2706.331036  3031.409203
  7091.999  7092.000  2.000  20.562504  601.547751  258.304503  52.645214  3433.200444  3209.387995  2706.331036  3020.408455
  7093.997  7094.000  2.000  20.793748  601.469111  258.616376  52.679059  3471.647761  3151.388350  2783.342230  3100.418829
  7096.005  7096.000  2.000  20.695448  601.434420  258.938161  52.692030  3394.810412  3151.388350  2819.345089  3081.410676
  7098.003  7098.000  2.000  20.965729  601.501199  259.325304  52.687594  3496.762020  3171.384986  2868.351482  3074.412837
  7100.001  7100.000  2.000  21.068780  601.597200  259.737898  52.648071  3313.730079  3273.402322  2891.351842  3196.435076
  7101.999  7102.000  2.000  21.405753  601.561242  259.980269  52.505169  3453.673226  3260.397667  2926.362211  3236.438174
  7102.301  7102.300  2.000  21.783246  601.479194  260.015050  52.475476  3544.954682  3261.396769  3043.377037  3252.440524
  7102.596  7102.600  2.000  21.500803  601.426150  260.020622  52.441993  3495.942528  3350.409776  2884.357625  3200.434980
  7102.891  7102.900  2.000  21.154646  601.420836  260.044836  52.405074  3430.670876  3285.398704  2891.355692  3115.419823
  7103.197  7103.200  2.000  21.582494  601.746589  260.230401  52.397480  3487.975118  3296.407271  3028.378927  3174.431029
  7103.490  7103.500  2.000  21.195704  603.148653  260.920712  52.487232  3468.965496  3236.401233  2952.366427  3126.427208
  7103.798  7103.800  2.000  21.869183  603.068098  260.896927  52.427082  3485.352225  3365.419815  2933.366525  3404.468137
  7104.099  7104.100  2.000  21.903922  603.078489  260.970607  52.387767  3515.537884  3470.429617  2960.369270  3263.447297
  7104.401  7104.400  2.000  21.653218  603.045380  260.996289  52.330466  3412.639949  3411.420116  3002.371300  3231.441719
  7104.698  7104.700  2.000  21.750405  603.000126  260.975799  52.265401  3474.267769  3371.413377  3031.373883  3238.441887
  7105.004  7105.000  2.000  21.871406  602.966075  261.060339  52.209828  3562.491271  3528.432255  2933.360786  3163.431493
  7105.298  7105.300  2.000  22.084061  602.969187  261.128861  52.148558  3606.756020  3404.423829  3015.375905  3289.452815
  7105.597  7105.600  2.000  21.535307  602.901700  261.111504  52.059205  3428.441644  3340.416404  2948.366446  3266.448689
  7105.897  7105.900  2.000  22.159878  602.918723  261.163660  51.978478  3628.351254  3459.427542  3003.376812  3269.449775
  7106.201  7106.200  2.000  22.303915  602.895649  261.235996  51.889494  3514.667059  3589.439415  3034.375865  3308.450716
  7106.501  7106.500  2.000  22.204915  602.875405  261.236868  51.783435  3603.541520  3529.434848  2962.369927  3291.450724
  7106.802  7106.800  2.000  22.628125  602.862041  261.283273  51.672104  3563.333392  3469.432074  3181.399068  3427.473378
  7107.102  7107.100  2.000  22.402188  602.781037  261.317995  51.548788  3563.333392  3585.446074  3025.379951  3329.454576
  7107.406  7107.400  2.000  22.898205  602.729101  261.294606  51.392095  3619.099584  3505.432110  3222.407334  3454.475337
  7107.706  7107.700  2.000  22.498275  602.759068  261.412299  51.245656  3690.768888  3494.431300  3058.381419  3317.457810
  7108.008  7108.000  2.000  22.732192  602.728599  261.520819  51.069295  3726.057328  3503.436222  3139.391051  3332.457402
  7108.306  7108.300  2.000  23.201821  602.688246  261.498060  50.850437  3761.144658  3657.455468  3189.400490  3375.464423
  7108.606  7108.600  2.000  23.157297  602.676864  261.555544  50.607866  3696.037790  3631.453841  3208.402816  3420.472689
  7108.908  7108.900  2.000  23.433051  602.628715  261.574659  50.321043  3747.080262  3627.453885  3250.408252  3496.486931
  7109.208  7109.200  2.000  23.653402  602.612524  261.617725  49.983417  3817.489092  3686.459195  3194.396545  3555.491304
  7109.503  7109.500  2.000  23.914856  602.626708  261.657782  49.579671  3742.326782  3794.481259  3271.421115  3603.501811
  7109.803  7109.800  2.000  24.471274  602.544651  261.665690  49.055595  3878.627136  3862.483148  3328.416240  3675.508439
  7110.099  7110.100  2.000  24.701206  602.524031  261.797529  48.417027  3878.627136  3819.482520  3482.442358  3702.518331
  7110.406  7110.400  2.000  25.124797  602.465729  261.733557  47.500259  4050.384609  3819.482520  3419.429460  3847.532740
  7110.706  7110.700  2.000  26.719901  602.403578  261.735436  46.316547  4218.614060  4180.526903  3710.467219  3986.556001
  7111.010  7111.000  2.000  27.564139  602.278981  261.761072  44.643134  4465.688580  4346.555707  3740.484558  4048.572799
  7111.304  7111.300  2.000  29.177241  602.231682  261.795535  42.366083  4586.750690  4643.588633  4124.527683  4216.592196
  7111.608  7111.600  2.000  31.975584  602.146687  261.779829  39.137103  5002.084824  5081.655311  4538.592203  4631.659926
  7111.911  7111.900  2.000  35.159281  602.035544  261.769403  35.308625  5442.998217  5585.735397  4974.655630  5163.747551
  7112.209  7112.200  2.000  38.986018  601.977537  261.793043  31.436429  5937.310199  6067.803188  5630.749736  5832.844088
  7112.507  7112.500  2.000  42.190085  601.867035  261.852909  28.133880  6519.191246  6572.882820  6086.828686  6213.918769
  7112.811  7112.800  2.000  43.570575  601.827110  261.844234  25.586378  6519.191246  6572.882820  6560.902947  6568.976440
  7113.107  7113.100  2.000  47.014415  601.736611  261.762224  23.696497  6892.249690  7484.029101  6886.957160  7027.058673
  7113.414  7113.400  2.000  48.973348  601.681773  261.795242  22.197298  7511.217563  7625.058549  7098.993329  7231.101390
  7113.706  7113.700  2.000  51.307991  601.643896  261.794081  21.000939  7846.828344  8054.123399  7447.040680  7521.147495
  7114.010  7114.000  2.000  52.549826  601.599923  261.847856  19.906685  7994.545723  8243.160843  7720.091383  7656.173455
  7114.302  7114.300  2.000  54.698032  601.636773  261.913463  18.966931  8363.748109  8577.213515  7907.132156  8060.253423
  7114.613  7114.600  2.000  55.700134  601.685085  262.009559  18.081672  8485.275886  8601.216642  8084.150934  8343.296239
  7114.914  7114.900  2.000  56.976913  601.656674  262.050033  17.340923  8637.802968  8951.257987  8317.182811  8374.296449
  7115.223  7115.200  2.000  58.493579  601.665413  262.093505  16.731276  8781.657691  9167.308576  8541.240619  8703.356639
  7115.500  7115.500  2.000  58.483601  601.702665  262.125938  16.283665  8789.847993  9178.312441  8599.235176  8622.342987
  7115.817  7115.800  2.000  59.153851  601.638989  262.151804  15.905173  8938.308238  9352.350012  8503.216016  8795.388961
  7116.114  7116.100  2.000  59.759532  601.660518  262.248148  15.658894  9050.987086  9325.330608  8794.264729  8784.368663
  7116.421  7116.400  2.000  60.406202  601.724180  262.357502  15.470900  9020.802741  9610.383054  8847.284795  8869.401813
  7116.715  7116.700  2.000  60.501513  601.667184  262.322317  15.330274  9122.717630  9472.361593  8847.282472  8959.413519
  7117.024  7117.000  2.000  60.937587  601.663103  262.373012  15.161833  9159.760267  9542.389372  8879.305816  9082.442409
  7117.318  7117.300  2.000  61.760408  601.648760  262.399787  14.951988  9386.925551  9699.406353  9054.310672  9017.430450
  7117.739  7117.600  2.000  63.233582  601.545872  262.402356  14.564046  9444.600100  10026.462798  9228.353226  9338.484239
  7117.982  7117.900  2.000  63.648485  601.551762  262.466236  14.129877  9719.514602  9944.470352  9254.372369  9369.501057
  7118.259  7118.200  2.000  66.283834  601.460510  262.415826  13.499914  9774.542826  10471.534538  9811.451547  9809.579530
  7118.528  7118.500  2.000  69.005026  601.386666  262.502489  12.683284  10326.921358  10823.612380  10131.505799  10216.662702
  7118.826  7118.800  2.000  70.571165  601.269547  262.499505  11.894898  10591.351033  11105.679387  10293.548604  10441.713294
  7119.144  7119.100  2.000  73.678186  601.169981  262.537191  11.052760  10843.899224  11711.768990  10946.667935  10790.777650
  7119.432  7119.400  2.000  77.310830  601.133950  262.489774  10.231243  11460.613528  11908.826442  11516.780643  11587.943955
  7119.731  7119.700  2.000  80.067727  600.857274  262.415197  9.506156  11852.513395  12606.938790  11848.836575  11800.987218
  7120.023  7120.000  2.000  84.125329  600.733724  262.462939  8.754967  12481.764681  13145.059749  12593.995288  12316.102518
  7120.320  7120.300  2.000  87.003494  602.175850  263.041629  8.116327  12954.983568  13709.163135  12773.027404  12954.229186
  7120.627  7120.600  2.000  91.579558  602.121520  263.011575  7.391696  13579.164692  14425.308320  13531.184785  13606.364878
  7120.896  7120.900  2.000  95.672839  601.897161  262.954665  6.822916  14059.883935  15102.471897  14302.344608  14120.509839
  7121.208  7121.200  2.000  98.923157  601.818200  263.010561  6.240798  14741.149180  15102.471897  14819.460500  14870.674870
  7121.511  7121.500  2.000  103.745953  601.776666  263.058092  5.724139  15293.772030  16332.724196  15460.607342  15344.790362
  7121.801  7121.800  2.000  107.947065  601.722596  263.010059  5.293351  15922.628383  16900.864908  16108.744233  16021.950650
  7122.109  7122.100  2.000  112.084990  601.667785  262.963196  4.898028  16507.908496  17450.997427  16798.908319  16680.113247
  7122.401  7122.400  2.000  114.988467  601.572089  262.954265  4.577944  16924.494951  18175.155207  17061.993535  17012.208724
  7122.707  7122.700  2.000  120.604093  601.491893  262.937115  4.289460  17869.499259  18914.303501  17982.189150  17776.392411
  7123.004  7123.000  2.000  125.125210  601.481297  262.972722  4.048136  18246.958030  19671.507061  18773.404449  18568.604060
  7123.307  7123.300  2.000  129.463405  601.417457  262.943737  3.835358  19332.763618  20260.614494  19208.466297  19059.707719
  7123.604  7123.600  2.000  134.811279  601.455340  262.980172  3.658292  19578.363519  21076.851268  20404.777700  20022.971066
  7123.909  7123.900  2.000  139.898369  601.385317  263.043248  3.500971  20336.624807  22213.152471  20925.903607  20657.144351
  7124.200  7124.200  2.000  144.279268  601.303338  262.957124  3.362608  21209.910552  22359.212196  21835.137906  21351.344743
  7124.508  7124.500  2.000  148.638619  601.228432  263.000932  3.231824  21704.556577  23238.412539  22484.306599  21938.488215
  7124.803  7124.800  2.000  154.105794  601.223639  263.002436  3.115642  22466.190068  24118.604845  23278.522447  22788.729101
  7125.102  7125.100  2.000  159.058493  601.184068  263.039446  3.006354  23218.719982  24792.877689  23961.804205  23650.030227
  7125.397  7125.400  2.000  161.745702  601.057386  262.990202  2.909250  23816.608111  25318.992114  24362.808775  23720.039929
  7125.700  7125.700  2.000  166.450197  600.993298  263.039744  2.817508  24264.958428  25868.117037  25183.084793  24719.292415
  7125.999  7126.000  2.000  168.773573  600.951014  263.035614  2.733493  24883.922769  25868.117037  25581.181482  25091.428545
  7126.307  7126.300  2.000  173.156411  600.875699  263.033014  2.649542  25364.995628  27242.562591  25859.304566  25578.616600
  7126.605  7126.600  2.000  174.309223  600.838347  263.009028  2.569856  25364.995628  27242.562591  26545.490618  25578.616600
  7126.904  7126.900  2.000  181.131470  600.799581  263.046898  2.489130  26232.263763  28235.786748  27603.727099  26751.933929
  7127.203  7127.200  2.000  183.020060  600.707615  263.062445  2.408629  26904.810696  28405.881615  27710.837130  26920.013947
  7127.509  7127.500  2.000  189.080053  600.607721  263.019246  2.321161  27554.290602  29343.189212  28585.094716  28080.364958
  7127.806  7127.800  2.000  192.778403  600.513904  262.978272  2.236843  28078.948080  30050.382513  29022.229275  28614.551677
  7128.110  7128.100  2.000  195.799161  600.450635  262.984077  2.149878  28078.948080  30050.382513  30000.554389  29437.845789
  7128.401  7128.400  2.000  203.945463  600.424159  263.014342  2.063819  29182.842324  31895.955312  31133.918559  30241.066600
  7128.705  7128.700  2.000  206.898319  600.297431  262.993186  1.970798  29854.078686  32133.104629  31336.014977  30877.331070
  7129.002  7129.000  2.000  214.079664  600.237613  262.984885  1.876972  31161.295685  33274.458262  32389.306035  31673.606635
  7129.304  7129.300  2.000  216.943972  600.143184  262.950296  1.781351  31376.554940  34040.680641  32623.423072  32156.787390
  7129.597  7129.600  2.000  221.122578  600.073177  262.953840  1.692996  32046.283020  34424.783874  33322.632361  32896.028708
  7129.897  7129.900  2.000  223.335208  600.006722  262.908406  1.608006  32228.537596  34915.004701  33750.891612  33108.192023
  7130.196  7130.200  2.000  225.567438  599.889638  262.916343  1.534757  32488.212927  35301.140002  34305.007024  33221.208567
  7130.507  7130.500  2.000  227.913493  599.804873  262.952419  1.468279  33120.974984  35542.210473  34373.080703  33667.357523
  7130.800  7130.800  2.000  229.006230  599.699799  262.947278  1.415592  32799.870501  35636.312838  34761.237784  34137.568766
  7131.108  7131.100  2.000  229.708370  599.611007  262.886290  1.373482  33371.877398  35518.203595  34449.042366  34396.543909
  7131.402  7131.400  2.000  231.609756  599.518298  262.863968  1.347044  33533.890828  35810.379629  35180.416937  34329.599373
  7131.708  7131.700  2.000  229.727008  599.390766  262.888540  1.337819  32957.031992  35665.334989  34837.310898  34236.569222
  7132.005  7132.000  2.000  228.534382  599.292092  262.979205  1.346171  32997.002483  35418.242932  34678.187108  33865.415155
  7132.310  7132.300  2.000  225.446624  599.247493  263.021010  1.370372  32462.207054  35027.052500  34375.881551  33233.183278
  7132.601  7132.600  2.000  224.262023  599.242185  263.040885  1.406506  32400.135111  34878.036554  33699.812059  33409.280930
  7132.905  7132.900  2.000  222.283233  599.202106  263.146241  1.456624  31944.860473  34591.877868  33821.775647  32834.067557
  7133.203  7133.200  2.000  220.338472  599.170707  263.176065  1.515455  31615.979373  34243.751073  33415.639253  32744.988161
  7133.507  7133.500  2.000  219.729395  599.076292  263.220602  1.584700  31628.242002  34110.757213  33377.749291  32517.922810
  7133.798  7133.800  2.000  218.064672  599.106831  263.248693  1.655260  31410.821174  33553.622964  33166.658617  32512.931754
  7134.100  7134.100  2.000  217.692286  599.049726  263.247133  1.729745  31338.404847  34218.808304  32844.521621  32006.769464
  7134.398  7134.400  2.000  216.716594  599.140135  263.322426  1.801540  31092.786870  33633.558512  32867.485384  32249.778466
  7134.707  7134.700  2.000  215.207642  599.125872  263.383386  1.871725  31113.882255  33322.469023  32683.437136  31816.677584
  7135.001  7135.000  2.000  214.386733  599.168527  263.486878  1.936828  30803.221231  33249.470325  32672.443619  31728.647814
  7135.303  7135.300  2.000  213.804354  599.130190  263.452667  1.997732  31044.261335  33224.451829  32131.310495  31696.619690
  7135.601  7135.600  2.000  212.194091  599.065922  263.500634  2.051982  30510.030917  33096.416286  32081.216087  31430.585596
  7135.910  7135.900  2.000  209.933115  599.126925  263.622730  2.100966  30398.771047  32549.223690  31707.134521  31121.452052
