# XDI/1.0 BlueSky/1.5.3
# Beamline.name: 6BM
# Beamline.xray_source: NSLS-II three-pole wiggler
# Beamline.collimation: paraboloid mirror, 5 nm Rh on 30 nm Pt
# Beamline.focusing: not in use
# Beamline.harmonic_rejection: flat mirror, Si stripe, pitch = 7.0 mrad relative to beam
# Detector.i0: 10 cm N2
# Detector.i1: 25 cm N2
# Detector.i2: 25 cm N2
# Element.symbol: Fe
# Element.edge: K
# Facility.name: NSLS-II
# Facility.energy: 3.0
# Facility.current: 400.6
# Facility.mode: top-off
# Facility.gup: 301027
# Facility.saf: 304793
# Facility.cycle: 2020-1
# Mono.name: Si(111)
# Mono.d_spacing: 3.1353241
# Mono.encoder_resolution: 0.0000050 deg/ct
# Mono.angle_offset: 16.0581090 deg
# Mono.scan_mode: fixed exit
# Mono.scan_type: step
# Mono.direction: forward in energy
# Sample.name: (Fe,Mn)WO4
# Sample.prep: Powder in polyethylene glycol pellet
# Sample.x_position: -122.297 mm
# Sample.y_position: 119.848 mm
# Scan.experimenters: Bruce Ravel
# Scan.edge_energy: 7112.0
# Scan.start_time: 2020-01-15T02:08:51
# Scan.end_time: 2020-01-15T02:46:40
# Scan.transient_id: 19557
# Scan.uid: f04b10b0-adb0-4a2a-bd11-126c308991a8
# Scan.plot_hint: ln(I0/It)  --  ln($5/$6)
# Scan.sequence: merge of 2 scans
# Column.1: energy eV
# Column.2: requested_energy eV
# Column.3: measurement_time seconds
# Column.4: mutrans
# Column.5: i0
# Column.6: itrans
# Column.7: irefer
# /////
#  Cumberland, Black â€“ ID
# -----
# energy   requested_energy   measurement_time   mutrans   i0   itrans   irefer
6911.999000 6912.000000 0.500000 2.618186 71.775272 5.234967 1.441372
6922.006000 6922.000000 0.500000 2.608112 71.623916 5.276838 1.463930
6932.022000 6932.000000 0.500000 2.597323 71.456435 5.321596 1.481494
6942.016000 6942.000000 0.500000 2.586683 71.291043 5.366026 1.500280
6952.016000 6952.000000 0.500000 2.576045 71.115696 5.410098 1.519324
6962.017000 6962.000000 0.500000 2.565393 70.946526 5.454998 1.538369
6972.015000 6972.000000 0.500000 2.554823 70.773516 5.499502 1.557307
6982.016000 6982.000000 0.500000 2.544138 70.644137 5.548420 1.577188
6992.010000 6992.000000 0.500000 2.533807 70.474561 5.592595 1.596003
7002.009000 7002.000000 0.500000 2.523226 70.306853 5.638628 1.615996
7012.013000 7012.000000 0.500000 2.513067 70.157966 5.684179 1.635811
7022.015000 7022.000000 0.500000 2.503240 69.992519 5.726765 1.654546
7032.010000 7032.000000 0.500000 2.492617 69.824863 5.774049 1.674782
7042.017000 7042.000000 0.500000 2.482357 69.648963 5.818915 1.692707
7052.014000 7052.000000 0.500000 2.471802 69.471087 5.865621 1.712731
7062.011000 7062.000000 0.500000 2.461697 68.686653 5.858297 1.714540
7072.010000 7072.000000 0.500000 2.451591 69.162178 5.958771 1.749700
7082.007000 7082.000000 0.500000 2.442170 68.910684 5.993300 1.760545
7084.010000 7084.000000 0.500000 2.440149 68.957204 6.009476 1.765848
7086.002000 7086.000000 0.500000 2.437906 68.962544 6.023422 1.768442
7088.003000 7088.000000 0.500000 2.436350 68.923016 6.029355 1.770004
7090.003000 7090.000000 0.500000 2.434278 68.910601 6.040782 1.772701
7092.004000 7092.000000 0.500000 2.432267 68.864528 6.048891 1.773043
7094.009000 7094.000000 0.500000 2.430448 68.836601 6.057463 1.773602
7096.006000 7096.000000 0.500000 2.428605 68.793997 6.064869 1.773462
7098.002000 7098.000000 0.500000 2.426654 68.780135 6.075488 1.771716
7100.001000 7100.000000 0.500000 2.424981 68.743548 6.082425 1.766485
7102.004000 7102.000000 0.500000 2.423024 68.696622 6.090146 1.761340
7102.083000 7102.100000 0.500000 2.423208 68.682375 6.087786 1.760572
7102.182000 7102.200000 0.500000 2.423086 68.706202 6.090617 1.761210
7102.280000 7102.300000 0.500000 2.422797 68.662145 6.088486 1.760115
7102.379000 7102.400000 0.500000 2.422806 68.633774 6.085927 1.758231
7102.483000 7102.500000 0.500000 2.422851 68.645830 6.086780 1.758037
7102.582000 7102.600000 0.500000 2.422592 68.614878 6.085568 1.756545
7102.680000 7102.700000 0.500000 2.422484 68.599797 6.084848 1.755981
7102.781000 7102.800000 0.500000 2.422484 68.607450 6.085563 1.756377
7102.887000 7102.900000 0.500000 2.422409 68.589709 6.084472 1.755386
7102.986000 7103.000000 0.500000 2.422219 68.602565 6.086733 1.755032
7103.084000 7103.100000 0.500000 2.422403 68.562143 6.082027 1.752874
7103.187000 7103.200000 0.500000 2.422159 68.586432 6.085665 1.753880
7103.290000 7103.300000 0.500000 2.422145 68.567648 6.084076 1.752084
7103.388000 7103.400000 0.500000 2.422122 68.571067 6.084528 1.751410
7103.486000 7103.500000 0.500000 2.421917 68.544111 6.083375 1.751043
7103.589000 7103.600000 0.500000 2.421745 68.558245 6.085698 1.750837
7103.692000 7103.700000 0.500000 2.421714 68.543774 6.084580 1.749596
7103.790000 7103.800000 0.500000 2.421709 68.523387 6.082858 1.748313
7103.891000 7103.900000 0.500000 2.421317 68.520551 6.084929 1.748340
7103.996000 7104.000000 0.500000 2.421327 68.530035 6.085781 1.747377
7104.092000 7104.100000 0.500000 2.421292 68.512491 6.084397 1.746538
7104.190000 7104.200000 0.500000 2.421215 68.520879 6.085592 1.745345
7104.293000 7104.300000 0.500000 2.421175 68.520681 6.085829 1.744797
7104.398000 7104.400000 0.500000 2.420954 68.515977 6.086794 1.743428
7104.494000 7104.500000 0.500000 2.421016 68.523596 6.087007 1.742579
7104.592000 7104.600000 0.500000 2.420926 68.486728 6.084351 1.742398
7104.697000 7104.700000 0.500000 2.420731 68.493784 6.086147 1.740694
7104.798000 7104.800000 0.500000 2.420749 68.484942 6.085295 1.739772
7104.896000 7104.900000 0.500000 2.420677 68.489039 6.086050 1.738396
7104.995000 7105.000000 0.500000 2.420546 68.494297 6.087291 1.738407
7105.095000 7105.100000 0.500000 2.420831 68.489982 6.085224 1.737079
7105.198000 7105.200000 0.500000 2.420609 68.466979 6.084520 1.735160
7105.299000 7105.300000 0.500000 2.420503 68.471485 6.085545 1.734805
7105.391000 7105.400000 0.500000 2.420305 68.454982 6.085267 1.733875
7105.496000 7105.500000 0.500000 2.420362 68.448590 6.084387 1.731241
7105.596000 7105.600000 0.500000 2.420208 68.446376 6.085100 1.730933
7105.692000 7105.700000 0.500000 2.420107 68.449126 6.085937 1.729968
7105.795000 7105.800000 0.500000 2.419906 68.441896 6.086538 1.728594
7105.896000 7105.900000 0.500000 2.419685 68.427474 6.086582 1.726760
7105.994000 7106.000000 0.500000 2.420094 68.434567 6.084833 1.725039
7106.091000 7106.100000 0.500000 2.419977 68.425583 6.084616 1.724404
7106.193000 7106.200000 0.500000 2.419963 68.409727 6.083337 1.722122
7106.294000 7106.300000 0.500000 2.419817 68.409216 6.084135 1.720249
7106.392000 7106.400000 0.500000 2.419311 68.445818 6.090420 1.720239
7106.491000 7106.500000 0.500000 2.419377 68.470704 6.092340 1.719173
7106.594000 7106.600000 0.500000 2.419478 68.446325 6.089589 1.716375
7106.699000 7106.700000 0.500000 2.419567 68.391521 6.084117 1.713294
7106.791000 7106.800000 0.500000 2.419512 68.398126 6.085022 1.712442
7106.893000 7106.900000 0.500000 2.419290 68.414210 6.087773 1.710481
7106.996000 7107.000000 0.500000 2.419087 68.391949 6.087065 1.708523
7107.097000 7107.100000 0.500000 2.419099 68.461568 6.093205 1.707334
7107.195000 7107.200000 0.500000 2.419190 68.458215 6.092352 1.705418
7107.294000 7107.300000 0.500000 2.418884 68.468805 6.095125 1.703036
7107.397000 7107.400000 0.500000 2.418722 68.464559 6.095757 1.700511
7107.500000 7107.500000 0.500000 2.418847 68.441375 6.092945 1.698120
7107.596000 7107.600000 0.500000 2.418850 68.444119 6.093171 1.694922
7107.703000 7107.700000 0.500000 2.418709 68.448741 6.094474 1.692187
7107.801000 7107.800000 0.500000 2.418597 68.460960 6.096262 1.689862
7107.896000 7107.900000 0.500000 2.418533 68.450455 6.095661 1.687126
7107.999000 7108.000000 0.500000 2.418542 68.468446 6.097214 1.683182
7108.103000 7108.100000 0.500000 2.418578 68.464211 6.096627 1.679650
7108.200000 7108.200000 0.500000 2.418346 68.465383 6.098129 1.676484
7108.301000 7108.300000 0.500000 2.418374 68.481451 6.099401 1.672161
7108.403000 7108.400000 0.500000 2.418429 68.444175 6.095751 1.667027
7108.502000 7108.500000 0.500000 2.418330 68.419141 6.094217 1.662413
7108.603000 7108.600000 0.500000 2.417980 68.428183 6.097029 1.658017
7108.703000 7108.700000 0.500000 2.417903 68.422812 6.097057 1.653005
7108.802000 7108.800000 0.500000 2.417968 68.407435 6.095261 1.645890
7108.900000 7108.900000 0.500000 2.418092 68.400691 6.093920 1.640229
7109.001000 7109.000000 0.500000 2.417991 68.402853 6.094729 1.633564
7109.102000 7109.100000 0.500000 2.418052 68.381804 6.092477 1.626053
7109.198000 7109.200000 0.500000 2.418017 68.400672 6.094368 1.619261
7109.301000 7109.300000 0.500000 2.418085 68.388194 6.092845 1.609877
7109.402000 7109.400000 0.500000 2.417817 68.399738 6.095518 1.602543
7109.500000 7109.500000 0.500000 2.417793 68.407397 6.096306 1.593135
7109.597000 7109.600000 0.500000 2.417917 68.375378 6.092760 1.581682
7109.700000 7109.700000 0.500000 2.417917 68.347333 6.090234 1.568333
7109.796000 7109.800000 0.500000 2.417885 68.387133 6.093954 1.556920
7109.892000 7109.900000 0.500000 2.417784 68.551073 6.109186 1.544881
7110.000000 7110.000000 0.500000 2.417549 68.521392 6.107960 1.527694
7110.096000 7110.100000 0.500000 2.417785 68.479638 6.102825 1.505676
7110.195000 7110.200000 0.500000 2.417784 68.504942 6.105088 1.485730
7110.300000 7110.300000 0.500000 2.417991 68.484859 6.102029 1.457924
7110.394000 7110.400000 0.500000 2.417967 68.524625 6.105724 1.432054
7110.497000 7110.500000 0.500000 2.418103 68.517125 6.104220 1.399624
7110.600000 7110.600000 0.500000 2.418215 68.458749 6.098340 1.362286
7110.696000 7110.700000 0.500000 2.418349 68.434277 6.095339 1.325599
7110.799000 7110.800000 0.500000 2.418513 68.481862 6.098590 1.284649
7110.900000 7110.900000 0.500000 2.418614 68.516518 6.101032 1.243388
7110.999000 7111.000000 0.500000 2.418905 68.496990 6.097492 1.199105
7111.104000 7111.100000 0.500000 2.419207 68.456452 6.092090 1.154025
7111.198000 7111.200000 0.500000 2.419238 68.429819 6.089534 1.112713
7111.303000 7111.300000 0.500000 2.419203 68.421121 6.088948 1.069113
7111.402000 7111.400000 0.500000 2.419513 68.439142 6.088712 1.032052
7111.502000 7111.500000 0.500000 2.419687 68.402899 6.084393 0.992997
7111.603000 7111.600000 0.500000 2.419841 68.399705 6.083175 0.958258
7111.702000 7111.700000 0.500000 2.420108 68.385498 6.080287 0.926304
7111.807000 7111.800000 0.500000 2.420072 68.450398 6.086285 0.896534
7111.901000 7111.900000 0.500000 2.420084 68.401524 6.081862 0.872276
7112.000000 7112.000000 0.500000 2.419995 68.347191 6.077560 0.846843
7112.101000 7112.100000 0.500000 2.419894 68.346484 6.078126 0.823735
7112.195000 7112.200000 0.500000 2.420022 68.338950 6.076663 0.806104
7112.302000 7112.300000 0.500000 2.419883 68.348240 6.078331 0.786165
7112.397000 7112.400000 0.500000 2.419829 68.340618 6.078014 0.769592
7112.497000 7112.500000 0.500000 2.419959 68.317243 6.075135 0.753651
7112.598000 7112.600000 0.500000 2.419830 68.268845 6.071606 0.737918
7112.697000 7112.700000 0.500000 2.420048 68.292972 6.072420 0.724617
7112.795000 7112.800000 0.500000 2.420226 68.290288 6.071114 0.711139
7112.894000 7112.900000 0.500000 2.420274 68.264693 6.068559 0.698554
7112.997000 7113.000000 0.500000 2.420054 68.290251 6.072150 0.686676
7113.096000 7113.100000 0.500000 2.420300 68.294278 6.071029 0.674362
7113.203000 7113.200000 0.500000 2.420331 68.236768 6.065693 0.662133
7113.297000 7113.300000 0.500000 2.420335 68.193729 6.061852 0.651776
7113.396000 7113.400000 0.500000 2.420661 68.196533 6.060157 0.641923
7113.499000 7113.500000 0.500000 2.420759 68.194653 6.059378 0.631757
7113.600000 7113.600000 0.500000 2.421055 68.211229 6.059059 0.621416
7113.705000 7113.700000 0.500000 2.421068 68.186643 6.056782 0.613303
7113.797000 7113.800000 0.500000 2.421242 68.190588 6.056099 0.604340
7113.905000 7113.900000 0.500000 2.421340 68.220907 6.058148 0.595958
7114.003000 7114.000000 0.500000 2.421620 68.180469 6.052880 0.587275
7114.100000 7114.100000 0.500000 2.422031 68.127717 6.045735 0.579554
7114.203000 7114.200000 0.500000 2.422349 68.130306 6.044055 0.571985
7114.302000 7114.300000 0.500000 2.422715 68.126944 6.041487 0.565992
7114.405000 7114.400000 0.500000 2.423113 68.115723 6.038139 0.558198
7114.501000 7114.500000 0.500000 2.423738 68.088177 6.031918 0.552705
7114.602000 7114.600000 0.500000 2.424392 68.100508 6.029077 0.546817
7114.701000 7114.700000 0.500000 2.424962 68.100087 6.025559 0.542415
7114.799000 7114.800000 0.500000 2.425563 68.102279 6.022171 0.538310
7114.902000 7114.900000 0.500000 2.426432 68.095849 6.016317 0.533816
7114.999000 7115.000000 0.500000 2.427342 68.099252 6.011136 0.530382
7115.102000 7115.100000 0.500000 2.428189 68.105372 6.006545 0.525449
7115.199000 7115.200000 0.500000 2.428934 68.103406 6.001927 0.523743
7115.300000 7115.300000 0.500000 2.429917 68.080349 5.993990 0.519766
7115.396000 7115.400000 0.500000 2.430638 68.083367 5.989967 0.518663
7115.497000 7115.500000 0.500000 2.431337 68.094930 5.986792 0.516014
7115.594000 7115.600000 0.500000 2.432012 68.094849 5.982806 0.513371
7115.697000 7115.700000 0.500000 2.432448 68.079206 5.978848 0.512856
7115.800000 7115.800000 0.500000 2.432908 68.065352 5.974827 0.510928
7115.896000 7115.900000 0.500000 2.433402 68.070690 5.972460 0.507453
7116.004000 7116.000000 0.500000 2.433932 68.065173 5.968729 0.506511
7116.098000 7116.100000 0.500000 2.433921 68.062194 5.968533 0.505398
7116.203000 7116.200000 0.500000 2.434329 68.046456 5.964736 0.503060
7116.298000 7116.300000 0.500000 2.434208 68.038078 5.964688 0.500531
7116.407000 7116.400000 0.500000 2.434290 68.050581 5.965317 0.497606
7116.500000 7116.500000 0.500000 2.434161 68.025013 5.963840 0.495426
7116.603000 7116.600000 0.500000 2.433896 68.012562 5.964316 0.491987
7116.701000 7116.700000 0.500000 2.433979 68.004971 5.963187 0.488320
7116.802000 7116.800000 0.500000 2.433569 68.000254 5.965199 0.483239
7116.903000 7116.900000 0.500000 2.433472 67.989524 5.964852 0.478179
7117.002000 7117.000000 0.500000 2.433288 67.975847 5.964735 0.473181
7117.101000 7117.100000 0.500000 2.433182 67.974002 5.965202 0.468447
7117.198000 7117.200000 0.500000 2.433162 67.937877 5.962155 0.460122
7117.303000 7117.300000 0.500000 2.433048 67.925323 5.961717 0.452681
7117.397000 7117.400000 0.500000 2.433006 67.962923 5.965280 0.446430
7117.498000 7117.500000 0.500000 2.433219 67.932253 5.961333 0.436999
7117.595000 7117.600000 0.500000 2.433466 67.939607 5.960505 0.427897
7117.700000 7117.700000 0.500000 2.433851 67.908347 5.955394 0.418777
7117.797000 7117.800000 0.500000 2.434323 67.886704 5.950784 0.410338
7117.896000 7117.900000 0.500000 2.434827 67.885089 5.947683 0.401342
7117.999000 7118.000000 0.500000 2.435313 67.886788 5.944865 0.392008
7118.098000 7118.100000 0.500000 2.436320 67.881408 5.938413 0.382577
7118.199000 7118.200000 0.500000 2.437385 67.853124 5.929452 0.373149
7118.297000 7118.300000 0.500000 2.438712 67.825723 5.919540 0.364769
7118.398000 7118.400000 0.500000 2.439834 67.828067 5.912843 0.354111
7118.499000 7118.500000 0.500000 2.441222 67.824635 5.904524 0.345155
7118.602000 7118.600000 0.500000 2.442712 67.809621 5.894208 0.335596
7118.701000 7118.700000 0.500000 2.444752 67.808205 5.882198 0.326187
7118.804000 7118.800000 0.500000 2.446702 67.781282 5.868310 0.317926
7118.901000 7118.900000 0.500000 2.448384 67.773112 5.857845 0.308669
7119.002000 7119.000000 0.500000 2.450633 67.765372 5.844017 0.299162
7119.103000 7119.100000 0.500000 2.452597 67.728787 5.829403 0.290693
7119.202000 7119.200000 0.500000 2.454673 67.725618 5.817038 0.283277
7119.301000 7119.300000 0.500000 2.456656 67.718010 5.804863 0.274565
7119.397000 7119.400000 0.500000 2.458654 67.700301 5.792079 0.266932
7119.501000 7119.500000 0.500000 2.460730 67.669368 5.777310 0.258683
7119.597000 7119.600000 0.500000 2.462635 67.676418 5.767009 0.251353
7119.705000 7119.700000 0.500000 2.464290 67.648516 5.754549 0.243272
7119.799000 7119.800000 0.500000 2.466347 67.640341 5.742481 0.235901
7119.900000 7119.900000 0.500000 2.468194 67.604460 5.728650 0.228567
7119.997000 7120.000000 0.500000 2.470086 67.602192 5.717851 0.222906
7120.100000 7120.100000 0.500000 2.471836 67.564550 5.704456 0.216575
7120.197000 7120.200000 0.500000 2.473778 67.560544 5.693047 0.209373
7120.298000 7120.300000 0.500000 2.475785 67.456547 5.672894 0.202923
7120.399000 7120.400000 0.500000 2.477838 67.497927 5.664595 0.197533
7120.496000 7120.500000 0.500000 2.479998 67.502750 5.652912 0.191386
7120.601000 7120.600000 0.500000 2.482560 67.468942 5.635486 0.184962
7120.698000 7120.700000 0.500000 2.484992 67.646034 5.636542 0.180734
7120.801000 7120.800000 0.500000 2.487359 67.610410 5.619971 0.175050
7120.900000 7120.900000 0.500000 2.490241 67.603817 5.603511 0.170448
7121.001000 7121.000000 0.500000 2.493200 67.584761 5.585204 0.166147
7121.100000 7121.100000 0.500000 2.496196 67.556058 5.565906 0.160391
7121.201000 7121.200000 0.500000 2.499681 67.526807 5.544709 0.156247
7121.302000 7121.300000 0.500000 2.503042 67.508759 5.524021 0.152959
7121.403000 7121.400000 0.500000 2.506750 67.462363 5.499959 0.147354
7121.502000 7121.500000 0.500000 2.510752 67.448435 5.477073 0.144730
7121.603000 7121.600000 0.500000 2.514800 67.434590 5.453631 0.139890
7121.704000 7121.700000 0.500000 2.518839 67.431666 5.431598 0.136338
7121.801000 7121.800000 0.500000 2.523018 67.411560 5.407790 0.133189
7121.902000 7121.900000 0.500000 2.527547 67.345007 5.377814 0.129874
7122.001000 7122.000000 0.500000 2.532280 67.310766 5.349454 0.127131
7122.100000 7122.100000 0.500000 2.536999 67.292106 5.323772 0.123901
7122.203000 7122.200000 0.500000 2.541726 67.244363 5.294177 0.121370
7122.296000 7122.300000 0.500000 2.546328 67.232431 5.269723 0.119033
7122.397000 7122.400000 0.500000 2.551213 67.200018 5.241741 0.116718
7122.498000 7122.500000 0.500000 2.556243 67.184020 5.213729 0.114302
7122.599000 7122.600000 0.500000 2.561081 67.135554 5.184760 0.111783
7122.698000 7122.700000 0.500000 2.566167 67.082979 5.154738 0.109098
7122.795000 7122.800000 0.500000 2.571111 67.057601 5.127409 0.106609
7122.898000 7122.900000 0.500000 2.575849 67.161856 5.110522 0.105386
7122.997000 7123.000000 0.500000 2.580586 67.146147 5.086002 0.102858
7123.098000 7123.100000 0.500000 2.585103 67.103713 5.059075 0.100526
7123.199000 7123.200000 0.500000 2.589410 67.074413 5.034902 0.099884
7123.298000 7123.300000 0.500000 2.593350 67.017206 5.011024 0.097533
7123.401000 7123.400000 0.500000 2.597133 67.013833 4.991472 0.095917
7123.498000 7123.500000 0.500000 2.600522 66.961453 4.970710 0.093753
7123.601000 7123.600000 0.500000 2.603958 66.923215 4.950838 0.092576
7123.703000 7123.700000 0.500000 2.607015 66.879506 4.932122 0.091453
7123.797000 7123.800000 0.500000 2.609858 66.843421 4.915873 0.089641
7123.905000 7123.900000 0.500000 2.612580 66.780882 4.897793 0.088539
7124.002000 7124.000000 0.500000 2.615251 66.759936 4.883173 0.087225
7124.103000 7124.100000 0.500000 2.617484 66.729533 4.869952 0.086058
7124.204000 7124.200000 0.500000 2.619756 66.716631 4.858125 0.085130
7124.301000 7124.300000 0.500000 2.622096 66.667597 4.843430 0.083125
7124.404000 7124.400000 0.500000 2.624408 66.615981 4.828086 0.083074
7124.501000 7124.500000 0.500000 2.626638 66.618617 4.817833 0.081706
7124.602000 7124.600000 0.500000 2.628693 66.587696 4.805815 0.080406
7124.703000 7124.700000 0.500000 2.630928 66.513730 4.789645 0.079635
7124.798000 7124.800000 0.500000 2.633323 66.527835 4.779557 0.078667
7124.901000 7124.900000 0.500000 2.635423 66.483573 4.765734 0.078140
7124.998000 7125.000000 0.500000 2.637516 66.470836 4.755134 0.076613
7125.095000 7125.100000 0.500000 2.639806 66.416120 4.740266 0.074918
7125.201000 7125.200000 0.500000 2.641987 66.397155 4.729279 0.075103
7125.295000 7125.300000 0.500000 2.644239 66.381329 4.717725 0.073495
7125.396000 7125.400000 0.500000 2.646069 66.351710 4.706851 0.072844
7125.496000 7125.500000 0.500000 2.648050 66.304355 4.694294 0.071730
7125.597000 7125.600000 0.500000 2.649595 66.279992 4.684992 0.071024
