# XDI/1.0 BlueSky/1.5.3
# Beamline.name: 6BM
# Beamline.xray_source: NSLS-II three-pole wiggler
# Beamline.collimation: paraboloid mirror, 5 nm Rh on 30 nm Pt
# Beamline.focusing: not in use
# Beamline.harmonic_rejection: flat mirror, Si stripe, pitch = 7.0 mrad relative to beam
# Detector.i0: 10 cm N2
# Detector.i1: 25 cm N2
# Detector.i2: 25 cm N2
# Element.symbol: Fe
# Element.edge: K
# Facility.name: NSLS-II
# Facility.energy: 3.0
# Facility.current: 401.2
# Facility.mode: top-off
# Facility.gup: 301027
# Facility.saf: 304793
# Facility.cycle: 2020-1
# Mono.name: Si(111)
# Mono.d_spacing: 3.1353241
# Mono.encoder_resolution: 0.0000050 deg/ct
# Mono.angle_offset: 16.0581090 deg
# Mono.scan_mode: fixed exit
# Mono.scan_type: step
# Mono.direction: forward in energy
# Sample.name: MnFe2O4
# Sample.prep: Powder in polyethylene glycol pellet
# Sample.x_position: -122.297 mm
# Sample.y_position: 119.848 mm
# Scan.experimenters: Bruce Ravel
# Scan.edge_energy: 7112.0
# Scan.start_time: 2020-01-14T22:55:32
# Scan.end_time: 2020-01-14T23:33:53
# Scan.transient_id: 19547
# Scan.uid: 0759c084-5616-4f31-a998-a91a6b387149
# Scan.plot_hint: ln(I0/It)  --  ln($5/$6)
# Scan.sequence: merge of 2 scans
# Column.1: energy eV
# Column.2: requested_energy eV
# Column.3: measurement_time seconds
# Column.4: mutrans
# Column.5: i0
# Column.6: itrans
# Column.7: irefer
# /////
#  Jakobsberg Mine, Nordmark, Sweden
# -----
# energy   requested_energy   measurement_time   mutrans   i0   itrans   irefer
6912.001000 6912.000000 0.500000 1.870704 71.091736 10.949325 3.041177
6922.010000 6922.000000 0.500000 1.861097 70.851456 11.017633 3.073311
6932.012000 6932.000000 0.500000 1.850842 70.694373 11.106481 3.111338
6942.016000 6942.000000 0.500000 1.841216 70.524174 11.186872 3.146988
6952.014000 6952.000000 0.500000 1.831241 70.379018 11.275751 3.185957
6962.019000 6962.000000 0.500000 1.821077 70.277014 11.374363 3.226609
6972.015000 6972.000000 0.500000 1.810218 70.128861 11.474355 3.269852
6982.020000 6982.000000 0.500000 1.800228 69.979737 11.564941 3.308498
6992.014000 6992.000000 0.500000 1.790771 69.821999 11.648531 3.347519
7002.017000 7002.000000 0.500000 1.781017 69.708423 11.743596 3.387681
7012.019000 7012.000000 0.500000 1.771870 69.569626 11.827874 3.427747
7022.017000 7022.000000 0.500000 1.762827 69.419585 11.909584 3.464291
7032.014000 7032.000000 0.500000 1.753190 69.259251 11.997129 3.502293
7042.011000 7042.000000 0.500000 1.743688 69.124104 12.088054 3.542374
7052.010000 7052.000000 0.500000 1.734259 69.009929 12.182393 3.583181
7062.007000 7062.000000 0.500000 1.725063 68.275407 12.164082 3.588004
7072.008000 7072.000000 0.500000 1.715899 68.714177 12.354950 3.653608
7082.012000 7082.000000 0.500000 1.707232 68.578361 12.437909 3.682179
7084.015000 7084.000000 0.500000 1.705356 68.616735 12.468228 3.690525
7086.008000 7086.000000 0.500000 1.703965 68.625735 12.487201 3.696657
7088.005000 7088.000000 0.500000 1.702241 68.623872 12.508407 3.701237
7090.005000 7090.000000 0.500000 1.700349 68.613408 12.530194 3.704440
7092.006000 7092.000000 0.500000 1.698838 68.540871 12.535885 3.702885
7094.004000 7094.000000 0.500000 1.697412 68.584868 12.561797 3.705928
7096.001000 7096.000000 0.500000 1.695879 68.630696 12.589447 3.709113
7098.002000 7098.000000 0.500000 1.694530 68.588767 12.598781 3.703643
7100.001000 7100.000000 0.500000 1.693196 68.518504 12.602680 3.692453
7102.002000 7102.000000 0.500000 1.692269 68.514720 12.613631 3.677798
7102.081000 7102.100000 0.500000 1.692147 68.535602 12.618996 3.679179
7102.182000 7102.200000 0.500000 1.691949 68.574301 12.628664 3.680110
7102.280000 7102.300000 0.500000 1.692217 68.535845 12.618207 3.675897
7102.381000 7102.400000 0.500000 1.692225 68.608853 12.631539 3.679756
7102.481000 7102.500000 0.500000 1.692128 68.610746 12.633112 3.677835
7102.582000 7102.600000 0.500000 1.692029 68.610375 12.634291 3.678722
7102.682000 7102.700000 0.500000 1.692039 68.661472 12.643561 3.680134
7102.785000 7102.800000 0.500000 1.692102 68.643476 12.639473 3.676030
7102.885000 7102.900000 0.500000 1.691952 68.644514 12.641573 3.676554
7102.984000 7103.000000 0.500000 1.691914 68.637146 12.640640 3.675394
7103.086000 7103.100000 0.500000 1.692002 68.645551 12.641143 3.673228
7103.191000 7103.200000 0.500000 1.691815 68.658123 12.645871 3.673636
7103.287000 7103.300000 0.500000 1.691639 68.642445 12.645121 3.672106
7103.386000 7103.400000 0.500000 1.691533 68.637081 12.645485 3.670121
7103.493000 7103.500000 0.500000 1.691532 68.689514 12.655010 3.673513
7103.591000 7103.600000 0.500000 1.691654 68.747081 12.664201 3.673657
7103.690000 7103.700000 0.500000 1.691620 68.784129 12.671472 3.674598
7103.790000 7103.800000 0.500000 1.691587 68.746740 12.665261 3.670832
7103.893000 7103.900000 0.500000 1.691176 68.724184 12.665924 3.669964
7103.993000 7104.000000 0.500000 1.691329 68.725222 12.664279 3.667026
7104.092000 7104.100000 0.500000 1.691368 68.758773 12.669989 3.667380
7104.192000 7104.200000 0.500000 1.691281 68.756843 12.670796 3.666048
7104.295000 7104.300000 0.500000 1.691294 68.754098 12.670036 3.664652
7104.393000 7104.400000 0.500000 1.691236 68.732690 12.666831 3.661376
7104.490000 7104.500000 0.500000 1.691238 68.683269 12.657698 3.656254
7104.595000 7104.600000 0.500000 1.691113 68.719372 12.665948 3.657111
7104.695000 7104.700000 0.500000 1.691092 68.771100 12.675763 3.656927
7104.794000 7104.800000 0.500000 1.691104 68.769588 12.675337 3.655156
7104.892000 7104.900000 0.500000 1.690955 68.749916 12.673573 3.652970
7104.993000 7105.000000 0.500000 1.691122 68.756654 12.672704 3.650368
7105.095000 7105.100000 0.500000 1.691003 68.774952 12.677594 3.649417
7105.192000 7105.200000 0.500000 1.690898 68.770389 12.678009 3.647324
7105.294000 7105.300000 0.500000 1.690999 68.790074 12.680430 3.646000
7105.393000 7105.400000 0.500000 1.690962 68.748773 12.673236 3.641556
7105.493000 7105.500000 0.500000 1.690976 68.737949 12.671186 3.638465
7105.592000 7105.600000 0.500000 1.690986 68.781829 12.679070 3.637322
7105.690000 7105.700000 0.500000 1.690857 68.819294 12.687569 3.638079
7105.793000 7105.800000 0.500000 1.690849 68.804706 12.684987 3.635299
7105.896000 7105.900000 0.500000 1.690812 68.777308 12.680468 3.630341
7105.992000 7106.000000 0.500000 1.690641 68.773151 12.681789 3.627696
7106.093000 7106.100000 0.500000 1.690640 68.795626 12.686012 3.625317
7106.196000 7106.200000 0.500000 1.690670 68.800688 12.686554 3.622338
7106.294000 7106.300000 0.500000 1.690553 68.789712 12.685976 3.619170
7106.392000 7106.400000 0.500000 1.690576 68.806759 12.688860 3.615921
7106.495000 7106.500000 0.500000 1.690663 68.745074 12.676491 3.609719
7106.598000 7106.600000 0.500000 1.690527 68.781121 12.684779 3.607527
7106.699000 7106.700000 0.500000 1.690421 68.792841 12.688248 3.604293
7106.795000 7106.800000 0.500000 1.690524 68.807091 12.689623 3.600987
7106.902000 7106.900000 0.500000 1.690595 68.803315 12.688039 3.596342
7106.998000 7107.000000 0.500000 1.690561 68.811438 12.689903 3.592910
7107.095000 7107.100000 0.500000 1.690422 68.755883 12.681432 3.585034
7107.195000 7107.200000 0.500000 1.690423 68.736032 12.677766 3.579401
7107.302000 7107.300000 0.500000 1.690408 68.751700 12.680914 3.575204
7107.399000 7107.400000 0.500000 1.690396 68.795182 12.689022 3.572878
7107.500000 7107.500000 0.500000 1.690447 68.787095 12.686881 3.567115
7107.600000 7107.600000 0.500000 1.690354 68.743920 12.680029 3.559021
7107.703000 7107.700000 0.500000 1.690476 68.757253 12.681083 3.553738
7107.801000 7107.800000 0.500000 1.690394 68.769684 12.684328 3.547693
7107.900000 7107.900000 0.500000 1.690437 68.787862 12.687145 3.542286
7108.003000 7108.000000 0.500000 1.690523 68.765269 12.681887 3.532857
7108.101000 7108.100000 0.500000 1.690473 68.735677 12.677070 3.524059
7108.198000 7108.200000 0.500000 1.690570 68.696407 12.668608 3.513189
7108.301000 7108.300000 0.500000 1.690505 68.668530 12.664274 3.504458
7108.401000 7108.400000 0.500000 1.690556 68.722171 12.673535 3.498278
7108.500000 7108.500000 0.500000 1.690477 68.738825 12.677605 3.489735
7108.600000 7108.600000 0.500000 1.690611 68.734293 12.675032 3.478397
7108.701000 7108.700000 0.500000 1.690621 68.732370 12.674589 3.468445
7108.798000 7108.800000 0.500000 1.690498 68.759805 12.681192 3.457224
7108.898000 7108.900000 0.500000 1.690624 68.719473 12.672213 3.442803
7108.999000 7109.000000 0.500000 1.690664 68.639218 12.656847 3.425061
7109.098000 7109.100000 0.500000 1.690616 68.695891 12.667925 3.414394
7109.192000 7109.200000 0.500000 1.690797 68.735070 12.673013 3.399728
7109.295000 7109.300000 0.500000 1.690650 68.726421 12.673048 3.382881
7109.397000 7109.400000 0.500000 1.690824 68.687865 12.663871 3.360750
7109.496000 7109.500000 0.500000 1.690890 68.663786 12.658537 3.340790
7109.595000 7109.600000 0.500000 1.690821 68.857589 12.695112 3.328323
7109.697000 7109.700000 0.500000 1.690872 68.854818 12.694036 3.301202
7109.796000 7109.800000 0.500000 1.690986 68.839228 12.689681 3.272042
7109.892000 7109.900000 0.500000 1.691229 68.832455 12.685555 3.239911
7109.998000 7110.000000 0.500000 1.691422 68.845260 12.685237 3.203273
7110.098000 7110.100000 0.500000 1.691546 68.855102 12.685475 3.162611
7110.195000 7110.200000 0.500000 1.691600 68.821988 12.678684 3.115353
7110.295000 7110.300000 0.500000 1.691693 68.824610 12.678002 3.063299
7110.398000 7110.400000 0.500000 1.691917 68.829416 12.676076 3.003226
7110.499000 7110.500000 0.500000 1.691972 68.830312 12.675494 2.936801
7110.602000 7110.600000 0.500000 1.692121 68.818292 12.671259 2.860363
7110.698000 7110.700000 0.500000 1.692403 68.813481 12.666891 2.782196
7110.801000 7110.800000 0.500000 1.692716 68.793455 12.659256 2.695702
7110.902000 7110.900000 0.500000 1.692992 68.989414 12.691818 2.613108
7110.999000 7111.000000 0.500000 1.693310 68.984094 12.686846 2.525800
7111.104000 7111.100000 0.500000 1.693694 68.940711 12.673789 2.426125
7111.202000 7111.200000 0.500000 1.694253 68.949376 12.668350 2.338245
7111.301000 7111.300000 0.500000 1.694726 68.978642 12.667874 2.250711
7111.404000 7111.400000 0.500000 1.695273 68.962311 12.657945 2.166547
7111.502000 7111.500000 0.500000 1.695827 68.941220 12.646990 2.086844
7111.601000 7111.600000 0.500000 1.696595 68.916606 12.632855 2.012026
7111.704000 7111.700000 0.500000 1.697576 68.905175 12.618391 1.943418
7111.800000 7111.800000 0.500000 1.698524 68.926249 12.610465 1.882695
7111.901000 7111.900000 0.500000 1.699682 68.931001 12.596840 1.823701
7112.000000 7112.000000 0.500000 1.700918 68.936463 12.581777 1.771104
7112.098000 7112.100000 0.500000 1.702659 68.928740 12.559188 1.721583
7112.199000 7112.200000 0.500000 1.704314 68.927614 12.537931 1.676465
7112.298000 7112.300000 0.500000 1.706341 68.873238 12.502697 1.633636
7112.399000 7112.400000 0.500000 1.708430 68.889327 12.479543 1.593818
7112.493000 7112.500000 0.500000 1.710529 68.866913 12.449352 1.558666
7112.598000 7112.600000 0.500000 1.712856 68.835998 12.414548 1.522613
7112.697000 7112.700000 0.500000 1.715143 68.843882 12.387624 1.490668
7112.795000 7112.800000 0.500000 1.717445 68.879901 12.365596 1.460620
7112.898000 7112.900000 0.500000 1.719785 68.897920 12.339687 1.430223
7112.997000 7113.000000 0.500000 1.721662 68.859783 12.309758 1.402630
7113.102000 7113.100000 0.500000 1.723639 68.837508 12.281245 1.375011
7113.199000 7113.200000 0.500000 1.725178 68.785178 12.253337 1.349266
7113.300000 7113.300000 0.500000 1.726405 68.791479 12.239230 1.326120
7113.400000 7113.400000 0.500000 1.727410 68.815483 12.231461 1.304429
7113.499000 7113.500000 0.500000 1.728131 68.803211 12.220480 1.283244
7113.604000 7113.600000 0.500000 1.728340 68.817392 12.220563 1.263593
7113.701000 7113.700000 0.500000 1.728168 68.762226 12.212815 1.245297
7113.804000 7113.800000 0.500000 1.727570 68.737839 12.215890 1.227902
7113.905000 7113.900000 0.500000 1.726863 68.737904 12.224623 1.211106
7114.001000 7114.000000 0.500000 1.725904 68.773318 12.242622 1.196703
7114.102000 7114.100000 0.500000 1.724702 68.765015 12.256048 1.183830
7114.201000 7114.200000 0.500000 1.723349 68.738485 12.267420 1.171372
7114.302000 7114.300000 0.500000 1.721968 68.720235 12.281292 1.158552
7114.402000 7114.400000 0.500000 1.720716 68.734544 12.299228 1.146568
7114.497000 7114.500000 0.500000 1.719402 68.736883 12.315331 1.137740
7114.602000 7114.600000 0.500000 1.718023 68.745262 12.334484 1.128334
7114.699000 7114.700000 0.500000 1.716804 68.745766 12.349179 1.120050
7114.799000 7114.800000 0.500000 1.716113 68.727180 12.354560 1.111831
7114.900000 7114.900000 0.500000 1.715070 68.712981 12.365061 1.104432
7114.995000 7115.000000 0.500000 1.714318 68.727566 12.376573 1.098925
7115.102000 7115.100000 0.500000 1.713764 68.742981 12.386572 1.093265
7115.196000 7115.200000 0.500000 1.713429 68.702188 12.383277 1.087269
7115.297000 7115.300000 0.500000 1.713160 68.675138 12.381743 1.081665
7115.398000 7115.400000 0.500000 1.713007 68.698736 12.387942 1.079211
7115.495000 7115.500000 0.500000 1.712932 68.749664 12.398001 1.075908
7115.602000 7115.600000 0.500000 1.713161 68.754446 12.396078 1.071599
7115.697000 7115.700000 0.500000 1.713205 68.725189 12.390247 1.068520
7115.798000 7115.800000 0.500000 1.713354 68.707518 12.385227 1.063880
7115.901000 7115.900000 0.500000 1.713599 68.676796 12.376602 1.059946
7115.999000 7116.000000 0.500000 1.713868 68.670827 12.372190 1.057824
7116.102000 7116.100000 0.500000 1.714411 68.749488 12.379585 1.054128
7116.199000 7116.200000 0.500000 1.714650 68.723326 12.372068 1.049378
7116.304000 7116.300000 0.500000 1.715090 68.686977 12.359835 1.043957
7116.403000 7116.400000 0.500000 1.715533 68.706248 12.357879 1.039012
7116.504000 7116.500000 0.500000 1.716060 68.715431 12.353034 1.032181
7116.603000 7116.600000 0.500000 1.716457 68.704922 12.346146 1.024657
7116.704000 7116.700000 0.500000 1.717033 68.683530 12.335329 1.016388
7116.802000 7116.800000 0.500000 1.717360 68.640563 12.323691 1.005626
7116.899000 7116.900000 0.500000 1.717858 68.634479 12.316394 0.994150
7117.004000 7117.000000 0.500000 1.718447 68.635964 12.309334 0.982571
7117.099000 7117.100000 0.500000 1.718952 68.599223 12.296739 0.969518
7117.200000 7117.200000 0.500000 1.719400 68.622348 12.295222 0.955306
7117.301000 7117.300000 0.500000 1.720132 68.613277 12.284775 0.938575
7117.397000 7117.400000 0.500000 1.720767 68.631374 12.280335 0.923026
7117.500000 7117.500000 0.500000 1.721318 68.609265 12.269426 0.906131
7117.599000 7117.600000 0.500000 1.721998 68.574540 12.255070 0.886755
7117.700000 7117.700000 0.500000 1.722811 68.559569 12.242412 0.866967
7117.799000 7117.800000 0.500000 1.723373 68.593289 12.241440 0.848420
7117.898000 7117.900000 0.500000 1.724201 68.613536 12.235205 0.830039
7117.999000 7118.000000 0.500000 1.724959 68.570135 12.218175 0.810429
7118.095000 7118.100000 0.500000 1.725653 68.528917 12.202266 0.792308
7118.196000 7118.200000 0.500000 1.726438 68.470229 12.182470 0.772050
7118.297000 7118.300000 0.500000 1.727794 68.467709 12.165518 0.751729
7118.396000 7118.400000 0.500000 1.729094 68.539188 12.162565 0.733558
7118.501000 7118.500000 0.500000 1.730048 68.493094 12.142174 0.713556
7118.600000 7118.600000 0.500000 1.731367 68.465693 12.122182 0.694556
7118.699000 7118.700000 0.500000 1.732753 68.462408 12.103950 0.677169
7118.802000 7118.800000 0.500000 1.734218 68.436535 12.079620 0.657043
7118.899000 7118.900000 0.500000 1.736112 68.393086 12.051131 0.639552
7119.000000 7119.000000 0.500000 1.738115 68.349045 12.021290 0.619788
7119.101000 7119.100000 0.500000 1.740022 68.291899 11.988226 0.601816
7119.200000 7119.200000 0.500000 1.742026 68.335006 11.971436 0.585646
7119.305000 7119.300000 0.500000 1.744459 68.356040 11.945763 0.567193
7119.397000 7119.400000 0.500000 1.746903 68.345509 11.916542 0.552153
7119.505000 7119.500000 0.500000 1.749407 68.306986 11.877623 0.533704
7119.602000 7119.600000 0.500000 1.752172 68.278244 11.840553 0.518384
7119.698000 7119.700000 0.500000 1.754922 68.268056 11.806700 0.501974
7119.802000 7119.800000 0.500000 1.758017 68.261593 11.768748 0.486447
7119.900000 7119.900000 0.500000 1.761236 68.223063 11.724768 0.470864
7120.001000 7120.000000 0.500000 1.764345 68.162006 11.677389 0.457089
7120.100000 7120.100000 0.500000 1.768092 68.158508 11.633821 0.441306
7120.197000 7120.200000 0.500000 1.771720 68.121267 11.585323 0.428248
7120.298000 7120.300000 0.500000 1.775501 68.096317 11.536249 0.414858
7120.399000 7120.400000 0.500000 1.779381 68.033975 11.480658 0.400678
7120.496000 7120.500000 0.500000 1.783738 68.030857 11.431796 0.388270
7120.595000 7120.600000 0.500000 1.788555 68.038714 11.377739 0.376805
7120.698000 7120.700000 0.500000 1.793284 68.010043 11.318263 0.364075
7120.795000 7120.800000 0.500000 1.798277 67.982508 11.258626 0.352232
7120.896000 7120.900000 0.500000 1.803451 67.924182 11.190854 0.340544
7120.999000 7121.000000 0.500000 1.808766 67.876191 11.121925 0.329800
7121.094000 7121.100000 0.500000 1.814268 67.905049 11.067441 0.320021
7121.199000 7121.200000 0.500000 1.820251 67.900486 10.999501 0.310632
7121.298000 7121.300000 0.500000 1.826213 67.859777 10.928233 0.301093
7121.397000 7121.400000 0.500000 1.832124 67.824930 10.856951 0.291494
7121.502000 7121.500000 0.500000 1.838263 67.785302 10.783484 0.282870
7121.601000 7121.600000 0.500000 1.844861 67.770447 10.711637 0.275751
7121.700000 7121.700000 0.500000 1.850780 67.723985 10.641043 0.268266
7121.803000 7121.800000 0.500000 1.856715 67.666214 10.567065 0.260568
7121.900000 7121.900000 0.500000 1.863096 67.667127 10.501352 0.254122
7121.999000 7122.000000 0.500000 1.868851 67.654895 10.439202 0.247536
7122.104000 7122.100000 0.500000 1.874951 67.649702 10.373764 0.241967
7122.207000 7122.200000 0.500000 1.880732 67.580426 10.303364 0.236960
7122.300000 7122.300000 0.500000 1.886374 67.548240 10.242892 0.231259
7122.405000 7122.400000 0.500000 1.892166 67.491162 10.172869 0.225387
7122.502000 7122.500000 0.500000 1.897432 67.420772 10.109360 0.221438
7122.601000 7122.600000 0.500000 1.903056 67.481558 10.062323 0.216417
7122.702000 7122.700000 0.500000 1.908819 67.564447 10.017878 0.212046
7122.803000 7122.800000 0.500000 1.914490 67.537733 9.956770 0.207440
7122.902000 7122.900000 0.500000 1.919784 67.477908 9.894362 0.202894
7123.003000 7123.000000 0.500000 1.925267 67.430716 9.834647 0.199217
7123.102000 7123.100000 0.500000 1.930904 67.433272 9.780356 0.195233
7123.199000 7123.200000 0.500000 1.936395 67.360693 9.716855 0.191692
7123.300000 7123.300000 0.500000 1.941877 67.321962 9.656838 0.186861
7123.401000 7123.400000 0.500000 1.947447 67.296009 9.600733 0.184429
7123.498000 7123.500000 0.500000 1.953062 67.263678 9.542571 0.180319
7123.595000 7123.600000 0.500000 1.958532 67.239019 9.486650 0.176725
7123.703000 7123.700000 0.500000 1.964155 67.356172 9.448341 0.174222
7123.797000 7123.800000 0.500000 1.969742 67.343775 9.395863 0.172474
7123.898000 7123.900000 0.500000 1.975475 67.297991 9.336236 0.168389
7124.002000 7124.000000 0.500000 1.981009 67.258156 9.276914 0.164437
7124.096000 7124.100000 0.500000 1.986588 67.222162 9.221159 0.162727
7124.198000 7124.200000 0.500000 1.992630 67.182035 9.161007 0.159898
7124.301000 7124.300000 0.500000 1.998553 67.094001 9.093332 0.157222
7124.398000 7124.400000 0.500000 2.004722 67.110230 9.040159 0.153568
7124.497000 7124.500000 0.500000 2.010942 67.055925 8.976853 0.151157
7124.598000 7124.600000 0.500000 2.017472 67.069976 8.920838 0.149302
7124.701000 7124.700000 0.500000 2.024032 67.072269 8.860465 0.146596
7124.798000 7124.800000 0.500000 2.030950 67.027123 8.795301 0.144313
7124.901000 7124.900000 0.500000 2.038171 66.989966 8.725929 0.140859
7125.003000 7125.000000 0.500000 2.045734 66.948076 8.653814 0.138681
7125.102000 7125.100000 0.500000 2.052863 66.889190 8.584769 0.135225
7125.205000 7125.200000 0.500000 2.060385 66.822708 8.511198 0.134069
