# XDI/1.0 BlueSky/1.5.3
# Beamline.name: 6BM
# Beamline.xray_source: NSLS-II three-pole wiggler
# Beamline.collimation: paraboloid mirror, 5 nm Rh on 30 nm Pt
# Beamline.focusing: not in use
# Beamline.harmonic_rejection: flat mirror, Si stripe, pitch = 7.0 mrad relative to beam
# Detector.i0: 10 cm N2
# Detector.i1: 25 cm N2
# Detector.i2: 25 cm N2
# Element.symbol: Fe
# Element.edge: K
# Facility.name: NSLS-II
# Facility.energy: 3.0
# Facility.current: 400.8
# Facility.mode: top-off
# Facility.gup: 301027
# Facility.saf: 304793
# Facility.cycle: 2020-1
# Mono.name: Si(111)
# Mono.d_spacing: 3.1353241
# Mono.encoder_resolution: 0.0000050 deg/ct
# Mono.angle_offset: 16.0581090 deg
# Mono.scan_mode: fixed exit
# Mono.scan_type: step
# Mono.direction: forward in energy
# Sample.name: MnAl2Si2O6(OH)4
# Sample.prep: Powder in polyethylene glycol pellet
# Sample.x_position: -122.297 mm
# Sample.y_position: 119.848 mm
# Scan.experimenters: Bruce Ravel
# Scan.edge_energy: 7112.0
# Scan.start_time: 2020-01-15T00:12:55
# Scan.end_time: 2020-01-15T00:51:07
# Scan.transient_id: 19551
# Scan.uid: a91eaf3c-ea57-4025-bd6f-3b2d05122a4d
# Scan.plot_hint: ln(I0/It)  --  ln($5/$6)
# Scan.sequence: merge of 2 scans
# Column.1: energy eV
# Column.2: requested_energy eV
# Column.3: measurement_time seconds
# Column.4: mutrans
# Column.5: i0
# Column.6: itrans
# Column.7: irefer
# /////
#  Schlaggenwald, Bohemia, CZ
# -----
# energy   requested_energy   measurement_time   mutrans   i0   itrans   irefer
6911.999000 6912.000000 0.500000 3.238033 71.301402 2.797989 0.783005
6922.006000 6922.000000 0.500000 3.222288 71.075429 2.833372 0.795784
6932.022000 6932.000000 0.500000 3.207798 70.947772 2.869572 0.808504
6942.018000 6942.000000 0.500000 3.192169 70.793158 2.908393 0.823574
6952.018000 6952.000000 0.500000 3.175262 70.628882 2.951101 0.839907
6962.017000 6962.000000 0.500000 3.158834 70.515062 2.995149 0.855410
6972.015000 6972.000000 0.500000 3.143782 70.351425 3.033488 0.870522
6982.014000 6982.000000 0.500000 3.128813 70.238294 3.074330 0.885390
6992.014000 6992.000000 0.500000 3.113863 70.090564 3.114052 0.901296
7002.009000 7002.000000 0.500000 3.099195 69.947126 3.153598 0.915364
7012.017000 7012.000000 0.500000 3.084894 69.798670 3.192235 0.931106
7022.013000 7022.000000 0.500000 3.070828 69.692732 3.232538 0.946914
7032.016000 7032.000000 0.500000 3.055948 69.569459 3.275215 0.964330
7042.013000 7042.000000 0.500000 3.041237 69.396201 3.315477 0.977982
7052.016000 7052.000000 0.500000 3.026778 69.235735 3.355984 0.994539
7062.009000 7062.000000 0.500000 3.012112 68.462086 3.367487 0.999316
7072.010000 7072.000000 0.500000 2.998069 68.992118 3.441550 1.024889
7082.007000 7082.000000 0.500000 2.983887 68.827119 3.482362 1.037764
7084.000000 7084.000000 0.500000 2.981200 68.856186 3.493180 1.041166
7086.008000 7086.000000 0.500000 2.978198 68.867030 3.504275 1.043102
7088.007000 7088.000000 0.500000 2.975510 68.821171 3.511360 1.046465
7090.001000 7090.000000 0.500000 2.972580 68.827527 3.521970 1.048692
7092.008000 7092.000000 0.500000 2.969810 68.865480 3.533710 1.051345
7094.004000 7094.000000 0.500000 2.967122 68.886416 3.544292 1.052852
7095.999000 7096.000000 0.500000 2.964372 68.809649 3.550078 1.052179
7098.004000 7098.000000 0.500000 2.961780 68.755784 3.556524 1.052092
7099.999000 7100.000000 0.500000 2.958750 68.752726 3.567146 1.051074
7101.998000 7102.000000 0.500000 2.956266 68.722019 3.574428 1.048843
7102.083000 7102.100000 0.500000 2.956371 68.750129 3.575538 1.048943
7102.182000 7102.200000 0.500000 2.955761 68.788528 3.579697 1.050663
7102.280000 7102.300000 0.500000 2.955904 68.760571 3.577728 1.049380
7102.381000 7102.400000 0.500000 2.955710 68.728155 3.576738 1.048471
7102.481000 7102.500000 0.500000 2.955535 68.795611 3.580874 1.048594
7102.582000 7102.600000 0.500000 2.955407 68.820362 3.582635 1.049428
7102.682000 7102.700000 0.500000 2.955084 68.772799 3.581302 1.048882
7102.783000 7102.800000 0.500000 2.955190 68.788618 3.581750 1.048952
7102.883000 7102.900000 0.500000 2.954916 68.757018 3.581072 1.047697
7102.984000 7103.000000 0.500000 2.955082 68.777474 3.581552 1.046902
7103.084000 7103.100000 0.500000 2.954842 68.798249 3.583480 1.048065
7103.187000 7103.200000 0.500000 2.954636 68.810320 3.584864 1.048216
7103.285000 7103.300000 0.500000 2.954452 68.813613 3.585685 1.048154
7103.384000 7103.400000 0.500000 2.954449 68.786934 3.584307 1.046990
7103.489000 7103.500000 0.500000 2.953971 68.746370 3.583894 1.046875
7103.589000 7103.600000 0.500000 2.954252 68.759070 3.583572 1.045671
7103.687000 7103.700000 0.500000 2.953988 68.752600 3.584148 1.044596
7103.788000 7103.800000 0.500000 2.953871 68.768946 3.585430 1.045084
7103.893000 7103.900000 0.500000 2.953662 68.750678 3.585245 1.044705
7103.991000 7104.000000 0.500000 2.953568 68.739360 3.584989 1.044320
7104.090000 7104.100000 0.500000 2.953450 68.755326 3.586233 1.043794
7104.190000 7104.200000 0.500000 2.953282 68.751992 3.586663 1.043662
7104.297000 7104.300000 0.500000 2.953307 68.745786 3.586280 1.042912
7104.393000 7104.400000 0.500000 2.952838 68.746135 3.587960 1.042499
7104.492000 7104.500000 0.500000 2.952945 68.739960 3.587267 1.042325
7104.595000 7104.600000 0.500000 2.952755 68.719274 3.586851 1.041100
7104.697000 7104.700000 0.500000 2.952754 68.730851 3.587460 1.041646
7104.798000 7104.800000 0.500000 2.952456 68.748950 3.589477 1.041552
7104.894000 7104.900000 0.500000 2.952237 68.772468 3.591478 1.041994
7104.997000 7105.000000 0.500000 2.952173 68.745103 3.590288 1.040507
7105.100000 7105.100000 0.500000 2.952299 68.699782 3.587491 1.038894
7105.198000 7105.200000 0.500000 2.952097 68.713128 3.588892 1.038679
7105.294000 7105.300000 0.500000 2.951793 68.731829 3.590951 1.038131
7105.397000 7105.400000 0.500000 2.951695 68.721750 3.590793 1.037523
7105.500000 7105.500000 0.500000 2.951645 68.714264 3.590587 1.036639
7105.594000 7105.600000 0.500000 2.951537 68.701173 3.590277 1.037007
7105.695000 7105.700000 0.500000 2.951372 68.681200 3.589827 1.035844
7105.797000 7105.800000 0.500000 2.951308 68.675926 3.589787 1.035133
7105.900000 7105.900000 0.500000 2.951170 68.685007 3.590760 1.033737
7105.992000 7106.000000 0.500000 2.951070 68.706319 3.592222 1.032853
7106.095000 7106.100000 0.500000 2.951065 68.680090 3.590873 1.032487
7106.196000 7106.200000 0.500000 2.950947 68.659315 3.590212 1.031345
7106.296000 7106.300000 0.500000 2.950740 68.662103 3.591093 1.030350
7106.390000 7106.400000 0.500000 2.950357 68.710938 3.595010 1.030395
7106.493000 7106.500000 0.500000 2.950536 68.707777 3.594229 1.029279
7106.594000 7106.600000 0.500000 2.950264 68.639948 3.591618 1.026674
7106.692000 7106.700000 0.500000 2.950338 68.642091 3.591489 1.025826
7106.791000 7106.800000 0.500000 2.950116 68.639251 3.592103 1.025390
7106.896000 7106.900000 0.500000 2.949935 68.649810 3.593346 1.024368
7106.996000 7107.000000 0.500000 2.949803 68.624335 3.592491 1.023100
7107.095000 7107.100000 0.500000 2.949775 68.672640 3.595114 1.022734
7107.195000 7107.200000 0.500000 2.949386 68.672772 3.596471 1.021322
7107.300000 7107.300000 0.500000 2.949616 68.644200 3.594223 1.018905
7107.395000 7107.400000 0.500000 2.949482 68.606063 3.592681 1.017039
7107.493000 7107.500000 0.500000 2.949235 68.616139 3.594112 1.016351
7107.598000 7107.600000 0.500000 2.949124 68.650943 3.596332 1.014405
7107.699000 7107.700000 0.500000 2.948965 68.614933 3.594990 1.012936
7107.797000 7107.800000 0.500000 2.948774 68.596789 3.594743 1.011142
7107.900000 7107.900000 0.500000 2.948785 68.603786 3.595073 1.008943
7108.003000 7108.000000 0.500000 2.948605 68.604532 3.595767 1.008312
7108.103000 7108.100000 0.500000 2.948382 68.729716 3.603125 1.006221
7108.200000 7108.200000 0.500000 2.948110 68.756034 3.605472 1.006160
7108.301000 7108.300000 0.500000 2.948486 68.744768 3.603535 1.003338
7108.401000 7108.400000 0.500000 2.948315 68.774082 3.605691 1.000686
7108.498000 7108.500000 0.500000 2.948105 68.781798 3.606850 0.998558
7108.598000 7108.600000 0.500000 2.947966 68.752900 3.605829 0.995066
7108.705000 7108.700000 0.500000 2.948092 68.889082 3.612536 0.993647
7108.802000 7108.800000 0.500000 2.947844 68.881020 3.612993 0.991027
7108.900000 7108.900000 0.500000 2.947811 68.887831 3.613487 0.987662
7109.005000 7109.000000 0.500000 2.947663 68.918353 3.615597 0.983523
7109.104000 7109.100000 0.500000 2.947822 68.931952 3.615858 0.979995
7109.200000 7109.200000 0.500000 2.947268 68.904028 3.616291 0.975322
7109.303000 7109.300000 0.500000 2.947106 68.862068 3.614675 0.970136
7109.402000 7109.400000 0.500000 2.947043 68.862407 3.614918 0.963735
7109.498000 7109.500000 0.500000 2.947108 68.874625 3.615322 0.958874
7109.597000 7109.600000 0.500000 2.947043 68.859189 3.614746 0.953358
7109.700000 7109.700000 0.500000 2.947060 68.888768 3.616240 0.944991
7109.800000 7109.800000 0.500000 2.947024 68.882899 3.616125 0.937826
7109.899000 7109.900000 0.500000 2.946580 68.853498 3.616125 0.928546
7110.000000 7110.000000 0.500000 2.946753 68.838353 3.614700 0.918229
7110.098000 7110.100000 0.500000 2.946719 68.796161 3.612614 0.907076
7110.197000 7110.200000 0.500000 2.946788 68.848664 3.615119 0.894723
7110.298000 7110.300000 0.500000 2.946664 68.841968 3.615202 0.878949
7110.394000 7110.400000 0.500000 2.946971 68.816663 3.612820 0.862318
7110.497000 7110.500000 0.500000 2.946581 68.805926 3.613586 0.844355
7110.598000 7110.600000 0.500000 2.946746 68.828805 3.614223 0.821599
7110.694000 7110.700000 0.500000 2.946909 68.811704 3.612780 0.801293
7110.797000 7110.800000 0.500000 2.946978 68.769660 3.610282 0.775824
7110.902000 7110.900000 0.500000 2.947051 68.813991 3.612338 0.750335
7110.996000 7111.000000 0.500000 2.947159 68.821229 3.612319 0.725764
7111.097000 7111.100000 0.500000 2.947148 68.798598 3.611186 0.698110
7111.196000 7111.200000 0.500000 2.947334 68.773513 3.609204 0.671944
7111.299000 7111.300000 0.500000 2.947497 68.742009 3.606971 0.646268
7111.402000 7111.400000 0.500000 2.947420 68.778180 3.609131 0.622916
7111.498000 7111.500000 0.500000 2.947410 68.767275 3.608594 0.600672
7111.603000 7111.600000 0.500000 2.947572 68.718375 3.605434 0.578117
7111.704000 7111.700000 0.500000 2.947649 68.699468 3.604190 0.558705
7111.798000 7111.800000 0.500000 2.947567 68.717479 3.605420 0.541217
7111.903000 7111.900000 0.500000 2.947712 68.723641 3.605230 0.525141
7112.000000 7112.000000 0.500000 2.947609 68.712187 3.605010 0.511144
7112.105000 7112.100000 0.500000 2.947183 68.685789 3.605143 0.496204
7112.204000 7112.200000 0.500000 2.947298 68.695536 3.605258 0.484199
7112.302000 7112.300000 0.500000 2.947030 68.681751 3.605528 0.473408
7112.401000 7112.400000 0.500000 2.946579 68.658386 3.605873 0.463724
7112.499000 7112.500000 0.500000 2.946574 68.631280 3.604469 0.453164
7112.605000 7112.600000 0.500000 2.946357 68.621123 3.604726 0.444680
7112.697000 7112.700000 0.500000 2.946141 68.597596 3.604265 0.437184
7112.798000 7112.800000 0.500000 2.945869 68.600272 3.605368 0.427891
7112.898000 7112.900000 0.500000 2.945777 68.638898 3.607735 0.420484
7112.995000 7113.000000 0.500000 2.945568 68.646129 3.608863 0.413756
7113.096000 7113.100000 0.500000 2.945314 68.595829 3.607125 0.407176
7113.197000 7113.200000 0.500000 2.945368 68.543529 3.604221 0.401210
7113.297000 7113.300000 0.500000 2.944921 68.541486 3.605660 0.394713
7113.398000 7113.400000 0.500000 2.944850 68.566465 3.607281 0.387607
7113.499000 7113.500000 0.500000 2.944754 68.568298 3.607717 0.382506
7113.600000 7113.600000 0.500000 2.944789 68.484655 3.603204 0.375076
7113.699000 7113.700000 0.500000 2.944560 68.470660 3.603279 0.369761
7113.797000 7113.800000 0.500000 2.944673 68.473609 3.603029 0.364640
7113.896000 7113.900000 0.500000 2.944184 68.527007 3.607583 0.360684
7114.001000 7114.000000 0.500000 2.944233 68.517281 3.606934 0.355315
7114.100000 7114.100000 0.500000 2.944053 68.497229 3.606536 0.350739
7114.201000 7114.200000 0.500000 2.943574 68.468039 3.606714 0.346507
7114.304000 7114.300000 0.500000 2.943605 68.465744 3.606491 0.342691
7114.398000 7114.400000 0.500000 2.943291 68.468280 3.607730 0.339727
7114.503000 7114.500000 0.500000 2.943477 68.461616 3.606751 0.335382
7114.602000 7114.600000 0.500000 2.943210 68.459632 3.607577 0.332342
7114.705000 7114.700000 0.500000 2.942958 68.450738 3.608067 0.329590
7114.804000 7114.800000 0.500000 2.942692 68.432751 3.608042 0.327242
7114.902000 7114.900000 0.500000 2.942755 68.431447 3.607747 0.324768
7115.001000 7115.000000 0.500000 2.942585 68.433353 3.608452 0.323595
7115.098000 7115.100000 0.500000 2.942406 68.443951 3.609644 0.321759
7115.201000 7115.200000 0.500000 2.942654 68.418493 3.607422 0.319299
7115.297000 7115.300000 0.500000 2.942293 68.450858 3.610377 0.318033
7115.403000 7115.400000 0.500000 2.942449 68.424576 3.608480 0.316770
7115.495000 7115.500000 0.500000 2.942404 68.443704 3.609625 0.315541
7115.600000 7115.600000 0.500000 2.942103 68.404421 3.608660 0.314231
7115.694000 7115.700000 0.500000 2.942258 68.367986 3.606220 0.313511
7115.798000 7115.800000 0.500000 2.942274 68.410988 3.608394 0.312725
7115.896000 7115.900000 0.500000 2.942241 68.441180 3.610094 0.312081
7115.997000 7116.000000 0.500000 2.942283 68.443002 3.610053 0.310542
7116.100000 7116.100000 0.500000 2.942403 68.434572 3.609170 0.309642
7116.197000 7116.200000 0.500000 2.942244 68.419580 3.608948 0.307983
7116.304000 7116.300000 0.500000 2.942487 68.437564 3.609014 0.307279
7116.399000 7116.400000 0.500000 2.942656 68.394383 3.606131 0.305814
7116.502000 7116.500000 0.500000 2.942598 68.382894 3.605743 0.303995
7116.601000 7116.600000 0.500000 2.942556 68.401850 3.606856 0.302133
7116.704000 7116.700000 0.500000 2.942862 68.392874 3.605233 0.299452
7116.800000 7116.800000 0.500000 2.943177 68.371760 3.603060 0.297437
7116.901000 7116.900000 0.500000 2.943307 68.336325 3.600698 0.293459
7117.004000 7117.000000 0.500000 2.943652 68.341370 3.599740 0.289854
7117.103000 7117.100000 0.500000 2.943714 68.356252 3.600288 0.286232
7117.204000 7117.200000 0.500000 2.944295 68.369722 3.598846 0.281995
7117.301000 7117.300000 0.500000 2.944860 68.322568 3.594386 0.277240
7117.402000 7117.400000 0.500000 2.945476 68.316159 3.591795 0.272456
7117.498000 7117.500000 0.500000 2.945911 68.337534 3.591427 0.268088
7117.601000 7117.600000 0.500000 2.946363 68.333121 3.589573 0.261979
7117.698000 7117.700000 0.500000 2.947021 68.273819 3.584093 0.255975
7117.799000 7117.800000 0.500000 2.947909 68.257010 3.580033 0.250443
7117.896000 7117.900000 0.500000 2.948444 68.287060 3.579769 0.246349
7117.997000 7118.000000 0.500000 2.949248 68.282725 3.576609 0.239610
7118.098000 7118.100000 0.500000 2.950190 68.305250 3.574478 0.235030
7118.199000 7118.200000 0.500000 2.950970 68.261944 3.569388 0.229713
7118.297000 7118.300000 0.500000 2.952435 68.269492 3.564649 0.222387
7118.394000 7118.400000 0.500000 2.953492 68.272871 3.561096 0.217303
7118.499000 7118.500000 0.500000 2.954784 68.269578 3.556203 0.212017
7118.596000 7118.600000 0.500000 2.956122 68.264095 3.551224 0.204939
7118.699000 7118.700000 0.500000 2.957256 68.204848 3.544083 0.200820
7118.800000 7118.800000 0.500000 2.958587 68.265084 3.542476 0.195286
7118.903000 7118.900000 0.500000 2.960414 68.234876 3.534271 0.189126
7118.998000 7119.000000 0.500000 2.962179 68.182153 3.525546 0.184134
7119.103000 7119.100000 0.500000 2.964077 68.149142 3.516916 0.177948
7119.202000 7119.200000 0.500000 2.965889 68.157390 3.511013 0.173871
7119.305000 7119.300000 0.500000 2.968310 68.179682 3.503686 0.168149
7119.402000 7119.400000 0.500000 2.970413 68.175897 3.495971 0.163547
7119.501000 7119.500000 0.500000 2.972843 68.139352 3.485664 0.158783
7119.604000 7119.600000 0.500000 2.975200 68.140359 3.477431 0.154588
7119.696000 7119.700000 0.500000 2.977724 68.135341 3.468568 0.149551
7119.806000 7119.800000 0.500000 2.980750 68.147459 3.458286 0.144743
7119.900000 7119.900000 0.500000 2.983523 68.110785 3.447510 0.140711
7119.999000 7120.000000 0.500000 2.986594 68.098773 3.436079 0.135909
7120.098000 7120.100000 0.500000 2.989698 68.114545 3.426236 0.132111
7120.199000 7120.200000 0.500000 2.992860 68.112725 3.415429 0.127790
7120.296000 7120.300000 0.500000 2.996092 68.102351 3.403885 0.123806
7120.397000 7120.400000 0.500000 2.999391 68.089652 3.391911 0.120701
7120.498000 7120.500000 0.500000 3.003221 68.064634 3.377830 0.116262
7120.597000 7120.600000 0.500000 3.006501 68.024582 3.364794 0.113041
7120.698000 7120.700000 0.500000 3.009971 68.038018 3.353798 0.109336
7120.795000 7120.800000 0.500000 3.013441 68.060486 3.343515 0.106571
7120.900000 7120.900000 0.500000 3.017032 68.011649 3.328911 0.102985
7120.999000 7121.000000 0.500000 3.020171 67.982686 3.317063 0.100296
7121.102000 7121.100000 0.500000 3.023624 67.987219 3.305956 0.096782
7121.201000 7121.200000 0.500000 3.026703 68.138127 3.303007 0.095254
7121.302000 7121.300000 0.500000 3.029529 68.162337 3.294654 0.091986
7121.401000 7121.400000 0.500000 3.032509 68.159622 3.285025 0.089939
7121.500000 7121.500000 0.500000 3.035687 68.141259 3.273827 0.087707
7121.603000 7121.600000 0.500000 3.038106 68.123304 3.264767 0.086042
7121.700000 7121.700000 0.500000 3.040408 68.186396 3.260602 0.083797
7121.803000 7121.800000 0.500000 3.043061 68.220096 3.253473 0.081872
7121.900000 7121.900000 0.500000 3.045017 68.227135 3.247528 0.080432
7122.005000 7122.000000 0.500000 3.047231 68.195347 3.238937 0.078731
7122.098000 7122.100000 0.500000 3.049083 68.226406 3.234159 0.077391
7122.199000 7122.200000 0.500000 3.051251 68.184643 3.225186 0.075731
7122.302000 7122.300000 0.500000 3.053107 68.158975 3.217590 0.074260
7122.399000 7122.400000 0.500000 3.055111 68.178474 3.212784 0.073244
7122.502000 7122.500000 0.500000 3.057276 68.130365 3.203444 0.071374
7122.595000 7122.600000 0.500000 3.058790 68.097786 3.197335 0.071200
7122.698000 7122.700000 0.500000 3.060568 68.081146 3.190668 0.069558
7122.799000 7122.800000 0.500000 3.062371 68.069458 3.184437 0.068096
7122.896000 7122.900000 0.500000 3.064238 68.020648 3.176223 0.066540
7122.997000 7123.000000 0.500000 3.066223 67.989891 3.168449 0.065616
7123.096000 7123.100000 0.500000 3.067867 67.985408 3.163050 0.064720
7123.197000 7123.200000 0.500000 3.069966 67.952881 3.154985 0.063262
7123.294000 7123.300000 0.500000 3.071786 67.939437 3.148674 0.063025
7123.399000 7123.400000 0.500000 3.073566 67.868553 3.139519 0.061508
7123.498000 7123.500000 0.500000 3.075615 67.841196 3.132090 0.060933
7123.597000 7123.600000 0.500000 3.077508 67.841758 3.126097 0.059941
7123.698000 7123.700000 0.500000 3.079563 67.811974 3.118248 0.059113
7123.799000 7123.800000 0.500000 3.081689 67.782184 3.110186 0.058012
7123.903000 7123.900000 0.500000 3.083885 67.739768 3.101340 0.057133
7124.002000 7124.000000 0.500000 3.085445 67.688751 3.094077 0.057077
7124.101000 7124.100000 0.500000 3.087899 67.639777 3.084284 0.055629
7124.204000 7124.200000 0.500000 3.090361 67.662171 3.077651 0.054946
7124.301000 7124.300000 0.500000 3.092513 67.648237 3.070540 0.054237
7124.406000 7124.400000 0.500000 3.094950 67.615866 3.061329 0.053647
7124.503000 7124.500000 0.500000 3.097031 67.566397 3.052778 0.052824
7124.602000 7124.600000 0.500000 3.099634 67.539410 3.043707 0.052125
7124.703000 7124.700000 0.500000 3.101904 67.507250 3.035291 0.051445
7124.800000 7124.800000 0.500000 3.104278 67.449895 3.025592 0.051181
7124.906000 7124.900000 0.500000 3.106479 67.469547 3.019528 0.050589
7125.000000 7125.000000 0.500000 3.108695 67.422826 3.011145 0.049631
7125.102000 7125.100000 0.500000 3.110958 67.381359 3.002300 0.049163
7125.203000 7125.200000 0.500000 3.113106 67.307943 2.992512 0.047923
7125.297000 7125.300000 0.500000 3.115207 67.268003 2.984635 0.047441
7125.399000 7125.400000 0.500000 3.117348 67.261958 2.978045 0.047354
7125.498000 7125.500000 0.500000 3.119203 67.240182 2.971553 0.046288
7125.597000 7125.600000 0.500000 3.120496 67.189449 2.965470 0.046367
