# XDI/1.0 BlueSky/1.10.0 BMM/2023-1.0-py310-tiled
# Beamline.name: BMM (06BM) -- Beamline for Materials Measurement (NIST)
# Beamline.xray_source: NSLS-II three-pole wiggler
# Beamline.collimation: paraboloid mirror, 5 nm Rh on 30 nm Pt
# Beamline.focusing: not in use
# Beamline.harmonic_rejection: flat mirror, Si stripe, pitch = 7.0 mrad relative to beam
# Beamline.software: Bluesky 1.10.0, Ophyd 1.7.0, DataBroker 2.0.0b13, Python 3.10.8, 2023-1.0-py310-tiled
# Detector.I0: 10 cm N2
# Detector.I1: 25 cm N2
# Detector.I2: 25 cm N2
# Element.symbol: Fe
# Element.edge: K
# Element.reference: Fe
# Element.reference_material: Fe foil
# Facility.name: NSLS-II
# Facility.energy: 3.0
# Facility.current: 400.0
# Facility.mode: top-off
# Facility.GUP: 123456
# Facility.SAF: 301027
# Facility.cycle: 2023-2
# Mono.name: Si(111)
# Mono.d_spacing: 3.1351860
# Mono.encoder_resolution: 0.0000050 deg/ct
# Mono.angle_offset: 16.0754326 deg
# Mono.scan_mode: pseudo channel cut
# Mono.scan_type: step
# Mono.direction: forward in energy
# Sample.name: Fe3O4
# Sample.prep: powder on tape
# Sample.x: 116.329 mm
# Sample.y: 114.126 mm
# Sample.SDD_position: 205.000 mm
# Scan.experimenters: Bruce Ravel
# Scan.edge_energy: 7112.0
# Scan.start_time: 2023-05-05T17:30:42
# Scan.end_time: 2023-05-05T17:38:36
# Scan.transient_id: 74521
# Scan.uid: 27664e0f-6faa-46b6-91c9-850807772a93
# Scan.plot_hint: ln(I0/It)  --  ln($5/$6)
# Column.1: energy eV
# Column.2: requested_energy eV
# Column.3: measurement_time seconds
# Column.4: xmu 
# Column.5: I0 nA
# Column.6: It nA
# Column.7: Ir nA
# ///////////
# Welcome to BMM
# -----------
# energy  requested_energy  measurement_time  xmu  I0  It  Ir
  6912.007  6912.000  0.500  2.208323  153.450792  16.861910  3.165042
  6922.013  6922.000  0.500  2.196386  153.302726  17.047928  3.222868
  6932.017  6932.000  0.500  2.184598  153.259976  17.245269  3.283764
  6942.013  6942.000  0.500  2.173438  153.271595  17.440117  3.343732
  6952.002  6952.000  0.500  2.161164  153.254353  17.653521  3.408345
  6962.002  6962.000  0.500  2.149682  153.252552  17.857173  3.470987
  6972.012  6972.000  0.500  2.137825  153.261514  18.071230  3.536995
  6982.023  6982.000  0.500  2.126515  153.204698  18.269985  3.600896
  6992.012  6992.000  0.500  2.114937  153.181223  18.479913  3.666822
  7002.009  7002.000  0.500  2.103791  153.121404  18.679745  3.731888
  7012.010  7012.000  0.500  2.092082  153.074609  18.893985  3.798804
  7022.016  7022.000  0.500  2.080847  153.013062  19.099765  3.865723
  7032.016  7032.000  0.500  2.069732  152.954185  19.305813  3.931790
  7042.013  7042.000  0.500  2.058969  152.871511  19.504189  3.997788
  7052.009  7052.000  0.500  2.048183  152.790734  19.705278  4.061944
  7062.014  7062.000  0.500  2.037937  152.041144  19.810539  4.106692
  7072.015  7072.000  0.500  2.027752  152.576833  20.083857  4.183796
  7081.988  7082.000  0.500  2.018706  152.506674  20.257043  4.235219
  7083.991  7084.000  0.500  2.017082  152.275922  20.259270  4.238010
  7085.989  7086.000  0.500  2.015533  152.389630  20.305831  4.248472
  7087.992  7088.000  0.500  2.013991  152.392566  20.337555  4.255474
  7089.994  7090.000  0.500  2.012740  152.386488  20.362205  4.260902
  7091.997  7092.000  0.500  2.011629  152.380286  20.383994  4.263546
  7093.987  7094.000  0.500  2.010240  152.397669  20.414666  4.267477
  7096.191  7096.000  0.500  2.009227  152.317292  20.424568  4.263721
  7098.008  7098.000  0.500  2.008683  152.257650  20.427680  4.257813
  7099.994  7100.000  0.500  2.008296  152.288741  20.439762  4.248259
  7101.999  7102.000  0.500  2.008474  152.252132  20.431218  4.228573
  7102.290  7102.300  0.500  2.008294  152.236959  20.432852  4.225401
  7102.594  7102.600  0.500  2.008736  152.262473  20.427243  4.220869
  7102.889  7102.900  0.500  2.008914  152.247335  20.421593  4.215927
  7103.190  7103.200  0.500  2.008697  152.239116  20.424904  4.212300
  7103.488  7103.500  0.500  2.008779  152.221663  20.420907  4.206849
  7103.787  7103.800  0.500  2.008928  152.206634  20.415838  4.200818
  7104.091  7104.100  0.500  2.009244  152.427870  20.439059  4.200948
  7104.384  7104.400  0.500  2.009482  152.691634  20.469560  4.201311
  7104.688  7104.700  0.500  2.009766  152.687669  20.463211  4.193410
  7104.987  7105.000  0.500  2.010167  152.684711  20.454608  4.185613
  7105.287  7105.300  0.500  2.010406  152.673490  20.448207  4.176597
  7105.587  7105.600  0.500  2.010622  152.684465  20.445272  4.167295
  7105.884  7105.900  0.500  2.010984  152.660208  20.434630  4.156340
  7106.190  7106.200  0.500  2.011475  152.653747  20.423723  4.144774
  7106.492  7106.500  0.500  2.011913  152.647202  20.413903  4.131697
  7106.790  7106.800  0.500  2.012447  152.615043  20.398705  4.117635
  7107.092  7107.100  0.500  2.013083  152.533320  20.374826  4.099842
  7107.387  7107.400  0.500  2.013591  152.609273  20.374612  4.083859
  7107.689  7107.700  0.500  2.014550  152.591066  20.352663  4.062434
  7107.991  7108.000  0.500  2.015213  152.584486  20.338290  4.038984
  7108.287  7108.300  0.500  2.016159  152.569373  20.317049  4.010451
  7108.586  7108.600  0.500  2.017321  152.567285  20.293170  3.979291
  7108.891  7108.900  0.500  2.018506  152.546657  20.266398  3.941208
  7109.193  7109.200  0.500  2.019773  152.550959  20.241305  3.894010
  7109.493  7109.500  0.500  2.021088  152.524265  20.211185  3.836825
  7109.793  7109.800  0.500  2.023195  152.502556  20.165768  3.759372
  7110.093  7110.100  0.500  2.025646  152.486652  20.114293  3.654902
  7110.395  7110.400  0.500  2.028787  152.465030  20.048377  3.508225
  7110.701  7110.700  0.500  2.032816  152.439161  19.964379  3.303709
  7110.997  7111.000  0.500  2.038343  152.429602  19.853085  3.044695
  7111.293  7111.300  0.500  2.045535  152.373016  19.703511  2.741109
  7111.595  7111.600  0.500  2.054744  152.374337  19.523068  2.425762
  7111.889  7111.900  0.500  2.066136  152.332456  19.296603  2.145587
  7112.198  7112.200  0.500  2.081767  152.286673  18.991610  1.909907
  7112.492  7112.500  0.500  2.101576  152.278079  18.618059  1.730482
  7112.788  7112.800  0.500  2.126792  152.239046  18.149799  1.580455
  7113.090  7113.100  0.500  2.152883  152.223156  17.680537  1.454584
  7113.395  7113.400  0.500  2.173766  152.208030  17.313421  1.350278
  7113.697  7113.700  0.500  2.183560  152.185312  17.142124  1.270859
  7114.002  7114.000  0.500  2.181915  152.177676  17.169494  1.213117
  7114.296  7114.300  0.500  2.173486  152.160186  17.312837  1.172995
  7114.596  7114.600  0.500  2.163824  152.137444  17.478313  1.140979
  7114.899  7114.900  0.500  2.154940  152.146029  17.635263  1.117908
  7115.204  7115.200  0.500  2.148394  152.160436  17.752768  1.100630
  7115.498  7115.500  0.500  2.143897  152.143288  17.830768  1.088482
  7115.798  7115.800  0.500  2.141818  152.113863  17.864420  1.078273
  7116.090  7116.100  0.500  2.142176  152.113968  17.858039  1.067595
  7116.391  7116.400  0.500  2.145321  152.088880  17.799028  1.053606
  7116.700  7116.700  0.500  2.151339  152.086332  17.691950  1.031895
  7116.998  7117.000  0.500  2.160027  152.080009  17.538170  1.001081
  7117.297  7117.300  0.500  2.171112  152.061560  17.342736  0.958685
  7117.598  7117.600  0.500  2.185190  152.039071  17.097768  0.903862
  7117.900  7117.900  0.500  2.202131  152.021927  16.808645  0.839005
  7118.201  7118.200  0.500  2.222537  152.008987  16.467724  0.767818
  7118.502  7118.500  0.500  2.246380  152.000437  16.078824  0.695893
  7118.801  7118.800  0.500  2.273638  151.983653  15.644738  0.626799
  7119.099  7119.100  0.500  2.304998  151.953542  15.158731  0.561267
  7119.404  7119.400  0.500  2.340401  151.942122  14.630359  0.499771
  7119.705  7119.700  0.500  2.377984  151.935573  14.090106  0.444360
  7119.998  7120.000  0.500  2.418269  151.918256  13.532216  0.393093
  7120.294  7120.300  0.500  2.461124  151.890218  12.962153  0.345182
  7120.593  7120.600  0.500  2.505126  151.882724  12.403545  0.301957
  7120.894  7120.900  0.500  2.546279  151.822833  11.898778  0.265435
  7121.199  7121.200  0.500  2.585970  151.844351  11.437372  0.234403
  7121.498  7121.500  0.500  2.621349  151.854867  11.040561  0.209976
  7121.795  7121.800  0.500  2.655184  151.826735  10.671277  0.189388
  7122.102  7122.100  0.500  2.688798  151.808288  10.317279  0.171903
  7122.403  7122.400  0.500  2.723187  151.802307  9.968124  0.156595
  7122.702  7122.700  0.500  2.758690  151.784950  9.619332  0.143465
  7123.004  7123.000  0.500  2.794908  151.767105  9.276080  0.131566
  7123.301  7123.300  0.500  2.832029  151.771635  8.938320  0.121228
  7123.600  7123.600  0.500  2.867532  151.737002  8.624582  0.112019
  7123.903  7123.900  0.500  2.902523  151.704072  8.326214  0.104190
  7124.204  7124.200  0.500  2.936042  151.699139  8.051492  0.097075
  7124.497  7124.500  0.500  2.967755  151.689533  7.799668  0.091040
  7124.798  7124.800  0.500  2.998143  151.657386  7.564611  0.085363
  7125.095  7125.100  0.500  3.026027  151.663434  7.356888  0.080331
  7125.401  7125.400  0.500  3.050700  151.624842  7.175766  0.075928
  7125.696  7125.700  0.500  3.072596  151.610981  7.019711  0.071913
  7125.997  7126.000  0.500  3.092075  151.582429  6.882998  0.068494
  7126.297  7126.300  0.500  3.110427  151.562179  6.756933  0.065105
  7126.605  7126.600  0.500  3.129432  151.525919  6.628143  0.061875
  7126.908  7126.900  0.500  3.148526  151.525745  6.502778  0.058703
  7127.199  7127.200  0.500  3.168051  151.496134  6.375797  0.055391
  7127.505  7127.500  0.500  3.189409  151.479563  6.240383  0.051913
  7127.800  7127.800  0.500  3.212246  151.452531  6.098400  0.048673
  7128.102  7128.100  0.500  3.236036  151.430842  5.954177  0.045463
  7128.401  7128.400  0.500  3.259907  151.393958  5.812311  0.042358
  7128.701  7128.700  0.500  3.283720  151.373520  5.674769  0.039328
  7128.994  7129.000  0.500  3.305801  151.359063  5.550309  0.036659
  7129.297  7129.300  0.500  3.325673  151.330677  5.440082  0.033982
  7129.601  7129.600  0.500  3.341807  151.294227  5.351726  0.031937
  7129.899  7129.900  0.500  3.352955  151.273279  5.291666  0.030255
  7130.201  7130.200  0.500  3.359471  151.259536  5.256820  0.028864
  7130.502  7130.500  0.500  3.361497  151.221746  5.244870  0.028087
  7130.800  7130.800  0.500  3.360735  151.192983  5.247869  0.027614
  7131.106  7131.100  0.500  3.357686  151.139101  5.262021  0.027372
  7131.406  7131.400  0.500  3.352860  151.132701  5.287248  0.027695
  7131.701  7131.700  0.500  3.347698  151.116467  5.314042  0.028283
  7132.003  7132.000  0.500  3.342340  151.098195  5.341946  0.029324
  7132.301  7132.300  0.500  3.336655  151.092067  5.372182  0.030582
  7132.601  7132.600  0.500  3.330218  151.085718  5.406649  0.031973
  7132.894  7132.900  0.500  3.323020  151.091685  5.445922  0.033548
  7133.194  7133.200  0.500  3.314676  151.076679  5.491008  0.035232
  7133.496  7133.500  0.500  3.305640  151.085883  5.541183  0.037251
  7133.798  7133.800  0.500  3.295947  151.062077  5.594274  0.039209
  7134.100  7134.100  0.500  3.286643  151.072482  5.646956  0.041151
  7134.400  7134.400  0.500  3.277248  151.053682  5.699551  0.042996
  7134.703  7134.700  0.500  3.268583  151.048310  5.748950  0.044534
  7135.005  7135.000  0.500  3.260249  151.037071  5.796628  0.046045
  7135.305  7135.300  0.500  3.252709  151.037460  5.840514  0.047641
  7135.603  7135.600  0.500  3.245828  151.022486  5.880260  0.048765
  7135.899  7135.900  0.500  3.239734  151.020917  5.916139  0.049624
  7136.201  7136.200  0.500  3.234279  150.949951  5.945706  0.050341
  7136.501  7136.500  0.500  3.229453  151.008046  5.976767  0.050953
  7136.801  7136.800  0.500  3.225660  150.984714  5.998555  0.051493
  7136.998  7137.000  0.500  3.223261  150.996153  6.013416  0.051536
  7137.996  7137.990  0.500  3.210366  151.009947  6.092020  0.051207
  7139.003  7138.990  0.500  3.194498  150.990677  6.188672  0.049771
  7140.023  7140.010  0.500  3.176244  151.014661  6.303673  0.048275
  7141.076  7141.060  0.500  3.160357  150.975221  6.402947  0.047405
  7142.130  7142.120  0.500  3.151809  151.003711  6.459132  0.047560
  7143.220  7143.200  0.500  3.150818  150.928017  6.462300  0.048387
  7144.318  7144.300  0.500  3.152121  150.957053  6.455122  0.048999
  7145.439  7145.420  0.500  3.150616  150.971772  6.465478  0.048934
  7146.578  7146.560  0.500  3.143389  150.984548  6.512926  0.047280
  7147.729  7147.710  0.500  3.126955  150.970322  6.620220  0.045205
  7148.901  7148.890  0.500  3.102267  150.978826  6.786078  0.043335
  7150.093  7150.080  0.500  3.078902  150.969082  6.946049  0.042193
  7151.314  7151.300  0.500  3.060035  150.969251  7.078356  0.041897
  7152.540  7152.530  0.500  3.046459  150.975974  7.175423  0.041345
  7153.792  7153.780  0.500  3.035157  150.946278  7.255553  0.041522
  7155.065  7155.050  0.500  3.023880  150.949057  7.337968  0.042394
  7156.348  7156.340  0.500  3.012201  150.882590  7.420907  0.043777
  7157.656  7157.650  0.500  3.001020  150.885110  7.504469  0.044855
  7158.999  7158.980  0.500  2.993736  150.860489  7.558096  0.045556
  7160.341  7160.330  0.500  2.991202  150.827843  7.575632  0.045524
  7161.716  7161.700  0.500  2.992543  150.805100  7.564345  0.045903
  7163.098  7163.080  0.500  2.996055  150.776538  7.536397  0.046587
  7164.506  7164.490  0.500  3.000799  150.721653  7.497999  0.047349
  7165.924  7165.910  0.500  3.006722  150.697031  7.452495  0.047769
  7167.366  7167.350  0.500  3.014628  150.648541  7.391433  0.047932
  7168.816  7168.810  0.500  3.024614  150.628186  7.316997  0.048136
  7170.299  7170.290  0.500  3.036728  150.597893  7.227446  0.048315
  7171.802  7171.790  0.500  3.050321  150.571363  7.128611  0.049235
  7173.321  7173.310  0.500  3.064322  150.527635  7.027457  0.050557
  7174.864  7174.850  0.500  3.076551  150.470300  6.939398  0.052803
  7176.415  7176.410  0.500  3.086257  150.454509  6.871648  0.055181
  7177.998  7177.980  0.500  3.094850  150.424074  6.811475  0.057472
  7179.589  7179.580  0.500  3.104128  150.397177  6.747362  0.058975
  7181.202  7181.190  0.500  3.110636  150.974487  6.729327  0.059259
  7182.843  7182.830  0.500  3.112696  150.979627  6.715705  0.058759
  7184.496  7184.480  0.500  3.111073  150.915468  6.723758  0.057535
  7186.161  7186.150  0.500  3.106621  150.925027  6.754187  0.055568
  7187.846  7187.840  0.500  3.101414  150.901635  6.788396  0.053012
  7189.561  7189.550  0.500  3.096439  150.871243  6.820874  0.050311
  7191.290  7191.280  0.500  3.090376  149.198526  6.786274  0.047301
  7193.048  7193.030  0.500  3.082794  150.530561  6.898967  0.045425
  7194.798  7194.790  0.500  3.073750  150.670025  6.968096  0.044984
  7196.591  7196.580  0.500  3.063912  150.651568  7.036123  0.046550
  7198.390  7198.380  0.500  3.054387  150.597345  7.100911  0.049238
  7200.226  7200.210  0.500  3.044420  150.556439  7.170092  0.052979
  7202.066  7202.050  0.500  3.034688  150.533013  7.239080  0.057782
  7203.922  7203.910  0.500  3.024995  150.482864  7.307153  0.063234
  7205.806  7205.790  0.500  3.017123  150.434968  7.362562  0.068167
  7207.699  7207.690  0.500  3.011553  150.410933  7.402503  0.070783
  7209.627  7209.610  0.500  3.008469  150.321716  7.420965  0.068794
  7211.557  7211.550  0.500  3.007321  150.267798  7.426820  0.061735
  7213.525  7213.510  0.500  3.007609  150.207211  7.421689  0.052141
  7215.489  7215.480  0.500  3.009064  150.173171  7.409217  0.043439
  7217.489  7217.480  0.500  3.012141  150.119488  7.383819  0.037275
  7219.504  7219.490  0.500  3.015821  150.043148  7.352952  0.033838
  7221.533  7221.520  0.500  3.019310  149.998869  7.325182  0.033169
  7223.586  7223.580  0.500  3.021900  149.932148  7.302983  0.035176
  7225.667  7225.650  0.500  3.022782  149.833382  7.291737  0.039657
  7227.748  7227.740  0.500  3.021242  147.215302  7.175367  0.045093
  7229.867  7229.850  0.500  3.017813  150.003429  7.336376  0.053540
  7231.995  7231.980  0.500  3.012735  149.954906  7.371337  0.061959
  7234.134  7234.120  0.500  3.006934  149.886637  7.410853  0.069857
  7236.308  7236.290  0.500  3.000068  149.863472  7.460755  0.075870
  7238.487  7238.480  0.500  2.991498  149.811586  7.522367  0.079053
  7240.694  7240.680  0.500  2.981810  149.753087  7.592628  0.079271
  7242.912  7242.900  0.500  2.971813  149.748555  7.668682  0.077131
  7245.160  7245.150  0.500  2.963314  146.908106  7.587432  0.072595
  7247.425  7247.410  0.500  2.958061  149.470255  7.760419  0.070999
  7249.703  7249.690  0.500  2.956494  149.496631  7.773963  0.069705
  7252.003  7251.990  0.500  2.957534  149.412953  7.761533  0.070261
  7254.321  7254.310  0.500  2.960967  146.963656  7.608140  0.071073
  7256.664  7256.650  0.500  2.965545  149.465051  7.702286  0.073304
  7259.015  7259.000  0.500  2.970425  149.330582  7.657901  0.072217
  7261.390  7261.380  0.500  2.975575  148.884094  7.595783  0.069619
  7263.791  7263.770  0.500  2.980216  136.320762  6.922626  0.061737
  7266.196  7266.190  0.500  2.981698  149.160753  7.563442  0.066028
  7268.632  7268.620  0.500  2.981421  149.679446  7.591848  0.064467
  7271.081  7271.070  0.500  2.979144  149.616867  7.605972  0.061387
  7273.561  7273.550  0.500  2.976379  148.260913  7.557906  0.057903
  7276.058  7276.040  0.500  2.973225  149.667272  7.653707  0.056762
  7278.566  7278.550  0.500  2.970128  149.613771  7.674701  0.055851
  7281.083  7281.070  0.500  2.966532  149.558504  7.699499  0.054581
  7283.639  7283.620  0.500  2.961239  148.317537  7.676139  0.052372
  7286.200  7286.190  0.500  2.954384  149.171180  7.773421  0.051279
  7288.783  7288.770  0.500  2.946161  149.267492  7.842669  0.050683
  7291.400  7291.380  0.500  2.937840  149.237506  7.906606  0.053182
  7294.009  7294.000  0.500  2.930647  149.198877  7.961627  0.058132
  7296.657  7296.650  0.500  2.924802  149.151337  8.005743  0.064600
  7299.329  7299.310  0.500  2.919681  149.018231  8.039664  0.071176
  7302.003  7301.990  0.500  2.914353  147.518720  8.001282  0.076217
  7304.707  7304.690  0.500  2.908561  149.152036  8.136866  0.081657
  7307.424  7307.410  0.500  2.902886  149.057584  8.177990  0.085028
  7310.168  7310.150  0.500  2.898053  149.002627  8.214580  0.086369
  7312.912  7312.900  0.500  2.895545  148.942160  8.231868  0.086583
  7315.692  7315.680  0.500  2.894420  148.864724  8.236854  0.086493
  7318.488  7318.470  0.500  2.894042  148.824711  8.237747  0.086847
  7321.302  7321.290  0.500  2.894223  148.775406  8.233532  0.087262
  7324.128  7324.120  0.500  2.894880  148.723306  8.225241  0.087534
  7326.981  7326.970  0.500  2.895359  148.660742  8.217847  0.087499
  7329.863  7329.850  0.500  2.894953  148.589409  8.217234  0.088205
  7332.755  7332.740  0.500  2.892279  148.526646  8.235754  0.089869
  7335.658  7335.650  0.500  2.888636  148.463283  8.262289  0.092139
  7338.580  7338.570  0.500  2.884550  147.115617  8.220811  0.092833
  7341.534  7341.520  0.500  2.880082  148.205092  8.318778  0.093103
  7344.502  7344.490  0.500  2.874788  148.211916  8.363314  0.090106
  7347.486  7347.470  0.500  2.868530  148.158278  8.412776  0.086054
  7350.491  7350.480  0.500  2.863110  148.097867  8.455044  0.081866
  7353.510  7353.500  0.500  2.858386  148.007456  8.489898  0.077990
  7356.562  7356.550  0.500  2.854134  147.955224  8.523063  0.075237
  7359.623  7359.610  0.500  2.850079  147.867100  8.552597  0.072600
  7362.703  7362.690  0.500  2.846524  147.839053  8.581425  0.071016
  7365.799  7365.790  0.500  2.843559  147.761310  8.602385  0.070279
  7368.914  7368.910  0.500  2.841177  147.698800  8.619246  0.071305
  7372.060  7372.050  0.500  2.838373  147.631252  8.639500  0.074767
  7375.211  7375.200  0.500  2.835018  147.559753  8.664334  0.080288
