# XDI/1.0 BlueSky/1.10.0 BMM/2023-1.0-py310-tiled
# Beamline.name: BMM (06BM) -- Beamline for Materials Measurement (NIST)
# Beamline.xray_source: NSLS-II three-pole wiggler
# Beamline.collimation: paraboloid mirror, 5 nm Rh on 30 nm Pt
# Beamline.focusing: not in use
# Beamline.harmonic_rejection: flat mirror, Si stripe, pitch = 7.0 mrad relative to beam
# Beamline.software: Bluesky 1.10.0, Ophyd 1.7.0, DataBroker 2.0.0b13, Python 3.10.8, 2023-1.0-py310-tiled
# Detector.I0: 10 cm N2
# Detector.I1: 25 cm N2
# Detector.I2: 25 cm N2
# Element.symbol: Fe
# Element.edge: K
# Element.reference: Fe
# Element.reference_material: Fe foil
# Facility.name: NSLS-II
# Facility.energy: 3.0
# Facility.current: 400.2
# Facility.mode: top-off
# Facility.GUP: 123456
# Facility.SAF: 301027
# Facility.cycle: 2023-2
# Mono.name: Si(111)
# Mono.d_spacing: 3.1351860
# Mono.encoder_resolution: 0.0000050 deg/ct
# Mono.angle_offset: 16.0754326 deg
# Mono.scan_mode: pseudo channel cut
# Mono.scan_type: step
# Mono.direction: forward in energy
# Sample.name: NiFe2O4
# Sample.prep: PEG pellet
# Sample.x: 116.329 mm
# Sample.y: 114.126 mm
# Sample.SDD_position: 205.000 mm
# Scan.experimenters: Bruce Ravel
# Scan.edge_energy: 7112.0
# Scan.start_time: 2023-05-05T17:48:11
# Scan.end_time: 2023-05-05T17:56:23
# Scan.transient_id: 74531
# Scan.uid: 2f81a31a-4a77-4168-9e74-123fd3d817ea
# Scan.plot_hint: ln(I0/It)  --  ln($5/$6)
# Column.1: energy eV
# Column.2: requested_energy eV
# Column.3: measurement_time seconds
# Column.4: xmu 
# Column.5: I0 nA
# Column.6: It nA
# Column.7: Ir nA
# ///////////
# courtesy Martin Stennett, University of Sheffield
# -----------
# energy  requested_energy  measurement_time  xmu  I0  It  Ir
  6912.001  6912.000  0.500  2.672943  153.606564  10.606337  1.973867
  6922.011  6922.000  0.500  2.658508  153.459022  10.750218  2.015118
  6932.015  6932.000  0.500  2.644309  153.417048  10.900958  2.057478
  6942.019  6942.000  0.500  2.630358  153.438536  11.055657  2.102144
  6951.999  6952.000  0.500  2.616134  153.428408  11.213298  2.147536
  6962.008  6962.000  0.500  2.602056  153.432254  11.372552  2.193023
  6972.026  6972.000  0.500  2.588340  153.405295  11.527596  2.238474
  6982.006  6982.000  0.500  2.574558  153.331955  11.681971  2.284225
  6992.008  6992.000  0.500  2.560779  153.307815  11.842189  2.331163
  7002.013  7002.000  0.500  2.547241  153.256800  11.999613  2.378085
  7012.008  7012.000  0.500  2.533699  153.194727  12.158289  2.425738
  7022.014  7022.000  0.500  2.520297  153.133862  12.317427  2.473686
  7032.010  7032.000  0.500  2.507368  153.073682  12.472817  2.521170
  7042.008  7042.000  0.500  2.494099  152.986793  12.632244  2.568889
  7052.005  7052.000  0.500  2.481204  152.883758  12.787574  2.616787
  7062.008  7062.000  0.500  2.468464  152.152633  12.889589  2.652141
  7072.011  7072.000  0.500  2.456170  152.664057  13.092896  2.707257
  7081.969  7082.000  0.500  2.444717  152.725305  13.249027  2.749217
  7083.978  7084.000  0.500  2.442964  152.460754  13.249277  2.751480
  7085.978  7086.000  0.500  2.440613  152.597086  13.292347  2.760597
  7087.983  7088.000  0.500  2.438693  152.581597  13.316542  2.766299
  7089.981  7090.000  0.500  2.436779  152.561157  13.340256  2.771203
  7091.984  7092.000  0.500  2.434655  152.536778  13.366489  2.776267
  7094.494  7094.000  0.500  2.432672  152.479571  13.387996  2.778282
  7096.112  7096.000  0.500  2.431452  152.476822  13.404102  2.778499
  7097.997  7098.000  0.500  2.430310  152.474834  13.419246  2.777464
  7099.990  7100.000  0.500  2.429023  152.438970  13.433357  2.772613
  7101.997  7102.000  0.500  2.428256  152.397867  13.440047  2.762783
  7102.290  7102.300  0.500  2.428283  152.383903  13.438444  2.759998
  7102.585  7102.600  0.500  2.428156  152.372098  13.439110  2.757697
  7102.884  7102.900  0.500  2.427974  152.378739  13.442148  2.755265
  7103.188  7103.200  0.500  2.428049  152.361410  13.439612  2.752056
  7103.485  7103.500  0.500  2.428237  152.330610  13.434369  2.749155
  7103.787  7103.800  0.500  2.428033  152.342745  13.438175  2.746014
  7104.087  7104.100  0.500  2.428042  152.332237  13.437135  2.742827
  7104.382  7104.400  0.500  2.428143  152.317444  13.434476  2.738755
  7104.688  7104.700  0.500  2.428221  152.315954  13.433285  2.734493
  7104.987  7105.000  0.500  2.428316  152.300380  13.430636  2.729194
  7105.287  7105.300  0.500  2.428672  152.282635  13.424297  2.723505
  7105.587  7105.600  0.500  2.428607  152.283459  13.425245  2.718359
  7105.884  7105.900  0.500  2.428856  152.272695  13.420953  2.710781
  7106.188  7106.200  0.500  2.428952  152.261716  13.418695  2.704838
  7106.488  7106.500  0.500  2.429272  152.255546  13.413863  2.697146
  7106.792  7106.800  0.500  2.429684  152.242980  13.407232  2.688465
  7107.089  7107.100  0.500  2.429830  152.232634  13.404351  2.678979
  7107.385  7107.400  0.500  2.430239  152.231745  13.398797  2.668375
  7107.691  7107.700  0.500  2.430838  152.194403  13.387496  2.654435
  7107.989  7108.000  0.500  2.431251  152.216882  13.383933  2.640706
  7108.291  7108.300  0.500  2.431685  152.197640  13.376442  2.623914
  7108.589  7108.600  0.500  2.432333  152.207217  13.368619  2.603789
  7108.884  7108.900  0.500  2.432987  152.170822  13.356680  2.581369
  7109.191  7109.200  0.500  2.434159  152.171052  13.341059  2.552034
  7109.497  7109.500  0.500  2.435112  152.148021  13.326329  2.515136
  7109.797  7109.800  0.500  2.436463  152.151717  13.308666  2.467494
  7110.093  7110.100  0.500  2.438143  152.111935  13.282856  2.401716
  7110.395  7110.400  0.500  2.440257  152.083141  13.252291  2.310134
  7110.695  7110.700  0.500  2.442752  152.052052  13.216560  2.183906
  7110.995  7111.000  0.500  2.446038  152.052473  13.173238  2.019392
  7111.295  7111.300  0.500  2.450237  152.011251  13.114494  1.824790
  7111.591  7111.600  0.500  2.456909  151.976910  13.024337  1.623501
  7111.889  7111.900  0.500  2.466444  151.963065  12.899569  1.435844
  7112.196  7112.200  0.500  2.481633  151.924231  12.701871  1.278168
  7112.494  7112.500  0.500  2.504137  151.896491  12.416942  1.153111
  7112.792  7112.800  0.500  2.533962  151.859989  12.049181  1.048078
  7113.097  7113.100  0.500  2.568303  151.857793  11.642259  0.955963
  7113.393  7113.400  0.500  2.599723  151.832057  11.280232  0.879183
  7113.699  7113.700  0.500  2.618885  151.799341  11.063757  0.818209
  7114.002  7114.000  0.500  2.618111  151.793916  11.071924  0.780374
  7114.298  7114.300  0.500  2.601297  151.793237  11.259610  0.759994
  7114.600  7114.600  0.500  2.579841  151.794551  11.503909  0.747884
  7114.897  7114.900  0.500  2.562210  151.760688  11.705927  0.739072
  7115.199  7115.200  0.500  2.551301  151.756510  11.833994  0.730620
  7115.498  7115.500  0.500  2.546477  151.743702  11.890212  0.722470
  7115.798  7115.800  0.500  2.545538  151.738492  11.900983  0.714350
  7116.094  7116.100  0.500  2.546658  151.719637  11.886183  0.707208
  7116.395  7116.400  0.500  2.549137  151.712100  11.856167  0.698136
  7116.696  7116.700  0.500  2.551910  151.691757  11.821739  0.686640
  7116.996  7117.000  0.500  2.555209  151.695543  11.783101  0.669735
  7117.295  7117.300  0.500  2.558238  151.661104  11.744798  0.646777
  7117.595  7117.600  0.500  2.561055  151.651367  11.711009  0.617801
  7117.896  7117.900  0.500  2.565597  151.641205  11.657150  0.581476
  7118.203  7118.200  0.500  2.571637  151.637547  11.586675  0.539425
  7118.508  7118.500  0.500  2.580053  151.612135  11.487655  0.496837
  7118.803  7118.800  0.500  2.591648  151.602751  11.354519  0.454803
  7119.101  7119.100  0.500  2.606732  151.589128  11.183521  0.414276
  7119.402  7119.400  0.500  2.626267  151.560894  10.965132  0.375135
  7119.703  7119.700  0.500  2.650479  151.540980  10.701424  0.338161
  7119.998  7120.000  0.500  2.680894  151.538278  10.380657  0.302024
  7120.296  7120.300  0.500  2.719439  151.523192  9.987154  0.266782
  7120.595  7120.600  0.500  2.766844  151.500112  9.523305  0.233249
  7120.894  7120.900  0.500  2.824476  151.488377  8.989279  0.201801
  7121.201  7121.200  0.500  2.891396  151.471192  8.406450  0.173715
  7121.498  7121.500  0.500  2.963222  151.463722  7.823438  0.149878
  7121.797  7121.800  0.500  3.038556  151.445570  7.254848  0.129908
  7122.100  7122.100  0.500  3.115535  151.423479  6.716357  0.112785
  7122.397  7122.400  0.500  3.187925  151.408454  6.246720  0.098913
  7122.707  7122.700  0.500  3.256948  151.412627  5.830257  0.087312
  7123.001  7123.000  0.500  3.315954  151.375712  5.494847  0.078356
  7123.301  7123.300  0.500  3.370502  151.344729  5.202076  0.070676
  7123.600  7123.600  0.500  3.419228  151.341922  4.954585  0.064540
  7123.903  7123.900  0.500  3.466151  151.324278  4.726919  0.059544
  7124.202  7124.200  0.500  3.513936  151.317104  4.506145  0.054684
  7124.497  7124.500  0.500  3.565222  151.298777  4.280349  0.050125
  7124.800  7124.800  0.500  3.624756  151.274121  4.032301  0.045681
  7125.095  7125.100  0.500  3.693139  151.252722  3.765244  0.041255
  7125.403  7125.400  0.500  3.772841  151.244339  3.476603  0.037056
  7125.700  7125.700  0.500  3.857995  151.216543  3.192225  0.033059
  7125.997  7126.000  0.500  3.947515  151.414934  2.922705  0.029351
  7126.301  7126.300  0.500  4.040510  151.783621  2.669648  0.026083
  7126.605  7126.600  0.500  4.131684  151.748354  2.436445  0.022990
  7126.904  7126.900  0.500  4.215861  151.726636  2.239425  0.020417
  7127.201  7127.200  0.500  4.289539  151.693497  2.079906  0.018476
  7127.501  7127.500  0.500  4.352457  151.675895  1.952848  0.016503
  7127.800  7127.800  0.500  4.403730  151.645291  1.854869  0.015093
  7128.104  7128.100  0.500  4.447067  151.616989  1.775871  0.013746
  7128.405  7128.400  0.500  4.486642  151.601642  1.706790  0.012720
  7128.701  7128.700  0.500  4.524881  151.563066  1.642338  0.011629
  7128.996  7129.000  0.500  4.566978  151.547092  1.574470  0.010661
  7129.295  7129.300  0.500  4.614350  151.505505  1.501211  0.009718
  7129.599  7129.600  0.500  4.671363  151.491038  1.417881  0.008763
  7129.901  7129.900  0.500  4.734183  151.425081  1.330970  0.007785
  7130.198  7130.200  0.500  4.803418  151.443389  1.242088  0.007108
  7130.500  7130.500  0.500  4.876065  151.407447  1.154779  0.006421
  7130.800  7130.800  0.500  4.951481  151.369243  1.070624  0.005890
  7131.106  7131.100  0.500  5.028055  151.336107  0.991485  0.005376
  7131.406  7131.400  0.500  5.097727  151.301803  0.924548  0.005102
  7131.704  7131.700  0.500  5.157677  151.275431  0.870598  0.004858
  7131.999  7132.000  0.500  5.202427  151.254386  0.832382  0.004800
  7132.299  7132.300  0.500  5.231640  151.270367  0.808502  0.004745
  7132.603  7132.600  0.500  5.243053  151.246819  0.799204  0.004986
  7132.896  7132.900  0.500  5.237002  151.218411  0.803903  0.005186
  7133.194  7133.200  0.500  5.215449  151.240315  0.821536  0.005481
  7133.496  7133.500  0.500  5.179888  151.228294  0.851209  0.005933
  7133.798  7133.800  0.500  5.135741  151.191612  0.889414  0.006547
  7134.100  7134.100  0.500  5.087465  151.246871  0.933745  0.006915
  7134.400  7134.400  0.500  5.038222  151.225177  0.980736  0.007485
  7134.701  7134.700  0.500  4.991732  151.216811  1.027350  0.008153
  7135.001  7135.000  0.500  4.948238  151.219554  1.073039  0.008673
  7135.305  7135.300  0.500  4.909698  151.209263  1.115126  0.009119
  7135.607  7135.600  0.500  4.876539  151.197007  1.152628  0.009758
  7135.901  7135.900  0.500  4.851210  151.175575  1.182028  0.010099
  7136.199  7136.200  0.500  4.831450  151.157512  1.205474  0.010406
  7136.503  7136.500  0.500  4.816894  151.160267  1.223171  0.010590
  7136.801  7136.800  0.500  4.806516  151.148230  1.235833  0.010744
  7136.989  7137.000  0.500  4.800815  151.150355  1.242916  0.010989
  7137.996  7137.990  0.500  4.779642  151.140951  1.269434  0.010851
  7139.001  7138.990  0.500  4.754865  151.146093  1.301323  0.010579
  7140.023  7140.010  0.500  4.714004  151.131134  1.355464  0.010686
  7141.079  7141.060  0.500  4.648076  151.129775  1.447826  0.010877
  7142.138  7142.120  0.500  4.570517  151.141146  1.564705  0.011675
  7143.225  7143.200  0.500  4.513256  151.132026  1.656816  0.012592
  7144.289  7144.300  0.500  4.498212  151.070741  1.681248  0.012961
  7145.409  7145.420  0.500  4.519379  151.055627  1.645869  0.012688
  7146.550  7146.560  0.500  4.544026  151.062723  1.605876  0.011919
  7147.696  7147.710  0.500  4.531759  151.056874  1.625634  0.011262
  7148.879  7148.890  0.500  4.474354  151.022308  1.721289  0.011219
  7150.074  7150.080  0.500  4.395158  151.042265  1.863398  0.011492
  7151.299  7151.300  0.500  4.319244  151.038137  2.010308  0.012100
  7152.532  7152.530  0.500  4.266561  151.019042  2.118789  0.012450
  7153.782  7153.780  0.500  4.230296  150.988161  2.196588  0.012764
  7155.060  7155.050  0.500  4.197224  150.979418  2.270317  0.013353
  7156.344  7156.340  0.500  4.160425  150.980865  2.355442  0.014038
  7157.661  7157.650  0.500  4.120581  150.949299  2.450674  0.014821
  7158.984  7158.980  0.500  4.082250  150.929548  2.546102  0.015461
  7160.332  7160.330  0.500  4.052163  150.907251  2.623483  0.015932
  7161.703  7161.700  0.500  4.037308  150.868410  2.662060  0.016291
  7163.080  7163.080  0.500  4.036343  150.831725  2.663982  0.016614
  7164.489  7164.490  0.500  4.043168  150.762647  2.644649  0.016761
  7165.909  7165.910  0.500  4.054188  150.674462  2.614137  0.016936
  7167.360  7167.350  0.500  4.068611  150.683463  2.576857  0.016813
  7168.809  7168.810  0.500  4.088437  150.650774  2.525724  0.016725
  7170.290  7170.290  0.500  4.115994  150.627770  2.456697  0.016497
  7171.786  7171.790  0.500  4.151937  150.593675  2.369427  0.016474
  7173.314  7173.310  0.500  4.196105  150.551891  2.266423  0.016525
  7174.853  7174.850  0.500  4.241542  150.522000  2.165317  0.016466
  7176.415  7176.410  0.500  4.272960  150.482388  2.097793  0.016878
  7177.989  7177.980  0.500  4.294226  150.449280  2.053201  0.017441
  7179.585  7179.580  0.500  4.318691  150.424927  2.003254  0.017565
  7181.193  7181.190  0.500  4.348030  150.401561  1.945033  0.017205
  7182.834  7182.830  0.500  4.373443  150.367891  1.895802  0.016586
  7184.483  7184.480  0.500  4.386521  150.320614  1.870583  0.016049
  7186.157  7186.150  0.500  4.389572  150.273798  1.864303  0.015378
  7187.844  7187.840  0.500  4.390086  150.227545  1.862772  0.014649
  7189.559  7189.550  0.500  4.389271  150.215919  1.864145  0.014057
  7191.290  7191.280  0.500  4.386022  148.577635  1.849815  0.013054
  7193.033  7193.030  0.500  4.379521  149.858951  1.877936  0.012599
  7194.794  7194.790  0.500  4.367026  150.030852  1.903730  0.012316
  7196.587  7196.580  0.500  4.348615  150.021377  1.938982  0.012885
  7198.387  7198.380  0.500  4.327183  149.976702  1.980396  0.013867
  7200.219  7200.210  0.500  4.304494  149.912103  2.024970  0.015044
  7202.064  7202.050  0.500  4.279976  149.889013  2.074913  0.016684
  7203.920  7203.910  0.500  4.255957  149.835766  2.124598  0.018474
  7205.799  7205.790  0.500  4.234288  149.778515  2.170310  0.020155
  7207.697  7207.690  0.500  4.216654  149.727042  2.208162  0.021105
  7209.618  7209.610  0.500  4.202819  149.672500  2.238107  0.020903
  7211.555  7211.550  0.500  4.194358  149.620802  2.256346  0.018856
  7213.520  7213.510  0.500  4.191720  149.584814  2.261760  0.016101
  7215.495  7215.480  0.500  4.194252  149.520758  2.255075  0.013518
  7217.491  7217.480  0.500  4.198830  149.400044  2.242963  0.011622
  7219.502  7219.490  0.500  4.204960  149.402562  2.229293  0.010427
  7221.531  7221.520  0.500  4.211233  149.377113  2.214974  0.010233
  7223.593  7223.580  0.500  4.216844  149.306892  2.201546  0.010672
  7225.660  7225.650  0.500  4.220710  149.185075  2.191262  0.012027
  7227.750  7227.740  0.500  4.221807  146.567675  2.150456  0.013690
  7229.862  7229.850  0.500  4.217580  149.351242  2.200579  0.016039
  7231.989  7231.980  0.500  4.208059  149.298712  2.220849  0.018744
  7234.132  7234.120  0.500  4.194899  149.256133  2.249628  0.021274
  7236.303  7236.290  0.500  4.179693  149.204335  2.283305  0.023205
  7238.489  7238.480  0.500  4.162282  149.161095  2.322734  0.024429
  7240.701  7240.680  0.500  4.142263  149.117892  2.369015  0.024653
  7242.910  7242.900  0.500  4.119361  149.089307  2.423432  0.024442
  7245.158  7245.150  0.500  4.094733  146.281784  2.437082  0.023423
  7247.423  7247.410  0.500  4.074478  148.818949  2.530084  0.023234
  7249.701  7249.690  0.500  4.062313  148.820566  2.561079  0.023004
  7252.000  7251.990  0.500  4.060506  148.748384  2.564465  0.023241
  7254.324  7254.310  0.500  4.065151  146.350852  2.511440  0.023471
  7256.657  7256.650  0.500  4.076845  148.854774  2.524709  0.024166
  7259.010  7259.000  0.500  4.093237  148.719876  2.481413  0.023454
  7261.394  7261.380  0.500  4.112750  148.266032  2.426035  0.022336
  7263.782  7263.770  0.500  4.126361  136.414949  2.201943  0.019698
  7266.198  7266.190  0.500  4.149197  148.512570  2.343095  0.020625
  7268.634  7268.620  0.500  4.160960  149.071524  2.324410  0.019787
  7271.085  7271.070  0.500  4.166222  149.026970  2.311520  0.018826
  7273.565  7273.550  0.500  4.165624  147.746692  2.293032  0.017758
  7276.051  7276.040  0.500  4.164679  149.075338  2.315840  0.017295
  7278.557  7278.550  0.500  4.161586  149.018754  2.322134  0.017104
  7281.083  7281.070  0.500  4.155196  148.988750  2.336549  0.016624
  7283.637  7283.620  0.500  4.146001  147.819444  2.339624  0.015983
  7286.196  7286.190  0.500  4.134422  148.622777  2.379735  0.015808
  7288.781  7288.770  0.500  4.118674  148.705886  2.418859  0.015910
  7291.402  7291.380  0.500  4.099979  148.687321  2.464198  0.016635
  7294.009  7294.000  0.500  4.080927  148.694409  2.511717  0.018415
  7296.661  7296.650  0.500  4.064406  148.629745  2.552447  0.020682
  7299.327  7299.310  0.500  4.050886  148.502514  2.584975  0.022881
  7302.001  7301.990  0.500  4.040985  146.925699  2.582976  0.024597
  7304.700  7304.690  0.500  4.030686  148.619892  2.639808  0.026462
  7307.424  7307.410  0.500  4.020975  148.548808  2.664292  0.027766
  7310.163  7310.150  0.500  4.010573  148.482092  2.690941  0.028204
  7312.907  7312.900  0.500  4.001475  148.371562  2.713516  0.028490
  7315.694  7315.680  0.500  3.995376  148.345566  2.729638  0.028799
  7318.483  7318.470  0.500  3.993993  148.325609  2.733047  0.028682
  7321.302  7321.290  0.500  3.995973  148.270403  2.726625  0.029008
  7324.134  7324.120  0.500  3.998863  148.210432  2.717658  0.028908
  7326.983  7326.970  0.500  4.003355  148.558263  2.711826  0.028929
  7329.865  7329.850  0.500  4.006975  148.661688  2.703908  0.029054
  7332.755  7332.740  0.500  4.007930  148.556845  2.699423  0.029490
  7335.658  7335.650  0.500  4.004028  148.545715  2.709772  0.030262
  7338.585  7338.570  0.500  3.995121  147.193334  2.709127  0.030751
  7341.532  7341.520  0.500  3.986340  148.265928  2.752936  0.030879
  7344.506  7344.490  0.500  3.975655  148.267093  2.782531  0.030113
  7347.484  7347.470  0.500  3.963756  148.227986  2.815094  0.028748
  7350.491  7350.480  0.500  3.950756  148.185594  2.851114  0.027657
  7353.517  7353.500  0.500  3.938314  148.123078  2.885590  0.026721
  7356.564  7356.550  0.500  3.928412  148.020205  2.912280  0.025801
  7359.630  7359.610  0.500  3.920214  147.954750  2.934955  0.025076
  7362.703  7362.690  0.500  3.913766  147.861935  2.952088  0.024461
  7365.799  7365.790  0.500  3.908660  147.775316  2.965463  0.024315
  7368.917  7368.910  0.500  3.905843  147.724886  2.972812  0.024739
  7372.060  7372.050  0.500  3.903572  147.684610  2.978758  0.025683
