# XDI/1.0 BlueSky/1.10.0 BMM/2023-1.0-py310-tiled
# Beamline.name: BMM (06BM) -- Beamline for Materials Measurement (NIST)
# Beamline.xray_source: NSLS-II three-pole wiggler
# Beamline.collimation: paraboloid mirror, 5 nm Rh on 30 nm Pt
# Beamline.focusing: not in use
# Beamline.harmonic_rejection: flat mirror, Si stripe, pitch = 7.0 mrad relative to beam
# Beamline.software: Bluesky 1.10.0, Ophyd 1.7.0, DataBroker 2.0.0b13, Python 3.10.8, 2023-1.0-py310-tiled
# Detector.I0: 10 cm N2
# Detector.I1: 25 cm N2
# Detector.I2: 25 cm N2
# Element.symbol: Fe
# Element.edge: K
# Element.reference: Fe
# Element.reference_material: Fe foil
# Facility.name: NSLS-II
# Facility.energy: 3.0
# Facility.current: 399.9
# Facility.mode: top-off
# Facility.GUP: 123456
# Facility.SAF: 301027
# Facility.cycle: 2023-2
# Mono.name: Si(111)
# Mono.d_spacing: 3.1351860
# Mono.encoder_resolution: 0.0000050 deg/ct
# Mono.angle_offset: 16.0754326 deg
# Mono.scan_mode: pseudo channel cut
# Mono.scan_type: step
# Mono.direction: forward in energy
# Sample.name: FeCO3
# Sample.prep: PEG pellet
# Sample.x: 116.329 mm
# Sample.y: 114.126 mm
# Sample.SDD_position: 205.000 mm
# Scan.experimenters: Bruce Ravel
# Scan.edge_energy: 7112.0
# Scan.start_time: 2023-05-05T18:41:20
# Scan.end_time: 2023-05-05T18:49:30
# Scan.transient_id: 74561
# Scan.uid: 837c2c31-b5ca-400b-811b-e4341530b407
# Scan.plot_hint: ln(I0/It)  --  ln($5/$6)
# Column.1: energy eV
# Column.2: requested_energy eV
# Column.3: measurement_time seconds
# Column.4: xmu 
# Column.5: I0 nA
# Column.6: It nA
# Column.7: Ir nA
# ///////////
# courtesy Martin Stennett, University of Sheffield
# -----------
# energy  requested_energy  measurement_time  xmu  I0  It  Ir
  6912.005  6912.000  0.500  2.287491  153.742624  15.608088  2.929076
  6922.009  6922.000  0.500  2.275149  153.599615  15.787219  2.983745
  6932.015  6932.000  0.500  2.262616  153.527459  15.978805  3.041263
  6942.031  6942.000  0.500  2.250513  153.531266  16.173773  3.099426
  6951.987  6952.000  0.500  2.237971  153.491708  16.373681  3.160245
  6961.996  6962.000  0.500  2.225994  153.470979  16.568732  3.219824
  6972.003  6972.000  0.500  2.214372  153.458510  16.761063  3.280471
  6982.017  6982.000  0.500  2.202296  153.431386  16.961685  3.341497
  6992.010  6992.000  0.500  2.190275  153.393428  17.162572  3.404582
  7002.015  7002.000  0.500  2.178667  153.330526  17.355834  3.466904
  7012.014  7012.000  0.500  2.166913  153.266728  17.553735  3.528666
  7022.005  7022.000  0.500  2.155157  153.202643  17.753882  3.591738
  7032.014  7032.000  0.500  2.143465  153.103697  17.951086  3.655671
  7042.013  7042.000  0.500  2.132128  153.025601  18.146499  3.717884
  7052.011  7052.000  0.500  2.120873  152.949982  18.342813  3.781018
  7062.002  7062.000  0.500  2.110029  152.216788  18.453926  3.824732
  7072.011  7072.000  0.500  2.099635  152.716414  18.707939  3.896363
  7081.978  7082.000  0.500  2.089672  152.893529  18.917172  3.954244
  7083.978  7084.000  0.500  2.087799  152.632069  18.920219  3.956341
  7085.978  7086.000  0.500  2.085709  152.764032  18.976197  3.970117
  7087.985  7088.000  0.500  2.083955  152.747780  19.007481  3.976731
  7089.979  7090.000  0.500  2.082256  152.731422  19.037772  3.982716
  7091.989  7092.000  0.500  2.080690  152.723792  19.066664  3.987439
  7093.978  7094.000  0.500  2.079122  152.699955  19.093589  3.989537
  7096.347  7096.000  0.500  2.077895  152.624195  19.107549  3.989043
  7097.991  7098.000  0.500  2.076948  152.567167  19.118516  3.983531
  7099.984  7100.000  0.500  2.076161  152.606055  19.138444  3.977557
  7101.991  7102.000  0.500  2.075604  152.567683  19.144289  3.961986
  7102.288  7102.300  0.500  2.075562  152.561564  19.144319  3.957468
  7102.585  7102.600  0.500  2.075785  152.545296  19.138009  3.954161
  7102.887  7102.900  0.500  2.075827  152.664445  19.152166  3.953258
  7103.188  7103.200  0.500  2.075764  153.145282  19.213682  3.961796
  7103.481  7103.500  0.500  2.075803  153.134779  19.211632  3.957142
  7103.783  7103.800  0.500  2.076185  153.126426  19.203245  3.951321
  7104.084  7104.100  0.500  2.076244  153.120545  19.201362  3.946412
  7104.386  7104.400  0.500  2.075983  153.118586  19.206134  3.940674
  7104.686  7104.700  0.500  2.076338  153.099293  19.196894  3.933946
  7104.989  7105.000  0.500  2.076352  153.087625  19.195160  3.928026
  7105.287  7105.300  0.500  2.076410  153.077515  19.192785  3.920534
  7105.589  7105.600  0.500  2.076597  153.072686  19.188599  3.912122
  7105.886  7105.900  0.500  2.076923  153.057701  19.180466  3.902198
  7106.186  7106.200  0.500  2.077005  153.060128  19.179182  3.891901
  7106.488  7106.500  0.500  2.077491  153.044447  19.167911  3.879905
  7106.792  7106.800  0.500  2.077772  153.047245  19.162877  3.867797
  7107.087  7107.100  0.500  2.078325  153.048869  19.152490  3.852855
  7107.389  7107.400  0.500  2.078741  153.028841  19.142007  3.837724
  7107.687  7107.700  0.500  2.079055  153.009505  19.133585  3.819361
  7107.985  7108.000  0.500  2.079441  152.997950  19.124745  3.799111
  7108.293  7108.300  0.500  2.079960  152.997907  19.114833  3.775056
  7108.589  7108.600  0.500  2.080552  152.981531  19.101474  3.746080
  7108.886  7108.900  0.500  2.081272  152.954767  19.084390  3.713132
  7109.186  7109.200  0.500  2.082171  152.982081  19.070642  3.672601
  7109.491  7109.500  0.500  2.083368  152.967670  19.046032  3.619359
  7109.793  7109.800  0.500  2.084805  152.950966  19.016603  3.548261
  7110.097  7110.100  0.500  2.086873  152.905416  18.971656  3.451688
  7110.395  7110.400  0.500  2.089852  152.900053  18.914564  3.319492
  7110.693  7110.700  0.500  2.094055  152.884193  18.833290  3.131688
  7110.997  7111.000  0.500  2.099682  152.856215  18.724181  2.887014
  7111.299  7111.300  0.500  2.106349  152.879152  18.602556  2.601495
  7111.591  7111.600  0.500  2.112155  152.821701  18.487906  2.314228
  7111.893  7111.900  0.500  2.115379  152.777933  18.423123  2.058810
  7112.189  7112.200  0.500  2.115974  152.737132  18.407248  1.863134
  7112.487  7112.500  0.500  2.115142  152.718528  18.420319  1.717135
  7112.796  7112.800  0.500  2.114365  152.698626  18.432237  1.607382
  7113.094  7113.100  0.500  2.114167  152.659333  18.431141  1.518691
  7113.397  7113.400  0.500  2.115456  152.653286  18.406680  1.440011
  7113.695  7113.700  0.500  2.117207  152.632826  18.372001  1.367282
  7114.000  7114.000  0.500  2.118056  152.630457  18.356132  1.302592
  7114.300  7114.300  0.500  2.118145  152.610661  18.352120  1.246888
  7114.600  7114.600  0.500  2.118229  152.599758  18.349259  1.201393
  7114.899  7114.900  0.500  2.119455  152.589318  18.325523  1.164615
  7115.195  7115.200  0.500  2.122139  152.585468  18.275945  1.135984
  7115.500  7115.500  0.500  2.126103  152.571071  18.201924  1.112840
  7115.802  7115.800  0.500  2.131866  152.559065  18.095915  1.093467
  7116.097  7116.100  0.500  2.139378  152.546363  17.958980  1.074881
  7116.395  7116.400  0.500  2.149680  152.542294  17.774446  1.053572
  7116.691  7116.700  0.500  2.163498  152.543434  17.530669  1.024859
  7116.996  7117.000  0.500  2.182603  152.524083  17.196732  0.984232
  7117.301  7117.300  0.500  2.206178  152.504271  16.793882  0.931430
  7117.600  7117.600  0.500  2.234816  152.476244  16.316754  0.867090
  7117.896  7117.900  0.500  2.268317  152.453305  15.776815  0.793316
  7118.199  7118.200  0.500  2.307058  152.461778  15.178136  0.713823
  7118.504  7118.500  0.500  2.348452  152.461346  14.562642  0.635528
  7118.803  7118.800  0.500  2.391548  152.432306  13.945722  0.562779
  7119.099  7119.100  0.500  2.435132  152.407381  13.348780  0.498080
  7119.398  7119.400  0.500  2.479086  152.388411  12.773167  0.440721
  7119.699  7119.700  0.500  2.525395  152.366831  12.193416  0.388276
  7120.000  7120.000  0.500  2.577014  152.369252  11.580153  0.339395
  7120.301  7120.300  0.500  2.637055  152.370913  10.905453  0.293302
  7120.597  7120.600  0.500  2.707047  152.324765  10.165174  0.250611
  7120.896  7120.900  0.500  2.789536  152.306881  9.359211  0.211547
  7121.197  7121.200  0.500  2.883046  152.279122  8.522155  0.177460
  7121.502  7121.500  0.500  2.985614  152.280636  7.691462  0.148306
  7121.801  7121.800  0.500  3.093128  152.261310  6.906551  0.124093
  7122.098  7122.100  0.500  3.207179  152.255349  6.161866  0.104281
  7122.399  7122.400  0.500  3.326718  152.222733  5.466437  0.087135
  7122.702  7122.700  0.500  3.448890  152.228737  4.837966  0.073092
  7123.001  7123.000  0.500  3.564742  152.215726  4.308358  0.061658
  7123.301  7123.300  0.500  3.664898  152.230287  3.898129  0.053285
  7123.602  7123.600  0.500  3.741551  152.215103  3.610130  0.047447
  7123.899  7123.900  0.500  3.796689  152.175760  3.415579  0.043297
  7124.202  7124.200  0.500  3.837615  152.153731  3.278139  0.039970
  7124.503  7124.500  0.500  3.865415  152.119224  3.187540  0.037416
  7124.796  7124.800  0.500  3.881003  152.098415  3.137809  0.035798
  7125.095  7125.100  0.500  3.884380  152.058127  3.126403  0.034439
  7125.394  7125.400  0.500  3.877857  152.088972  3.147500  0.033571
  7125.702  7125.700  0.500  3.864136  152.073822  3.190667  0.032933
  7125.997  7126.000  0.500  3.846364  152.055442  3.247485  0.032575
  7126.303  7126.300  0.500  3.825542  152.032842  3.315321  0.032102
  7126.600  7126.600  0.500  3.801536  152.010228  3.395365  0.031989
  7126.902  7126.900  0.500  3.772103  151.955080  3.495520  0.031814
  7127.203  7127.200  0.500  3.735629  151.966067  3.625631  0.031631
  7127.503  7127.500  0.500  3.692880  151.922458  3.782897  0.031761
  7127.800  7127.800  0.500  3.645347  151.878230  3.965896  0.031907
  7128.102  7128.100  0.500  3.596554  151.885046  4.164390  0.032088
  7128.395  7128.400  0.500  3.550965  151.862503  4.357990  0.032104
  7128.701  7128.700  0.500  3.506811  151.825091  4.553601  0.031734
  7129.000  7129.000  0.500  3.469198  151.827396  4.728207  0.031420
  7129.300  7129.300  0.500  3.436861  151.802297  4.882798  0.030710
  7129.597  7129.600  0.500  3.409538  151.772922  5.017075  0.030118
  7129.901  7129.900  0.500  3.385861  151.751694  5.136566  0.029612
  7130.203  7130.200  0.500  3.364692  151.687870  5.244252  0.029120
  7130.502  7130.500  0.500  3.347153  151.674049  5.336559  0.028713
  7130.806  7130.800  0.500  3.332730  151.621850  5.412222  0.028487
  7131.102  7131.100  0.500  3.322951  151.595334  5.464449  0.028628
  7131.399  7131.400  0.500  3.318497  151.576906  5.488179  0.028896
  7131.708  7131.700  0.500  3.320256  151.578681  5.478595  0.029449
  7132.003  7132.000  0.500  3.327899  151.559219  5.436183  0.029878
  7132.303  7132.300  0.500  3.340734  151.568051  5.367170  0.030486
  7132.597  7132.600  0.500  3.357471  151.577915  5.278429  0.031165
  7132.901  7132.900  0.500  3.377859  151.566079  5.171498  0.031813
  7133.201  7133.200  0.500  3.400123  151.548268  5.057037  0.032526
  7133.501  7133.500  0.500  3.423109  151.532549  4.941609  0.033175
  7133.796  7133.800  0.500  3.444427  151.528349  4.837249  0.033827
  7134.098  7134.100  0.500  3.463513  151.522429  4.745612  0.034488
  7134.403  7134.400  0.500  3.478715  151.528502  4.674205  0.035306
  7134.705  7134.700  0.500  3.489905  151.548050  4.622788  0.035919
  7135.003  7135.000  0.500  3.497944  151.527270  4.585146  0.036601
  7135.301  7135.300  0.500  3.503995  151.513804  4.557080  0.037200
  7135.601  7135.600  0.500  3.508391  151.518087  4.537218  0.037830
  7135.901  7135.900  0.500  3.511122  151.499877  4.524300  0.038039
  7136.201  7136.200  0.500  3.511451  151.465321  4.521782  0.038579
  7136.501  7136.500  0.500  3.509730  151.472790  4.529793  0.038954
  7136.793  7136.800  0.500  3.505448  151.475762  4.549320  0.039116
  7137.002  7137.000  0.500  3.501469  151.487820  4.567823  0.039278
  7138.000  7137.990  0.500  3.466897  151.479996  4.728257  0.040023
  7139.005  7138.990  0.500  3.406042  151.472683  5.024685  0.040660
  7140.021  7140.010  0.500  3.319054  151.480405  5.481630  0.042132
  7141.076  7141.060  0.500  3.240872  151.483583  5.927517  0.044112
  7142.136  7142.120  0.500  3.179345  151.477977  6.303440  0.046628
  7143.216  7143.200  0.500  3.116934  151.483264  6.709612  0.050471
  7144.315  7144.300  0.500  3.053629  151.409247  7.144601  0.054376
  7145.437  7145.420  0.500  3.003374  151.425177  7.513623  0.056960
  7146.583  7146.560  0.500  2.973827  151.405334  7.737929  0.056485
  7147.722  7147.710  0.500  2.957969  151.431104  7.862948  0.053991
  7148.914  7148.890  0.500  2.951553  151.410046  7.912461  0.050720
  7150.080  7150.080  0.500  2.956167  151.434643  7.877314  0.048199
  7151.291  7151.300  0.500  2.969090  151.408935  7.774854  0.046221
  7152.521  7152.530  0.500  2.985950  151.381245  7.643465  0.044408
  7153.784  7153.780  0.500  3.008506  151.375067  7.472687  0.043034
  7155.047  7155.050  0.500  3.039635  151.357209  7.242796  0.041987
  7156.342  7156.340  0.500  3.082075  151.322797  6.940270  0.041095
  7157.656  7157.650  0.500  3.133633  151.331813  6.591902  0.039546
  7158.978  7158.980  0.500  3.180917  151.298039  6.286062  0.037923
  7160.339  7160.330  0.500  3.213462  151.260773  6.083273  0.036786
  7161.711  7161.700  0.500  3.228698  151.551325  6.002803  0.036658
  7163.098  7163.080  0.500  3.240258  151.703828  5.939779  0.036799
  7164.504  7164.490  0.500  3.258220  151.674588  5.832918  0.037099
  7165.920  7165.910  0.500  3.278538  151.626637  5.713796  0.036766
  7167.362  7167.350  0.500  3.297002  151.567951  5.607089  0.036679
  7168.820  7168.810  0.500  3.313713  151.531221  5.512834  0.036475
  7170.299  7170.290  0.500  3.326412  151.491128  5.441831  0.036475
  7171.795  7171.790  0.500  3.333162  151.466298  5.404336  0.037439
  7173.321  7173.310  0.500  3.321554  151.431985  5.466195  0.039484
  7174.858  7174.850  0.500  3.296855  151.402729  5.601802  0.042725
  7176.415  7176.410  0.500  3.269697  151.381883  5.755231  0.046346
  7177.989  7177.980  0.500  3.246960  151.344577  5.886132  0.049875
  7179.594  7179.580  0.500  3.230836  151.336930  5.981509  0.052429
  7181.202  7181.190  0.500  3.221571  151.298478  6.035651  0.053319
  7182.834  7182.830  0.500  3.216835  151.251840  6.062431  0.053160
  7184.490  7184.480  0.500  3.216457  151.231996  6.063927  0.052005
  7186.157  7186.150  0.500  3.217826  151.196144  6.054198  0.050128
  7187.846  7187.840  0.500  3.215090  151.179202  6.070106  0.047555
  7189.557  7189.550  0.500  3.207985  151.130327  6.111410  0.045389
  7191.286  7191.280  0.500  3.196746  149.539639  6.115431  0.042669
  7193.046  7193.030  0.500  3.180449  150.767497  6.266949  0.041435
  7194.796  7194.790  0.500  3.160098  150.928681  6.402636  0.041468
  7196.587  7196.580  0.500  3.138849  150.899088  6.538857  0.043210
  7198.385  7198.380  0.500  3.122533  150.835417  6.643614  0.046160
  7200.217  7200.210  0.500  3.113664  150.825678  6.702369  0.049719
  7202.059  7202.050  0.500  3.112007  150.784156  6.711636  0.053681
  7203.922  7203.910  0.500  3.116260  150.726552  6.680597  0.057859
  7205.799  7205.790  0.500  3.122022  150.679719  6.640150  0.061601
  7207.703  7207.690  0.500  3.123373  150.633404  6.629148  0.063544
  7209.624  7209.610  0.500  3.119850  150.589144  6.650590  0.061748
  7211.562  7211.550  0.500  3.114306  150.545970  6.685645  0.055920
  7213.523  7213.510  0.500  3.112304  150.482532  6.696220  0.047358
  7215.493  7215.480  0.500  3.115578  150.426864  6.671865  0.039517
  7217.494  7217.480  0.500  3.121271  150.380560  6.631946  0.033781
  7219.500  7219.490  0.500  3.125082  150.336099  6.604763  0.030748
  7221.536  7221.520  0.500  3.124686  150.271408  6.604536  0.030070
  7223.595  7223.580  0.500  3.122095  150.228063  6.619762  0.032161
  7225.669  7225.650  0.500  3.120330  150.091408  6.625427  0.036254
  7227.748  7227.740  0.500  3.121767  147.446584  6.499328  0.040890
  7229.862  7229.850  0.500  3.125054  150.245047  6.600950  0.048136
  7231.989  7231.980  0.500  3.127330  150.168553  6.582590  0.055296
  7234.132  7234.120  0.500  3.126433  150.112128  6.586024  0.062091
  7236.303  7236.290  0.500  3.124727  150.067437  6.595303  0.067238
  7238.487  7238.480  0.500  3.123249  150.029557  6.603391  0.069543
  7240.692  7240.680  0.500  3.121687  149.988177  6.611888  0.069214
  7242.910  7242.900  0.500  3.120893  149.994821  6.617434  0.066949
  7245.162  7245.150  0.500  3.121201  147.166528  6.490656  0.062218
  7247.419  7247.410  0.500  3.122975  149.724591  6.591772  0.060488
  7249.703  7249.690  0.500  3.127406  149.726063  6.562695  0.058858
  7252.007  7251.990  0.500  3.132197  149.614300  6.526454  0.059409
  7254.317  7254.310  0.500  3.134352  147.264853  6.410136  0.059761
  7256.668  7256.650  0.500  3.131152  149.699573  6.536999  0.062481
  7259.006  7259.000  0.500  3.121774  149.520309  6.590689  0.062446
  7261.394  7261.380  0.500  3.108575  149.094528  6.659239  0.061395
  7263.784  7263.770  0.500  3.093979  137.943879  6.251790  0.056041
  7266.203  7266.190  0.500  3.078866  149.284483  6.868790  0.060239
  7268.639  7268.620  0.500  3.065736  149.890873  6.987843  0.059664
  7271.076  7271.070  0.500  3.054403  149.831819  7.064701  0.057228
  7273.565  7273.550  0.500  3.045175  148.621784  7.072614  0.054332
  7276.053  7276.040  0.500  3.039488  149.857625  7.172094  0.053434
  7278.564  7278.550  0.500  3.039315  149.809191  7.171015  0.052436
  7281.087  7281.070  0.500  3.043512  149.757109  7.138499  0.050788
  7283.630  7283.620  0.500  3.047673  148.674620  7.057477  0.048343
  7286.198  7286.190  0.500  3.048140  149.356550  7.086531  0.046790
  7288.786  7288.770  0.500  3.044635  149.483115  7.117445  0.046386
  7291.391  7291.380  0.500  3.039052  149.452686  7.155832  0.048355
  7294.012  7294.000  0.500  3.033836  149.407741  7.191093  0.052677
  7296.664  7296.650  0.500  3.030685  149.351188  7.211055  0.058447
  7299.322  7299.310  0.500  3.027453  149.242464  7.229136  0.064078
  7302.001  7301.990  0.500  3.022585  147.544603  7.181766  0.068355
  7304.705  7304.690  0.500  3.016821  149.365865  7.312443  0.073604
  7307.426  7307.410  0.500  3.011101  149.265261  7.349440  0.076568
  7310.161  7310.150  0.500  3.005111  149.219191  7.391316  0.078137
  7312.912  7312.900  0.500  2.999127  149.128841  7.431176  0.078313
  7315.694  7315.680  0.500  2.993737  149.063269  7.468047  0.078884
  7318.481  7318.470  0.500  2.991339  149.009340  7.483271  0.079293
  7321.298  7321.290  0.500  2.991396  148.942476  7.479484  0.079616
  7324.134  7324.120  0.500  2.992080  148.879765  7.471227  0.079783
  7326.990  7326.970  0.500  2.990679  148.813318  7.478359  0.079997
  7329.863  7329.850  0.500  2.987240  148.745534  7.500708  0.080517
  7332.748  7332.740  0.500  2.983742  148.670831  7.523207  0.082343
  7335.661  7335.650  0.500  2.982029  148.625233  7.533798  0.084289
  7338.587  7338.570  0.500  2.981778  147.350533  7.471055  0.084719
  7341.534  7341.520  0.500  2.982003  148.375036  7.521310  0.084469
  7344.500  7344.490  0.500  2.981415  148.360630  7.525004  0.081388
  7347.481  7347.470  0.500  2.978830  148.298010  7.541295  0.077481
  7350.493  7350.480  0.500  2.973962  148.245030  7.575389  0.073448
  7353.512  7353.500  0.500  2.967845  148.169643  7.617993  0.070423
  7356.564  7356.550  0.500  2.960439  148.091869  7.670588  0.067932
  7359.625  7359.610  0.500  2.951426  148.035446  7.737090  0.065899
  7362.698  7362.690  0.500  2.941596  147.949560  7.808985  0.064866
  7365.797  7365.790  0.500  2.932072  147.876122  7.879805  0.064620
  7368.926  7368.910  0.500  2.924446  147.799653  7.936022  0.066089
  7372.060  7372.050  0.500  2.919219  147.739024  7.974336  0.069144
