# XDI/1.0 BlueSky/1.10.0 BMM/2023-1.0-py310-tiled
# Beamline.name: BMM (06BM) -- Beamline for Materials Measurement (NIST)
# Beamline.xray_source: NSLS-II three-pole wiggler
# Beamline.collimation: paraboloid mirror, 5 nm Rh on 30 nm Pt
# Beamline.focusing: not in use
# Beamline.harmonic_rejection: flat mirror, Si stripe, pitch = 7.0 mrad relative to beam
# Beamline.software: Bluesky 1.10.0, Ophyd 1.7.0, DataBroker 2.0.0b13, Python 3.10.8, 2023-1.0-py310-tiled
# Detector.I0: 10 cm N2
# Detector.I1: 25 cm N2
# Detector.I2: 25 cm N2
# Element.symbol: Fe
# Element.edge: K
# Element.reference: Fe
# Element.reference_material: Fe foil
# Facility.name: NSLS-II
# Facility.energy: 3.0
# Facility.current: 400.0
# Facility.mode: top-off
# Facility.GUP: 123456
# Facility.SAF: 301027
# Facility.cycle: 2023-2
# Mono.name: Si(111)
# Mono.d_spacing: 3.1351860
# Mono.encoder_resolution: 0.0000050 deg/ct
# Mono.angle_offset: 16.0754326 deg
# Mono.scan_mode: pseudo channel cut
# Mono.scan_type: step
# Mono.direction: forward in energy
# Sample.name: Fe2Al9O6(SiO4)4(O,OH)2
# Sample.prep: PEG pellet
# Sample.x: 116.329 mm
# Sample.y: 114.126 mm
# Sample.SDD_position: 205.000 mm
# Scan.experimenters: Bruce Ravel
# Scan.edge_energy: 7112.0
# Scan.start_time: 2023-05-05T18:23:37
# Scan.end_time: 2023-05-05T18:31:45
# Scan.transient_id: 74551
# Scan.uid: a1a016e6-d5ef-4944-9a33-8460f1c36667
# Scan.plot_hint: ln(I0/It)  --  ln($5/$6)
# Column.1: energy eV
# Column.2: requested_energy eV
# Column.3: measurement_time seconds
# Column.4: xmu 
# Column.5: I0 nA
# Column.6: It nA
# Column.7: Ir nA
# ///////////
# courtesy Martin Stennett, University of Sheffield
# -----------
# energy  requested_energy  measurement_time  xmu  I0  It  Ir
  6912.005  6912.000  0.500  2.946137  153.884221  8.085431  1.518561
  6922.013  6922.000  0.500  2.931031  153.713469  8.199387  1.550347
  6932.013  6932.000  0.500  2.916297  153.680510  8.319303  1.584537
  6942.013  6942.000  0.500  2.901359  153.688043  8.444928  1.619747
  6952.014  6952.000  0.500  2.886784  153.671522  8.567991  1.654540
  6962.016  6962.000  0.500  2.872282  153.663257  8.692683  1.690244
  6972.030  6972.000  0.500  2.858049  153.641931  8.816063  1.726179
  6982.002  6982.000  0.500  2.844192  153.611616  8.937321  1.761810
  6992.006  6992.000  0.500  2.829570  153.587903  9.067554  1.799958
  7002.009  7002.000  0.500  2.815217  153.520567  9.194609  1.837166
  7012.012  7012.000  0.500  2.801485  153.443604  9.317065  1.874060
  7022.010  7022.000  0.500  2.788025  153.383133  9.439605  1.910642
  7032.008  7032.000  0.500  2.774018  153.311989  9.568310  1.949794
  7042.011  7042.000  0.500  2.760052  153.222084  9.697192  1.988356
  7052.011  7052.000  0.500  2.745977  153.151672  9.830130  2.026281
  7062.008  7062.000  0.500  2.732682  152.396650  9.912582  2.055416
  7072.011  7072.000  0.500  2.719295  152.906195  10.079762  2.100214
  7081.976  7082.000  0.500  2.706276  152.832436  10.206923  2.134003
  7083.978  7084.000  0.500  2.703933  152.662715  10.219504  2.138056
  7085.976  7086.000  0.500  2.701311  152.792985  10.255076  2.146421
  7087.985  7088.000  0.500  2.698879  152.807893  10.281047  2.152154
  7089.983  7090.000  0.500  2.696783  152.779037  10.300677  2.156167
  7091.989  7092.000  0.500  2.694164  152.784643  10.328067  2.161004
  7094.439  7094.000  0.500  2.690961  152.739671  10.358153  2.164690
  7095.990  7096.000  0.500  2.689438  152.707932  10.371786  2.166124
  7098.001  7098.000  0.500  2.686741  152.684775  10.398221  2.167771
  7099.988  7100.000  0.500  2.684514  152.665368  10.420074  2.166197
  7101.997  7102.000  0.500  2.682417  152.633777  10.439786  2.161137
  7102.292  7102.300  0.500  2.682210  152.642061  10.442521  2.160186
  7102.585  7102.600  0.500  2.682314  152.620069  10.439925  2.158391
  7102.884  7102.900  0.500  2.681538  152.630204  10.448729  2.157500
  7103.190  7103.200  0.500  2.681416  152.616153  10.449044  2.155329
  7103.485  7103.500  0.500  2.681070  152.546561  10.447886  2.153203
  7103.787  7103.800  0.500  2.680741  152.588179  10.454173  2.151919
  7104.084  7104.100  0.500  2.680461  152.588779  10.457149  2.149819
  7104.384  7104.400  0.500  2.680209  152.569055  10.458432  2.146867
  7104.686  7104.700  0.500  2.679801  152.582532  10.463618  2.144842
  7104.987  7105.000  0.500  2.679717  152.582437  10.464495  2.141912
  7105.289  7105.300  0.500  2.679361  152.563725  10.466941  2.138831
  7105.584  7105.600  0.500  2.679241  152.561975  10.468075  2.134863
  7105.884  7105.900  0.500  2.679190  152.553492  10.468026  2.130306
  7106.186  7106.200  0.500  2.678991  152.548609  10.469774  2.125742
  7106.488  7106.500  0.500  2.678938  152.529369  10.469011  2.119991
  7106.787  7106.800  0.500  2.678832  152.501831  10.468230  2.113868
  7107.089  7107.100  0.500  2.679080  152.481198  10.464213  2.106378
  7107.389  7107.400  0.500  2.678738  152.471900  10.467153  2.098542
  7107.687  7107.700  0.500  2.678909  152.475860  10.465641  2.089815
  7107.987  7108.000  0.500  2.678948  152.484348  10.465816  2.079467
  7108.293  7108.300  0.500  2.678968  152.466332  10.464363  2.067096
  7108.586  7108.600  0.500  2.679144  152.477588  10.463301  2.053275
  7108.888  7108.900  0.500  2.679526  152.445252  10.457079  2.034825
  7109.191  7109.200  0.500  2.679658  152.439396  10.455299  2.013692
  7109.493  7109.500  0.500  2.679984  152.425329  10.450925  1.986082
  7109.793  7109.800  0.500  2.680954  152.425256  10.440788  1.948933
  7110.097  7110.100  0.500  2.682327  152.388091  10.423924  1.896437
  7110.391  7110.400  0.500  2.684347  152.395025  10.403359  1.824933
  7110.695  7110.700  0.500  2.687900  152.381803  10.365560  1.723101
  7110.997  7111.000  0.500  2.693106  152.314936  10.307217  1.588010
  7111.299  7111.300  0.500  2.700929  152.295425  10.225588  1.430063
  7111.593  7111.600  0.500  2.709815  152.259014  10.132705  1.267985
  7111.891  7111.900  0.500  2.717136  152.194341  10.054524  1.123568
  7112.191  7112.200  0.500  2.718955  152.175984  10.035038  1.014392
  7112.490  7112.500  0.500  2.715337  152.157752  10.070206  0.938319
  7112.794  7112.800  0.500  2.710161  152.145887  10.121668  0.882383
  7113.092  7113.100  0.500  2.706186  152.128513  10.160829  0.837323
  7113.397  7113.400  0.500  2.703704  152.116723  10.185287  0.796974
  7113.701  7113.700  0.500  2.700955  152.096996  10.211995  0.760116
  7114.000  7114.000  0.500  2.697529  152.064610  10.244862  0.726932
  7114.302  7114.300  0.500  2.694143  152.065781  10.279694  0.698622
  7114.598  7114.600  0.500  2.691988  152.065520  10.301849  0.675084
  7114.899  7114.900  0.500  2.691293  152.052047  10.308098  0.655754
  7115.197  7115.200  0.500  2.691494  152.027399  10.304360  0.641215
  7115.502  7115.500  0.500  2.692352  151.998692  10.293577  0.630358
  7115.802  7115.800  0.500  2.694587  152.020375  10.272060  0.621662
  7116.092  7116.100  0.500  2.697045  152.015147  10.246489  0.614150
  7116.393  7116.400  0.500  2.700682  152.010310  10.208965  0.605777
  7116.693  7116.700  0.500  2.705592  151.991387  10.157702  0.594448
  7116.998  7117.000  0.500  2.712500  151.964025  10.085954  0.577593
  7117.297  7117.300  0.500  2.720973  151.944357  9.999560  0.554968
  7117.598  7117.600  0.500  2.731299  151.938094  9.896429  0.525733
  7117.896  7117.900  0.500  2.744243  151.930744  9.768685  0.490180
  7118.199  7118.200  0.500  2.760276  151.935002  9.613577  0.451230
  7118.504  7118.500  0.500  2.780893  151.905429  9.415573  0.410077
  7118.803  7118.800  0.500  2.807593  151.875746  9.165710  0.369608
  7119.101  7119.100  0.500  2.841354  151.886757  8.862078  0.330695
  7119.398  7119.400  0.500  2.882862  151.849926  8.499703  0.293367
  7119.701  7119.700  0.500  2.932015  151.873144  8.093251  0.258061
  7120.004  7120.000  0.500  2.986865  151.815483  7.658384  0.224482
  7120.298  7120.300  0.500  3.041521  151.805829  7.250579  0.194975
  7120.593  7120.600  0.500  3.091436  151.803135  6.897430  0.169737
  7120.894  7120.900  0.500  3.131314  151.819156  6.628484  0.149399
  7121.199  7121.200  0.500  3.156896  151.772010  6.459059  0.133408
  7121.500  7121.500  0.500  3.167369  151.759297  6.391227  0.122465
  7121.799  7121.800  0.500  3.166242  151.728451  6.397135  0.114152
  7122.100  7122.100  0.500  3.157375  151.711389  6.453387  0.108352
  7122.397  7122.400  0.500  3.145888  151.696586  6.527307  0.103324
  7122.705  7122.700  0.500  3.135922  151.688066  6.592314  0.098941
  7123.008  7123.000  0.500  3.130671  151.672966  6.626363  0.094842
  7123.301  7123.300  0.500  3.130194  151.636953  6.627946  0.090587
  7123.600  7123.600  0.500  3.134418  151.618582  6.599209  0.086455
  7123.899  7123.900  0.500  3.142360  151.610038  6.546640  0.082776
  7124.204  7124.200  0.500  3.152624  151.560877  6.477686  0.078957
  7124.501  7124.500  0.500  3.163167  151.585250  6.410780  0.075456
  7124.798  7124.800  0.500  3.171676  151.565396  6.355631  0.072341
  7125.095  7125.100  0.500  3.176344  152.140072  6.350016  0.070114
  7125.397  7125.400  0.500  3.175408  152.135965  6.355795  0.068045
  7125.702  7125.700  0.500  3.170398  152.111406  6.386686  0.066129
  7126.002  7126.000  0.500  3.162673  152.085797  6.435131  0.064559
  7126.301  7126.300  0.500  3.153937  152.063036  6.490619  0.063095
  7126.602  7126.600  0.500  3.146086  152.037332  6.540671  0.061708
  7126.902  7126.900  0.500  3.139178  152.014142  6.585008  0.060103
  7127.203  7127.200  0.500  3.133993  151.996039  6.618453  0.058119
  7127.503  7127.500  0.500  3.130963  151.955273  6.636759  0.055728
  7127.800  7127.800  0.500  3.130795  151.915118  6.636115  0.053539
  7128.095  7128.100  0.500  3.133729  151.884786  6.615355  0.050999
  7128.397  7128.400  0.500  3.140225  151.850660  6.571046  0.048396
  7128.701  7128.700  0.500  3.150406  151.828326  6.503526  0.045633
  7128.996  7129.000  0.500  3.162926  151.821774  6.422330  0.042814
  7129.297  7129.300  0.500  3.177244  151.816709  6.330822  0.040141
  7129.597  7129.600  0.500  3.191704  151.793834  6.238996  0.037568
  7129.901  7129.900  0.500  3.205142  151.763946  6.154504  0.035588
  7130.207  7130.200  0.500  3.216056  151.741872  6.086815  0.033847
  7130.502  7130.500  0.500  3.224055  151.686869  6.036134  0.032660
  7130.802  7130.800  0.500  3.229965  151.654977  5.999303  0.031799
  7131.102  7131.100  0.500  3.234293  151.620100  5.972020  0.031511
  7131.397  7131.400  0.500  3.236838  151.576974  5.955146  0.031545
  7131.706  7131.700  0.500  3.237055  151.579776  5.953964  0.032053
  7132.001  7132.000  0.500  3.235961  151.566464  5.959957  0.032958
  7132.297  7132.300  0.500  3.233031  151.558731  5.977141  0.034234
  7132.597  7132.600  0.500  3.229137  151.552716  6.000221  0.035600
  7132.896  7132.900  0.500  3.224152  151.512508  6.028607  0.037456
  7133.201  7133.200  0.500  3.217141  151.493368  6.070258  0.039366
  7133.496  7133.500  0.500  3.209306  151.516139  6.118924  0.041417
  7133.798  7133.800  0.500  3.201661  151.498990  6.165182  0.043434
  7134.103  7134.100  0.500  3.194741  151.483969  6.207380  0.045436
  7134.403  7134.400  0.500  3.189887  151.486813  6.237702  0.047175
  7134.703  7134.700  0.500  3.185574  151.475167  6.264177  0.048925
  7134.998  7135.000  0.500  3.182146  151.488810  6.286258  0.050315
  7135.305  7135.300  0.500  3.178668  151.500745  6.308654  0.051762
  7135.609  7135.600  0.500  3.174379  151.464999  6.334275  0.052790
  7135.903  7135.900  0.500  3.168802  151.456258  6.369331  0.053858
  7136.201  7136.200  0.500  3.162153  151.452624  6.411669  0.054768
  7136.497  7136.500  0.500  3.155319  151.443871  6.455263  0.055554
  7136.797  7136.800  0.500  3.148230  151.428621  6.500535  0.056166
  7137.000  7137.000  0.500  3.143731  151.428414  6.529837  0.056465
  7137.996  7137.990  0.500  3.127709  151.396149  6.633885  0.056241
  7139.007  7138.990  0.500  3.125984  151.389904  6.645063  0.053953
  7140.030  7140.010  0.500  3.133063  151.416678  6.599361  0.051168
  7141.079  7141.060  0.500  3.139808  151.407797  6.554612  0.048977
  7142.138  7142.120  0.500  3.142119  151.395013  6.538927  0.048641
  7143.218  7143.200  0.500  3.139872  151.393822  6.553589  0.049544
  7144.318  7144.300  0.500  3.129337  151.379960  6.622389  0.050822
  7145.446  7145.420  0.500  3.109346  151.365500  6.755462  0.051608
  7146.559  7146.560  0.500  3.086963  151.353257  6.907814  0.050837
  7147.700  7147.710  0.500  3.064108  151.346450  7.067194  0.048793
  7148.882  7148.890  0.500  3.043810  151.325201  7.211100  0.046518
  7150.078  7150.080  0.500  3.027179  151.296614  7.330640  0.045029
  7151.299  7151.300  0.500  3.012318  151.296091  7.440371  0.044458
  7152.527  7152.530  0.500  3.001094  151.279306  7.523515  0.044009
  7153.782  7153.780  0.500  2.994619  151.287254  7.572789  0.043832
  7155.052  7155.050  0.500  2.992713  151.282225  7.586983  0.044209
  7156.346  7156.340  0.500  2.997519  151.279001  7.550445  0.044861
  7157.654  7157.650  0.500  3.009092  151.257751  7.462520  0.045052
  7158.989  7158.980  0.500  3.022295  151.233960  7.363479  0.044735
  7160.337  7160.330  0.500  3.032934  151.191100  7.283492  0.044327
  7161.705  7161.700  0.500  3.040173  151.120417  7.227575  0.044315
  7163.091  7163.080  0.500  3.045832  151.099800  7.185813  0.044873
  7164.495  7164.490  0.500  3.049508  151.063313  7.157715  0.045479
  7165.915  7165.910  0.500  3.050745  151.044942  7.147995  0.046290
  7167.353  7167.350  0.500  3.051594  150.957309  7.137793  0.046755
  7168.811  7168.810  0.500  3.053478  150.951854  7.124100  0.047133
  7170.301  7170.290  0.500  3.055826  150.924037  7.106081  0.047964
  7171.797  7171.790  0.500  3.059061  150.890613  7.081563  0.049222
  7173.316  7173.310  0.500  3.060046  150.856509  7.072991  0.051282
  7174.853  7174.850  0.500  3.059893  150.822345  7.072466  0.054136
  7176.418  7176.410  0.500  3.058494  150.799578  7.081298  0.057305
  7177.987  7177.980  0.500  3.056142  150.791822  7.097609  0.060547
  7179.581  7179.580  0.500  3.053161  150.767440  7.117650  0.062769
  7181.199  7181.190  0.500  3.051296  150.728850  7.129108  0.063357
  7182.832  7182.830  0.500  3.051455  150.659095  7.124678  0.062699
  7184.494  7184.480  0.500  3.051911  150.640874  7.120568  0.061380
  7186.159  7186.150  0.500  3.051111  150.601033  7.124386  0.059043
  7187.844  7187.840  0.500  3.049220  150.563041  7.136066  0.056054
  7189.559  7189.550  0.500  3.045200  150.535250  7.163487  0.053351
  7191.283  7191.280  0.500  3.038753  148.970413  7.134873  0.050078
  7193.037  7193.030  0.500  3.031599  150.179774  7.244438  0.048142
  7194.794  7194.790  0.500  3.026039  150.345982  7.292895  0.047354
  7196.587  7196.580  0.500  3.022462  150.353648  7.319398  0.048696
  7198.390  7198.380  0.500  3.020344  150.311706  7.332874  0.051137
  7200.222  7200.210  0.500  3.018472  150.241167  7.343161  0.054774
  7202.059  7202.050  0.500  3.016663  150.217740  7.355314  0.058992
  7203.922  7203.910  0.500  3.013328  150.160396  7.377064  0.064123
  7205.806  7205.790  0.500  3.010011  150.087638  7.397992  0.068995
  7207.701  7207.690  0.500  3.007178  150.032529  7.416256  0.071575
  7209.622  7209.610  0.500  3.003625  149.985582  7.440324  0.069388
  7211.562  7211.550  0.500  3.000105  149.933515  7.463965  0.062677
  7213.523  7213.510  0.500  2.996984  149.885626  7.484906  0.053321
  7215.495  7215.480  0.500  2.993331  149.826576  7.509338  0.044792
  7217.489  7217.480  0.500  2.987706  149.766702  7.548680  0.038543
  7219.504  7219.490  0.500  2.981385  149.702936  7.593314  0.035156
  7221.533  7221.520  0.500  2.975080  149.643493  7.638306  0.034948
  7223.590  7223.580  0.500  2.969773  149.586445  7.676024  0.037355
  7225.662  7225.650  0.500  2.965507  149.498671  7.704316  0.042161
  7227.750  7227.740  0.500  2.962564  146.856441  7.590454  0.047892
  7229.862  7229.850  0.500  2.959889  149.681615  7.757204  0.056984
  7231.991  7231.980  0.500  2.957582  149.607560  7.771271  0.065468
  7234.130  7234.120  0.500  2.955381  149.553891  7.785601  0.073869
  7236.308  7236.290  0.500  2.953809  149.488750  7.794455  0.079798
  7238.489  7238.480  0.500  2.952361  149.442601  7.803333  0.082388
  7240.692  7240.680  0.500  2.951424  149.392314  7.808025  0.082147
  7242.912  7242.900  0.500  2.950409  149.371783  7.814878  0.079286
  7245.165  7245.150  0.500  2.949078  146.545973  7.677249  0.074121
  7247.421  7247.410  0.500  2.947363  149.086265  7.823738  0.072140
  7249.703  7249.690  0.500  2.945145  149.130916  7.843456  0.070789
  7252.003  7251.990  0.500  2.943210  149.045147  7.854131  0.071609
  7254.324  7254.310  0.500  2.941608  146.649165  7.740262  0.072517
  7256.659  7256.650  0.500  2.940280  149.088980  7.879488  0.075502
  7259.008  7259.000  0.500  2.939239  148.914577  7.878472  0.075035
  7261.394  7261.380  0.500  2.937459  148.447719  7.867764  0.072713
  7263.787  7263.770  0.500  2.935910  137.158376  7.280692  0.065491
  7266.198  7266.190  0.500  2.931013  148.662911  7.930126  0.069704
  7268.632  7268.620  0.500  2.927039  149.243803  7.992811  0.068290
  7271.081  7271.070  0.500  2.923415  149.224002  8.020766  0.065344
  7273.565  7273.550  0.500  2.919733  148.007810  7.984741  0.061768
  7276.060  7276.040  0.500  2.915374  149.274058  8.088226  0.060390
  7278.559  7278.550  0.500  2.910581  149.212237  8.123728  0.059630
  7281.080  7281.070  0.500  2.905679  149.163869  8.161002  0.058367
  7283.628  7283.620  0.500  2.900501  148.037581  8.141428  0.055985
  7286.205  7286.190  0.500  2.894778  148.764472  8.228360  0.054567
  7288.781  7288.770  0.500  2.890002  148.896985  8.275114  0.054206
  7291.386  7291.380  0.500  2.886018  148.855005  8.305803  0.056272
  7294.014  7294.000  0.500  2.882272  148.831763  8.335676  0.061372
  7296.659  7296.650  0.500  2.878938  148.763908  8.359698  0.067993
  7299.327  7299.310  0.500  2.876193  148.654410  8.376510  0.074636
  7301.997  7301.990  0.500  2.872723  146.985567  8.311261  0.079675
  7304.709  7304.690  0.500  2.869747  148.742718  8.435687  0.085221
  7307.424  7307.410  0.500  2.866369  148.660445  8.459548  0.088456
  7310.161  7310.150  0.500  2.862673  148.601047  8.487480  0.090123
  7312.912  7312.900  0.500  2.858611  148.529265  8.517911  0.090138
  7315.696  7315.680  0.500  2.853563  148.472505  8.557745  0.090669
  7318.481  7318.470  0.500  2.848918  148.420989  8.594605  0.091365
  7321.300  7321.290  0.500  2.844569  148.365602  8.628846  0.091993
  7324.137  7324.120  0.500  2.840424  148.831045  8.691865  0.093191
  7326.990  7326.970  0.500  2.836836  148.745815  8.718115  0.093463
  7329.861  7329.850  0.500  2.833187  148.672449  8.745667  0.094319
  7332.750  7332.740  0.500  2.829369  148.613459  8.775644  0.096497
  7335.661  7335.650  0.500  2.825204  148.568001  8.809568  0.099216
  7338.589  7338.570  0.500  2.821210  147.278138  8.768039  0.099935
  7341.534  7341.520  0.500  2.817025  148.327524  8.867542  0.100049
  7344.500  7344.490  0.500  2.813255  148.324250  8.900841  0.096758
  7347.481  7347.470  0.500  2.809642  148.257910  8.929060  0.091885
  7350.491  7350.480  0.500  2.805805  148.202780  8.960052  0.087234
  7353.515  7353.500  0.500  2.801707  148.164684  8.994539  0.083476
  7356.559  7356.550  0.500  2.797982  148.085133  9.023258  0.080180
  7359.621  7359.610  0.500  2.794275  147.983517  9.050553  0.077596
  7362.703  7362.690  0.500  2.790802  147.910339  9.077549  0.075674
  7365.799  7365.790  0.500  2.787396  147.813823  9.102575  0.075074
  7368.926  7368.910  0.500  2.784136  147.747024  9.128169  0.076305
  7372.065  7372.050  0.500  2.780403  147.702482  9.159547  0.079637
  7375.218  7375.200  0.500  2.776306  147.585844  9.189894  0.085823
