# XDI/1.0 BlueSky/1.10.0 BMM/2023-1.0-py310-tiled
# Beamline.name: BMM (06BM) -- Beamline for Materials Measurement (NIST)
# Beamline.xray_source: NSLS-II three-pole wiggler
# Beamline.collimation: paraboloid mirror, 5 nm Rh on 30 nm Pt
# Beamline.focusing: not in use
# Beamline.harmonic_rejection: flat mirror, Si stripe, pitch = 7.0 mrad relative to beam
# Beamline.software: Bluesky 1.10.0, Ophyd 1.7.0, DataBroker 2.0.0b13, Python 3.10.8, 2023-1.0-py310-tiled
# Detector.I0: 10 cm N2
# Detector.I1: 25 cm N2
# Detector.I2: 25 cm N2
# Element.symbol: Fe
# Element.edge: K
# Element.reference: Fe
# Element.reference_material: Fe foil
# Facility.name: NSLS-II
# Facility.energy: 3.0
# Facility.current: 400.3
# Facility.mode: top-off
# Facility.GUP: 123456
# Facility.SAF: 301027
# Facility.cycle: 2023-2
# Mono.name: Si(111)
# Mono.d_spacing: 3.1351860
# Mono.encoder_resolution: 0.0000050 deg/ct
# Mono.angle_offset: 16.0754326 deg
# Mono.scan_mode: pseudo channel cut
# Mono.scan_type: step
# Mono.direction: forward in energy
# Sample.name: Fe3(PO4)2
# Sample.prep: PEG pellet
# Sample.x: 116.329 mm
# Sample.y: 114.126 mm
# Sample.SDD_position: 205.000 mm
# Scan.experimenters: Bruce Ravel
# Scan.edge_energy: 7112.0
# Scan.start_time: 2023-05-05T18:32:27
# Scan.end_time: 2023-05-05T18:40:35
# Scan.transient_id: 74556
# Scan.uid: c56555d7-415b-4074-89aa-fb0bbff20d1d
# Scan.plot_hint: ln(I0/It)  --  ln($5/$6)
# Column.1: energy eV
# Column.2: requested_energy eV
# Column.3: measurement_time seconds
# Column.4: xmu 
# Column.5: I0 nA
# Column.6: It nA
# Column.7: Ir nA
# ///////////
# courtesy Martin Stennett, University of Sheffield
# -----------
# energy  requested_energy  measurement_time  xmu  I0  It  Ir
  6912.001  6912.000  0.500  3.177783  153.920851  6.415103  1.204403
  6922.009  6922.000  0.500  3.162010  153.776674  6.510991  1.231302
  6932.036  6932.000  0.500  3.145804  153.752745  6.616337  1.260689
  6942.019  6942.000  0.500  3.129301  153.720707  6.725032  1.289196
  6952.002  6952.000  0.500  3.113380  153.692357  6.831698  1.319588
  6962.014  6962.000  0.500  3.097617  153.679925  6.939673  1.349140
  6972.018  6972.000  0.500  3.081828  153.677829  7.050020  1.380179
  6982.027  6982.000  0.500  3.066300  153.647553  7.158936  1.411325
  6992.016  6992.000  0.500  3.050649  153.633995  7.271218  1.443113
  7002.013  7002.000  0.500  3.035445  153.566190  7.379361  1.474811
  7012.014  7012.000  0.500  3.020201  153.491823  7.489084  1.506652
  7022.016  7022.000  0.500  3.005237  153.411721  7.598028  1.537814
  7032.014  7032.000  0.500  2.990238  153.335555  7.709015  1.570455
  7042.017  7042.000  0.500  2.975450  153.263286  7.820180  1.602761
  7052.011  7052.000  0.500  2.961138  153.181490  7.928671  1.634959
  7062.012  7062.000  0.500  2.946931  152.450740  8.003751  1.659427
  7072.011  7072.000  0.500  2.934075  152.965670  8.134700  1.695265
  7081.984  7082.000  0.500  2.921731  152.888453  8.231573  1.721107
  7083.991  7084.000  0.500  2.919788  152.656316  8.235066  1.722919
  7085.985  7086.000  0.500  2.917785  152.787085  8.258646  1.728034
  7087.996  7088.000  0.500  2.915691  152.780496  8.275599  1.732073
  7089.992  7090.000  0.500  2.913844  152.793671  8.291616  1.734934
  7091.995  7092.000  0.500  2.912444  152.769562  8.301920  1.737062
  7093.991  7094.000  0.500  2.911091  152.747973  8.311986  1.737237
  7096.317  7096.000  0.500  2.910197  152.680786  8.315760  1.736296
  7098.294  7098.000  0.500  2.909777  152.655620  8.317879  1.733746
  7099.994  7100.000  0.500  2.909932  152.632547  8.315338  1.728516
  7101.999  7102.000  0.500  2.910755  152.636139  8.308693  1.720013
  7102.288  7102.300  0.500  2.910975  152.623149  8.306154  1.718216
  7102.589  7102.600  0.500  2.911287  152.622859  8.303548  1.716838
  7102.889  7102.900  0.500  2.911444  152.588101  8.300353  1.713795
  7103.190  7103.200  0.500  2.911817  152.600949  8.297954  1.711930
  7103.481  7103.500  0.500  2.912521  152.591647  8.291609  1.708529
  7103.785  7103.800  0.500  2.912520  152.594557  8.291778  1.706979
  7104.087  7104.100  0.500  2.912799  152.580023  8.288673  1.703948
  7104.386  7104.400  0.500  2.913432  152.590080  8.283974  1.700329
  7104.688  7104.700  0.500  2.913880  152.580667  8.279754  1.697412
  7104.989  7105.000  0.500  2.914187  152.554624  8.275797  1.693710
  7105.285  7105.300  0.500  2.914990  152.548771  8.268839  1.689762
  7105.584  7105.600  0.500  2.915315  152.541700  8.265773  1.685634
  7105.888  7105.900  0.500  2.915908  152.533232  8.260414  1.680776
  7106.192  7106.200  0.500  2.917004  152.519308  8.250611  1.674842
  7106.488  7106.500  0.500  2.917677  152.522308  8.245221  1.669682
  7106.792  7106.800  0.500  2.918257  152.513222  8.239949  1.663913
  7107.092  7107.100  0.500  2.919231  152.537247  8.233226  1.657064
  7107.383  7107.400  0.500  2.920162  152.544288  8.225946  1.649903
  7107.689  7107.700  0.500  2.921380  152.519894  8.214615  1.640691
  7107.989  7108.000  0.500  2.922717  152.499012  8.202515  1.629255
  7108.287  7108.300  0.500  2.924043  152.490884  8.191208  1.618824
  7108.589  7108.600  0.500  2.925499  152.468169  8.178079  1.604368
  7108.884  7108.900  0.500  2.927253  152.468069  8.163738  1.588816
  7109.188  7109.200  0.500  2.929175  152.413836  8.145162  1.568673
  7109.497  7109.500  0.500  2.931676  152.421752  8.125240  1.544554
  7109.795  7109.800  0.500  2.934966  152.414233  8.098154  1.511492
  7110.093  7110.100  0.500  2.938672  152.396536  8.067262  1.468690
  7110.393  7110.400  0.500  2.943990  152.380379  8.023623  1.407721
  7110.697  7110.700  0.500  2.951562  152.369389  7.962524  1.322306
  7110.995  7111.000  0.500  2.961922  152.379206  7.880964  1.214208
  7111.297  7111.300  0.500  2.973833  152.366408  7.786999  1.088122
  7111.593  7111.600  0.500  2.985178  152.303502  7.695970  0.962186
  7111.889  7111.900  0.500  2.993641  152.258314  7.628855  0.851774
  7112.196  7112.200  0.500  2.998896  152.213314  7.586625  0.766153
  7112.494  7112.500  0.500  3.002577  152.185801  7.557382  0.704272
  7112.792  7112.800  0.500  3.006519  152.163779  7.526560  0.657234
  7113.094  7113.100  0.500  3.011167  152.167129  7.491827  0.618422
  7113.397  7113.400  0.500  3.016210  152.153849  7.453487  0.583726
  7113.699  7113.700  0.500  3.020476  152.125690  7.420382  0.552904
  7114.000  7114.000  0.500  3.022911  152.323135  7.411944  0.526459
  7114.298  7114.300  0.500  3.023918  152.540082  7.415032  0.505091
  7114.600  7114.600  0.500  3.024320  152.533762  7.411744  0.486249
  7114.899  7114.900  0.500  3.024677  152.498358  7.407383  0.472148
  7115.201  7115.200  0.500  3.025213  152.535677  7.405224  0.461245
  7115.500  7115.500  0.500  3.027121  152.504553  7.389597  0.453253
  7115.800  7115.800  0.500  3.032011  152.507573  7.353701  0.445386
  7116.094  7116.100  0.500  3.040384  152.503493  7.292188  0.437946
  7116.393  7116.400  0.500  3.053046  152.514014  7.200929  0.428058
  7116.698  7116.700  0.500  3.070610  152.520407  7.075856  0.414838
  7116.998  7117.000  0.500  3.093501  152.500395  6.914814  0.396704
  7117.297  7117.300  0.500  3.122759  152.460294  6.713668  0.373563
  7117.598  7117.600  0.500  3.160773  152.441487  6.462448  0.344600
  7117.896  7117.900  0.500  3.210492  152.425169  6.148341  0.310246
  7118.201  7118.200  0.500  3.275119  152.381515  5.761906  0.271940
  7118.506  7118.500  0.500  3.355019  152.368961  5.319004  0.233139
  7118.798  7118.800  0.500  3.448692  152.363348  4.843203  0.197358
  7119.099  7119.100  0.500  3.559150  152.370276  4.336918  0.163448
  7119.400  7119.400  0.500  3.682964  152.346569  3.831261  0.133692
  7119.703  7119.700  0.500  3.822122  152.344016  3.333489  0.107693
  7120.000  7120.000  0.500  3.975128  152.312768  2.859962  0.085091
  7120.296  7120.300  0.500  4.147511  152.310368  2.407068  0.065848
  7120.593  7120.600  0.500  4.335639  152.289316  1.994000  0.050020
  7120.892  7120.900  0.500  4.530060  152.264331  1.641414  0.037818
  7121.204  7121.200  0.500  4.727368  152.247150  1.347347  0.028487
  7121.494  7121.500  0.500  4.898821  152.252359  1.135097  0.022257
  7121.801  7121.800  0.500  5.051089  152.229165  0.974625  0.017904
  7122.102  7122.100  0.500  5.185157  152.229779  0.852343  0.014685
  7122.399  7122.400  0.500  5.307306  152.218976  0.754284  0.012329
  7122.705  7122.700  0.500  5.431445  152.175726  0.666038  0.010341
  7123.004  7123.000  0.500  5.557904  152.109378  0.586663  0.008755
  7123.303  7123.300  0.500  5.696325  152.130924  0.510899  0.007342
  7123.602  7123.600  0.500  5.842161  152.135027  0.441582  0.006132
  7123.899  7123.900  0.500  5.999963  152.109237  0.377055  0.005078
  7124.202  7124.200  0.500  6.164029  152.089205  0.319959  0.004054
  7124.497  7124.500  0.500  6.325404  152.059861  0.272224  0.003591
  7124.798  7124.800  0.500  6.483876  152.069939  0.232344  0.003003
  7125.097  7125.100  0.500  6.632098  152.037320  0.200293  0.002509
  7125.399  7125.400  0.500  6.774313  152.024656  0.173727  0.002126
  7125.704  7125.700  0.500  6.899191  152.007505  0.153315  0.001885
  7126.004  7126.000  0.500  7.004626  151.980321  0.137948  0.001639
  7126.301  7126.300  0.500  7.089856  151.949320  0.126652  0.001443
  7126.605  7126.600  0.500  7.146032  151.894284  0.119690  0.001400
  7126.904  7126.900  0.500  7.166356  151.921646  0.117303  0.001391
  7127.203  7127.200  0.500  7.154821  151.914288  0.118659  0.001286
  7127.505  7127.500  0.500  7.111593  151.882694  0.123875  0.001288
  7127.800  7127.800  0.500  7.052162  151.870803  0.131450  0.001396
  7128.099  7128.100  0.500  6.985471  151.816155  0.140464  0.001350
  7128.403  7128.400  0.500  6.921170  151.793092  0.149770  0.001438
  7128.705  7128.700  0.500  6.863627  151.762525  0.158609  0.001450
  7128.994  7129.000  0.500  6.818162  151.756345  0.165980  0.001373
  7129.295  7129.300  0.500  6.781722  151.700551  0.172077  0.001404
  7129.599  7129.600  0.500  6.755540  151.683706  0.176622  0.001426
  7129.903  7129.900  0.500  6.738987  151.645763  0.179525  0.001373
  7130.203  7130.200  0.500  6.725462  151.597170  0.181911  0.001290
  7130.502  7130.500  0.500  6.716146  151.560984  0.183570  0.001213
  7130.802  7130.800  0.500  6.703013  151.544912  0.185977  0.001339
  7131.104  7131.100  0.500  6.683991  151.528684  0.189528  0.001273
  7131.406  7131.400  0.500  6.658805  151.506139  0.194334  0.001267
  7131.704  7131.700  0.500  6.626735  151.477071  0.200628  0.001343
  7132.001  7132.000  0.500  6.589907  151.479577  0.208158  0.001430
  7132.297  7132.300  0.500  6.548135  151.512604  0.217085  0.001520
  7132.601  7132.600  0.500  6.504885  151.483517  0.226636  0.001737
  7132.903  7132.900  0.500  6.457902  151.454334  0.237493  0.001759
  7133.196  7133.200  0.500  6.412094  151.453261  0.248623  0.001870
  7133.494  7133.500  0.500  6.366943  151.448863  0.260098  0.002064
  7133.800  7133.800  0.500  6.326294  151.444345  0.270881  0.002224
  7134.100  7134.100  0.500  6.291032  151.428926  0.280575  0.002394
  7134.398  7134.400  0.500  6.262820  151.447564  0.288638  0.002568
  7134.701  7134.700  0.500  6.241452  151.457185  0.294891  0.002558
  7135.003  7135.000  0.500  6.226059  151.458218  0.299467  0.002723
  7135.301  7135.300  0.500  6.213507  151.463161  0.303260  0.002696
  7135.607  7135.600  0.500  6.205964  151.443546  0.305517  0.002794
  7135.901  7135.900  0.500  6.201501  151.450844  0.306898  0.002808
  7136.203  7136.200  0.500  6.199731  151.444138  0.307428  0.002908
  7136.499  7136.500  0.500  6.199257  151.430528  0.307546  0.002988
  7136.799  7136.800  0.500  6.199567  151.425758  0.307441  0.002963
  7136.998  7137.000  0.500  6.198817  151.395616  0.307611  0.002995
  7137.996  7137.990  0.500  6.184801  151.383620  0.311928  0.003009
  7139.005  7138.990  0.500  6.143356  151.379290  0.325118  0.003003
  7140.026  7140.010  0.500  6.088931  151.372458  0.343287  0.002948
  7141.083  7141.060  0.500  6.043316  151.363330  0.359287  0.003080
  7142.115  7142.120  0.500  6.000186  151.343920  0.375074  0.003116
  7143.190  7143.200  0.500  5.938281  151.326826  0.398982  0.003282
  7144.296  7144.300  0.500  5.863747  151.320624  0.429838  0.003605
  7145.422  7145.420  0.500  5.777209  151.359915  0.468814  0.003819
  7146.563  7146.560  0.500  5.686184  151.344000  0.513437  0.004057
  7147.713  7147.710  0.500  5.599698  151.344298  0.559820  0.004100
  7148.884  7148.890  0.500  5.522230  151.297283  0.604724  0.004139
  7150.078  7150.080  0.500  5.459607  151.318879  0.643897  0.004241
  7151.301  7151.300  0.500  5.410480  151.310470  0.676281  0.004344
  7152.527  7152.530  0.500  5.386084  151.259696  0.692751  0.004317
  7153.782  7153.780  0.500  5.387598  151.281871  0.691804  0.004288
  7155.058  7155.050  0.500  5.411343  151.259838  0.675472  0.004328
  7156.340  7156.340  0.500  5.450897  151.239272  0.649187  0.004129
  7157.652  7157.650  0.500  5.495827  151.216228  0.620571  0.003972
  7158.984  7158.980  0.500  5.543302  151.194441  0.591712  0.003890
  7160.328  7160.330  0.500  5.595491  151.143993  0.561436  0.003698
  7161.703  7161.700  0.500  5.650388  151.106500  0.531314  0.003542
  7163.084  7163.080  0.500  5.705959  151.049069  0.502402  0.003319
  7164.493  7164.490  0.500  5.760691  151.001470  0.475494  0.003301
  7165.913  7165.910  0.500  5.809722  150.935571  0.452545  0.003132
  7167.351  7167.350  0.500  5.854286  150.932547  0.432811  0.003121
  7168.814  7168.810  0.500  5.891335  150.893044  0.416960  0.003031
  7170.301  7170.290  0.500  5.924628  150.870120  0.403246  0.002892
  7171.793  7171.790  0.500  5.960991  150.827455  0.388736  0.002891
  7173.316  7173.310  0.500  5.983397  150.802731  0.380061  0.002919
  7174.864  7174.850  0.500  5.991262  150.768735  0.376998  0.003214
  7176.413  7176.410  0.500  5.988388  150.731915  0.377991  0.003244
  7177.991  7177.980  0.500  5.975014  150.682564  0.382955  0.003524
  7179.581  7179.580  0.500  5.958529  150.689383  0.389338  0.003799
  7181.199  7181.190  0.500  5.946701  150.649909  0.393867  0.003761
  7182.839  7182.830  0.500  5.937653  150.600358  0.397316  0.003780
  7184.485  7184.480  0.500  5.928619  150.568165  0.400836  0.003828
  7186.159  7186.150  0.500  5.915192  150.543886  0.406189  0.003590
  7187.849  7187.840  0.500  5.894146  150.509689  0.414734  0.003616
  7189.561  7189.550  0.500  5.869773  150.478071  0.424877  0.003485
  7191.288  7191.280  0.500  5.842876  148.907380  0.431904  0.003191
  7193.037  7193.030  0.500  5.814846  150.130709  0.447831  0.003080
  7194.796  7194.790  0.500  5.785329  150.285018  0.461721  0.003286
  7196.591  7196.580  0.500  5.756577  150.263446  0.475120  0.003457
  7198.390  7198.380  0.500  5.731019  150.211084  0.487250  0.003611
  7200.222  7200.210  0.500  5.707810  150.173375  0.498566  0.003974
  7202.057  7202.050  0.500  5.687642  150.125994  0.508563  0.004281
  7203.924  7203.910  0.500  5.672084  150.076658  0.516367  0.004642
  7205.803  7205.790  0.500  5.661595  150.027665  0.521641  0.005198
  7207.697  7207.690  0.500  5.653665  149.974487  0.525608  0.005344
  7209.622  7209.610  0.500  5.647749  149.873216  0.528370  0.005175
  7211.555  7211.550  0.500  5.645245  149.859996  0.529647  0.004486
  7213.529  7213.510  0.500  5.647708  149.816099  0.528190  0.003944
  7215.486  7215.480  0.500  5.653819  149.766834  0.524799  0.003365
  7217.494  7217.480  0.500  5.662278  149.707098  0.520171  0.002913
  7219.506  7219.490  0.500  5.671342  149.649407  0.515279  0.002606
  7221.536  7221.520  0.500  5.679661  149.565630  0.510724  0.002543
  7223.590  7223.580  0.500  5.685188  149.549675  0.507855  0.002707
  7225.664  7225.650  0.500  5.688232  149.410684  0.505841  0.002983
  7227.750  7227.740  0.500  5.688125  146.766472  0.496942  0.003388
  7229.864  7229.850  0.500  5.686309  149.555841  0.507307  0.004062
  7231.995  7231.980  0.500  5.680954  149.782818  0.510805  0.004531
  7234.130  7234.120  0.500  5.674081  149.728116  0.514140  0.005119
  7236.299  7236.290  0.500  5.666208  149.676974  0.518027  0.005540
  7238.489  7238.480  0.500  5.657924  149.651108  0.522246  0.005760
  7240.692  7240.680  0.500  5.649604  149.595442  0.526413  0.005802
  7242.912  7242.900  0.500  5.645341  149.579200  0.528605  0.005596
  7245.167  7245.150  0.500  5.644884  146.805501  0.519039  0.005238
  7247.425  7247.410  0.500  5.649849  149.318119  0.525308  0.005068
  7249.694  7249.690  0.500  5.658686  149.319374  0.520691  0.004923
  7252.003  7251.990  0.500  5.667867  149.214849  0.515571  0.004887
  7254.324  7254.310  0.500  5.673104  146.871783  0.504825  0.004928
  7256.668  7256.650  0.500  5.673973  149.285204  0.512674  0.005125
  7259.015  7259.000  0.500  5.669793  149.157571  0.514382  0.005084
  7261.392  7261.380  0.500  5.662724  148.729617  0.516544  0.004963
  7263.789  7263.770  0.500  5.655468  137.506318  0.481043  0.004350
  7266.196  7266.190  0.500  5.643113  148.932614  0.527493  0.004824
  7268.632  7268.620  0.500  5.632151  149.526030  0.535432  0.004811
  7271.083  7271.070  0.500  5.620333  149.448550  0.541517  0.004634
  7273.565  7273.550  0.500  5.607032  148.223860  0.544271  0.004531
  7276.053  7276.040  0.500  5.595258  149.452339  0.555281  0.004385
  7278.557  7278.550  0.500  5.584796  149.411929  0.560969  0.004299
  7281.083  7281.070  0.500  5.574338  149.368509  0.566702  0.004215
  7283.633  7283.620  0.500  5.564382  148.286441  0.568226  0.004166
  7286.198  7286.190  0.500  5.553781  149.002702  0.577056  0.004009
  7288.783  7288.770  0.500  5.542278  149.090611  0.584076  0.004106
  7291.393  7291.380  0.500  5.531676  149.064677  0.590199  0.004263
  7294.012  7294.000  0.500  5.520513  149.017591  0.596635  0.004562
  7296.659  7296.650  0.500  5.510840  148.953483  0.602176  0.005084
  7299.320  7299.310  0.500  5.500834  148.813907  0.607661  0.005548
  7302.001  7301.990  0.500  5.491960  147.165849  0.606288  0.005995
  7304.702  7304.690  0.500  5.484890  148.954180  0.618010  0.006372
  7307.419  7307.410  0.500  5.479092  148.847211  0.621157  0.006750
  7310.159  7310.150  0.500  5.475013  148.813925  0.623556  0.006795
  7312.912  7312.900  0.500  5.471390  148.749380  0.625548  0.006830
  7315.694  7315.680  0.500  5.467567  148.691299  0.627699  0.006791
  7318.481  7318.470  0.500  5.464223  148.633505  0.629556  0.006913
  7321.300  7321.290  0.500  5.461520  148.542040  0.630872  0.006956
  7324.137  7324.120  0.500  5.458716  148.471730  0.632344  0.006899
  7326.981  7326.970  0.500  5.455837  148.409845  0.633903  0.007089
  7329.865  7329.850  0.500  5.451796  148.349630  0.636211  0.007013
  7332.748  7332.740  0.500  5.447050  148.277648  0.638928  0.007273
  7335.667  7335.650  0.500  5.442421  148.204421  0.641575  0.007556
  7338.587  7338.570  0.500  5.436595  146.944823  0.639840  0.007522
  7341.532  7341.520  0.500  5.428396  148.021052  0.649832  0.007435
  7344.497  7344.490  0.500  5.419639  147.990005  0.655410  0.007348
  7347.484  7347.470  0.500  5.409068  147.933470  0.662122  0.007016
  7350.498  7350.480  0.500  5.399283  147.847681  0.668245  0.006648
  7353.519  7353.500  0.500  5.390333  147.759335  0.673850  0.006466
  7356.564  7356.550  0.500  5.381936  147.651562  0.679036  0.006298
  7359.623  7359.610  0.500  5.374257  147.578521  0.683932  0.005986
  7362.700  7362.690  0.500  5.366754  147.528486  0.688849  0.005985
  7365.802  7365.790  0.500  5.358986  147.448298  0.693844  0.006030
  7368.926  7368.910  0.500  5.350524  147.403218  0.699526  0.006061
  7372.063  7372.050  0.500  5.341943  147.374735  0.705418  0.006406
  7375.213  7375.200  0.500  5.333792  147.291740  0.710791  0.006857
  7378.397  7378.380  0.500  5.325200  147.185540  0.716408  0.007487
