# XDI/1.0 BlueSky/1.10.0 BMM/2023-1.0-py310-tiled
# Beamline.name: BMM (06BM) -- Beamline for Materials Measurement (NIST)
# Beamline.xray_source: NSLS-II three-pole wiggler
# Beamline.collimation: paraboloid mirror, 5 nm Rh on 30 nm Pt
# Beamline.focusing: not in use
# Beamline.harmonic_rejection: flat mirror, Si stripe, pitch = 7.0 mrad relative to beam
# Beamline.software: Bluesky 1.10.0, Ophyd 1.7.0, DataBroker 2.0.0b13, Python 3.10.8, 2023-1.0-py310-tiled
# Detector.I0: 10 cm N2
# Detector.I1: 25 cm N2
# Detector.I2: 25 cm N2
# Element.symbol: Fe
# Element.edge: K
# Element.reference: Fe
# Element.reference_material: Fe foil
# Facility.name: NSLS-II
# Facility.energy: 3.0
# Facility.current: 400.5
# Facility.mode: top-off
# Facility.GUP: 123456
# Facility.SAF: 301027
# Facility.cycle: 2023-2
# Mono.name: Si(111)
# Mono.d_spacing: 3.1351860
# Mono.encoder_resolution: 0.0000050 deg/ct
# Mono.angle_offset: 16.0754326 deg
# Mono.scan_mode: pseudo channel cut
# Mono.scan_type: step
# Mono.direction: forward in energy
# Sample.name: Ca10(Mg,Fe)Al4(Si2O7)2(SiO4)4(OH)4
# Sample.prep: PEG pellet
# Sample.x: 142.329 mm
# Sample.y: 114.126 mm
# Sample.SDD_position: 205.000 mm
# Scan.experimenters: Bruce Ravel
# Scan.edge_energy: 7112.0
# Scan.start_time: 2023-05-05T21:14:38
# Scan.end_time: 2023-05-05T21:23:24
# Scan.transient_id: 74646
# Scan.uid: 0f1055d8-354b-4513-905f-9a6c776ac77b
# Scan.plot_hint: ln(I0/It)  --  ln($5/$6)
# Column.1: energy eV
# Column.2: requested_energy eV
# Column.3: measurement_time seconds
# Column.4: xmu 
# Column.5: I0 nA
# Column.6: It nA
# Column.7: Ir nA
# ///////////
# courtesy Martin Stennett, University of Sheffield
# -----------
# energy  requested_energy  measurement_time  xmu  I0  It  Ir
  6911.999  6912.000  0.500  2.171947  155.234034  17.689780  3.317986
  6922.009  6922.000  0.500  2.161324  155.070207  17.859830  3.373763
  6932.015  6932.000  0.500  2.151516  155.007175  18.028524  3.429848
  6942.011  6942.000  0.500  2.141232  155.033110  18.217943  3.490371
  6952.010  6952.000  0.500  2.131279  154.997196  18.395904  3.549301
  6962.012  6962.000  0.500  2.121132  154.992515  18.582965  3.609521
  6972.018  6972.000  0.500  2.110654  154.989322  18.778306  3.672633
  6982.025  6982.000  0.500  2.100831  154.951444  18.959039  3.733126
  6992.018  6992.000  0.500  2.091032  154.938130  19.144086  3.795695
  7002.023  7002.000  0.500  2.081186  154.892842  19.327859  3.857538
  7012.016  7012.000  0.500  2.071367  154.847063  19.512811  3.920532
  7022.014  7022.000  0.500  2.061560  154.782319  19.696867  3.983205
  7032.020  7032.000  0.500  2.051656  154.704677  19.882935  4.046888
  7042.017  7042.000  0.500  2.042143  154.622222  20.062285  4.108326
  7052.018  7052.000  0.500  2.032425  154.535542  20.246849  4.171200
  7062.014  7062.000  0.500  2.022833  153.780481  20.342116  4.214478
  7072.007  7072.000  0.500  2.013442  154.305934  20.604196  4.289783
  7082.003  7082.000  0.500  2.004498  154.221271  20.777902  4.341166
  7084.004  7084.000  0.500  2.002475  154.008804  20.791293  4.345541
  7086.010  7086.000  0.500  2.000743  154.144505  20.845687  4.357982
  7088.000  7088.000  0.500  1.998608  154.144352  20.890233  4.368388
  7090.005  7090.000  0.500  1.996739  154.124085  20.926550  4.375809
  7092.010  7092.000  0.500  1.995015  154.096608  20.958937  4.380889
  7094.004  7094.000  0.500  1.993342  154.063642  20.989526  4.384434
  7096.001  7096.000  0.500  1.991113  154.062824  21.036266  4.389318
  7097.982  7098.000  0.500  1.989020  154.074952  21.082000  4.390701
  7100.225  7100.000  0.500  1.987171  154.020712  21.113576  4.384362
  7101.997  7102.000  0.500  1.985665  153.980585  21.139883  4.372159
  7102.292  7102.300  0.500  1.985247  153.991539  21.150220  4.370470
  7102.591  7102.600  0.500  1.985173  153.993032  21.151992  4.367808
  7102.897  7102.900  0.500  1.984823  153.979712  21.157567  4.364830
  7103.239  7103.200  0.500  1.984708  153.978099  21.159788  4.360729
  7103.479  7103.500  0.500  1.984326  153.987678  21.169195  4.358477
  7103.781  7103.800  0.500  1.984035  153.978205  21.174045  4.353744
  7104.082  7104.100  0.500  1.983775  153.966335  21.177922  4.349696
  7104.386  7104.400  0.500  1.983456  153.968967  21.185030  4.344353
  7104.694  7104.700  0.500  1.983301  153.951411  21.185904  4.339684
  7104.992  7105.000  0.500  1.983039  153.950974  21.191390  4.333245
  7105.291  7105.300  0.500  1.982799  153.952632  21.196715  4.326833
  7105.597  7105.600  0.500  1.982427  153.949442  21.204153  4.319716
  7105.935  7105.900  0.500  1.982022  153.934297  21.210666  4.311298
  7106.218  7106.200  0.500  1.981896  153.934862  21.213406  4.301915
  7106.520  7106.500  0.500  1.981668  153.919036  21.216072  4.290934
  7106.824  7106.800  0.500  1.981343  153.918906  21.222942  4.279673
  7107.096  7107.100  0.500  1.981101  153.900776  21.225580  4.269017
  7107.426  7107.400  0.500  1.981141  153.890063  21.223263  4.249918
  7107.693  7107.700  0.500  1.980951  153.855247  21.222493  4.233565
  7107.989  7108.000  0.500  1.980593  153.843052  21.228394  4.214426
  7108.304  7108.300  0.500  1.980326  153.818814  21.230716  4.188999
  7108.597  7108.600  0.500  1.979967  153.819090  21.238377  4.162394
  7108.893  7108.900  0.500  1.979720  153.819515  21.243700  4.130307
  7109.195  7109.200  0.500  1.979447  153.828535  21.250734  4.090237
  7109.495  7109.500  0.500  1.979485  153.808516  21.247174  4.035662
  7109.793  7109.800  0.500  1.979030  153.787467  21.253917  3.965779
  7110.103  7110.100  0.500  1.978782  153.754074  21.254590  3.864829
  7110.401  7110.400  0.500  1.978638  153.738907  21.255537  3.726797
  7110.697  7110.700  0.500  1.978526  153.720707  21.255399  3.535789
  7110.999  7111.000  0.500  1.978466  153.697115  21.253411  3.278712
  7111.302  7111.300  0.500  1.978503  153.655203  21.246838  2.975462
  7111.600  7111.600  0.500  1.978679  153.663409  21.244243  2.656166
  7111.898  7111.900  0.500  1.978476  153.632537  21.244285  2.375796
  7112.194  7112.200  0.500  1.978443  153.603764  21.240995  2.150222
  7112.492  7112.500  0.500  1.978745  153.570732  21.230031  1.981083
  7112.790  7112.800  0.500  1.979534  153.545876  21.209835  1.852270
  7113.099  7113.100  0.500  1.980264  153.528281  21.191933  1.745269
  7113.397  7113.400  0.500  1.980443  153.490133  21.182888  1.656742
  7113.699  7113.700  0.500  1.981188  153.484225  21.166289  1.574002
  7113.995  7114.000  0.500  1.981605  153.471120  21.155668  1.500897
  7114.298  7114.300  0.500  1.981405  153.481479  21.161322  1.436320
  7114.607  7114.600  0.500  1.980629  153.464664  21.175429  1.382922
  7114.901  7114.900  0.500  1.979620  153.492021  21.200589  1.344627
  7115.201  7115.200  0.500  1.978685  153.474594  21.217995  1.315585
  7115.500  7115.500  0.500  1.977969  153.466862  21.232135  1.295045
  7115.800  7115.800  0.500  1.977315  153.454943  21.244375  1.281027
  7116.101  7116.100  0.500  1.977153  153.441161  21.245899  1.268601
  7116.395  7116.400  0.500  1.977358  153.425847  21.239440  1.255882
  7116.696  7116.700  0.500  1.978070  153.421751  21.223747  1.237970
  7116.996  7117.000  0.500  1.979104  153.393654  21.197923  1.210887
  7117.297  7117.300  0.500  1.980662  153.394901  21.165110  1.171351
  7117.598  7117.600  0.500  1.982219  153.377680  21.129804  1.119278
  7117.898  7117.900  0.500  1.983177  153.797523  21.167345  1.060368
  7118.201  7118.200  0.500  1.984367  153.864272  21.151346  0.990610
  7118.498  7118.500  0.500  1.985277  153.868631  21.132703  0.918827
  7118.801  7118.800  0.500  1.986705  153.850247  21.100027  0.848746
  7119.104  7119.100  0.500  1.988252  153.842548  21.066365  0.781811
  7119.402  7119.400  0.500  1.990239  153.823043  21.021884  0.721040
  7119.701  7119.700  0.500  1.991861  153.809223  20.985926  0.664630
  7119.995  7120.000  0.500  1.993508  153.764785  20.945337  0.610597
  7120.298  7120.300  0.500  1.994655  153.780442  20.923453  0.558721
  7120.604  7120.600  0.500  1.996068  153.763044  20.891546  0.510026
  7120.896  7120.900  0.500  1.997653  153.736929  20.854930  0.466811
  7121.199  7121.200  0.500  1.999647  153.735774  20.813226  0.428320
  7121.496  7121.500  0.500  2.001275  153.704345  20.775106  0.396403
  7121.803  7121.800  0.500  2.003011  153.694170  20.737702  0.368649
  7122.105  7122.100  0.500  2.004913  153.674557  20.695656  0.345479
  7122.401  7122.400  0.500  2.006868  153.668004  20.654351  0.325388
  7122.702  7122.700  0.500  2.009529  153.645985  20.596528  0.307468
  7123.001  7123.000  0.500  2.012523  153.627515  20.532482  0.291865
  7123.298  7123.300  0.500  2.016187  153.606124  20.454541  0.277617
  7123.604  7123.600  0.500  2.020209  153.597226  20.371260  0.265030
  7123.905  7123.900  0.500  2.024093  153.594371  20.291915  0.254136
  7124.200  7124.200  0.500  2.027789  153.562078  20.212801  0.244158
  7124.497  7124.500  0.500  2.031289  153.545437  20.139997  0.235196
  7124.796  7124.800  0.500  2.034667  153.531075  20.070206  0.226465
  7125.097  7125.100  0.500  2.037930  153.510845  20.002184  0.218565
  7125.399  7125.400  0.500  2.041697  153.490612  19.924347  0.210708
  7125.698  7125.700  0.500  2.045539  153.461876  19.844237  0.203574
  7125.997  7126.000  0.500  2.050486  153.448169  19.744541  0.196543
  7126.301  7126.300  0.500  2.056170  153.429049  19.630191  0.189488
  7126.602  7126.600  0.500  2.062657  153.403403  19.499996  0.181744
  7126.902  7126.900  0.500  2.069543  153.381626  19.363435  0.174647
  7127.201  7127.200  0.500  2.076170  153.350042  19.231578  0.167024
  7127.503  7127.500  0.500  2.082928  153.318959  19.098177  0.159342
  7127.802  7127.800  0.500  2.089035  153.301841  18.979769  0.151514
  7128.106  7128.100  0.500  2.095012  153.269578  18.862696  0.144015
  7128.403  7128.400  0.500  2.100706  153.257592  18.754126  0.136581
  7128.698  7128.700  0.500  2.105798  153.231493  18.655708  0.129444
  7128.996  7129.000  0.500  2.110959  153.219956  18.558278  0.122226
  7129.295  7129.300  0.500  2.114969  153.188149  18.480157  0.115652
  7129.599  7129.600  0.500  2.117553  153.159204  18.428991  0.109502
  7129.901  7129.900  0.500  2.119004  153.112677  18.396682  0.104665
  7130.198  7130.200  0.500  2.119166  153.065746  18.388059  0.100814
  7130.500  7130.500  0.500  2.118272  153.048945  18.402494  0.097808
  7130.800  7130.800  0.500  2.116401  153.001389  18.431219  0.096209
  7131.104  7131.100  0.500  2.113850  152.968417  18.474312  0.095456
  7131.404  7131.400  0.500  2.111137  152.956049  18.523010  0.096185
  7131.706  7131.700  0.500  2.108538  152.931973  18.568289  0.097967
  7132.003  7132.000  0.500  2.106204  152.911503  18.609183  0.100834
  7132.299  7132.300  0.500  2.104366  152.887862  18.640545  0.104478
  7132.607  7132.600  0.500  2.102843  152.868718  18.666604  0.108987
  7132.903  7132.900  0.500  2.101997  152.850899  18.680237  0.113443
  7133.198  7133.200  0.500  2.101536  152.845555  18.688191  0.118578
  7133.496  7133.500  0.500  2.101427  152.839762  18.689522  0.123838
  7133.798  7133.800  0.500  2.101424  152.840811  18.689708  0.129236
  7134.103  7134.100  0.500  2.101570  152.828937  18.685521  0.134369
  7134.405  7134.400  0.500  2.101932  152.807330  18.676116  0.139190
  7134.701  7134.700  0.500  2.101931  152.799894  18.675230  0.143350
  7135.003  7135.000  0.500  2.101717  152.786582  18.677599  0.147281
  7135.305  7135.300  0.500  2.101435  152.772444  18.681135  0.150509
  7135.607  7135.600  0.500  2.100746  152.745876  18.690766  0.153509
  7135.903  7135.900  0.500  2.099596  152.739033  18.711440  0.156185
  7136.199  7136.200  0.500  2.098079  152.746494  18.740748  0.157843
  7136.497  7136.500  0.500  2.096612  152.707372  18.763461  0.159345
  7136.795  7136.800  0.500  2.094978  152.695078  18.792633  0.159861
  7137.002  7137.000  0.500  2.094141  152.694487  18.808291  0.160311
  7137.996  7137.990  0.500  2.090762  152.667863  18.868675  0.157997
  7139.007  7138.990  0.500  2.087623  152.668161  18.928022  0.151746
  7140.023  7140.010  0.500  2.084967  152.635647  18.974333  0.144714
  7141.079  7141.060  0.500  2.082333  152.647704  19.025876  0.140160
  7142.138  7142.120  0.500  2.079137  152.627407  19.084232  0.139691
  7143.214  7143.200  0.500  2.074970  152.604116  19.160996  0.142683
  7144.320  7144.300  0.500  2.069948  152.616728  19.259071  0.145475
  7145.446  7145.420  0.500  2.065636  152.590312  19.338932  0.145686
  7146.554  7146.560  0.500  2.062301  152.519661  19.394551  0.140762
  7147.696  7147.710  0.500  2.058639  152.525349  19.466433  0.132789
  7148.882  7148.890  0.500  2.054190  152.488217  19.548474  0.124610
  7150.070  7150.080  0.500  2.049371  152.480589  19.641930  0.119037
  7151.291  7151.300  0.500  2.044800  152.467150  19.730175  0.115913
  7152.525  7152.530  0.500  2.040956  152.455538  19.804658  0.114195
  7153.779  7153.780  0.500  2.037618  152.432069  19.867806  0.113228
  7155.045  7155.050  0.500  2.034231  152.416361  19.933175  0.114412
  7156.342  7156.340  0.500  2.031440  152.394645  19.986035  0.116707
  7157.650  7157.650  0.500  2.028675  152.368399  20.037922  0.119232
  7158.982  7158.980  0.500  2.026339  152.354920  20.083004  0.119962
  7160.341  7160.330  0.500  2.024449  152.319337  20.116306  0.120494
  7161.709  7161.700  0.500  2.023229  152.275749  20.135099  0.121606
  7163.089  7163.080  0.500  2.022704  152.231965  20.139872  0.123648
  7164.495  7164.490  0.500  2.022309  152.187513  20.141949  0.126203
  7165.913  7165.910  0.500  2.022598  152.127134  20.128142  0.128240
  7167.351  7167.350  0.500  2.023300  152.091980  20.109366  0.129600
  7168.816  7168.810  0.500  2.024485  152.062522  20.081655  0.131377
  7170.294  7170.290  0.500  2.026140  152.021499  20.043032  0.133096
  7171.804  7171.790  0.500  2.028131  151.994886  19.999678  0.136879
  7173.312  7173.310  0.500  2.030336  151.959619  19.950996  0.142701
  7174.856  7174.850  0.500  2.032120  151.932073  19.911825  0.150078
  7176.422  7176.410  0.500  2.032798  151.910424  19.895498  0.158737
  7177.987  7177.980  0.500  2.032299  151.872707  19.900475  0.167387
  7179.594  7179.580  0.500  2.031236  151.852440  19.918977  0.173201
  7181.195  7181.190  0.500  2.029357  151.816136  19.951678  0.175019
  7182.839  7182.830  0.500  2.027368  151.795823  19.988718  0.173883
  7184.496  7184.480  0.500  2.025658  151.761613  20.018413  0.170417
  7186.152  7186.150  0.500  2.024034  151.713210  20.044565  0.164121
  7187.849  7187.840  0.500  2.022593  151.682186  20.069355  0.156317
  7189.555  7189.550  0.500  2.020761  151.646987  20.101496  0.148151
  7191.292  7191.280  0.500  2.018979  150.093074  19.931015  0.137863
  7193.035  7193.030  0.500  2.017827  151.260523  20.109194  0.131726
  7194.796  7194.790  0.500  2.016518  151.452598  20.161086  0.129274
  7196.593  7196.580  0.500  2.015042  151.441708  20.189428  0.132186
  7198.392  7198.380  0.500  2.013561  151.412985  20.215501  0.139077
  7200.224  7200.210  0.500  2.011427  151.348844  20.250106  0.148875
  7202.059  7202.050  0.500  2.009001  151.301025  20.292881  0.160640
  7203.918  7203.910  0.500  2.006698  151.254461  20.333418  0.174445
  7205.801  7205.790  0.500  2.004060  151.206822  20.380702  0.187813
  7207.708  7207.690  0.500  2.001364  151.160437  20.429460  0.194328
  7209.618  7209.610  0.500  1.998559  151.104662  20.479274  0.189220
  7211.557  7211.550  0.500  1.995915  151.043346  20.525169  0.170767
  7213.514  7213.510  0.500  1.993516  150.986288  20.566694  0.145049
  7215.493  7215.480  0.500  1.991268  150.945907  20.607469  0.121118
  7217.491  7217.480  0.500  1.988961  150.880582  20.646134  0.104152
  7219.502  7219.490  0.500  1.986737  150.835975  20.685971  0.094685
  7221.529  7221.520  0.500  1.984592  150.782911  20.723096  0.092977
  7223.590  7223.580  0.500  1.982444  150.704466  20.756851  0.099058
  7225.664  7225.650  0.500  1.980514  150.579505  20.779723  0.111683
  7227.750  7227.740  0.500  1.978265  147.955323  20.463548  0.127190
  7229.858  7229.850  0.500  1.975882  150.747350  20.899449  0.150741
  7231.998  7231.980  0.500  1.973594  150.693438  20.939850  0.174381
  7234.130  7234.120  0.500  1.971717  150.634594  20.970982  0.196324
  7236.303  7236.290  0.500  1.969800  150.592473  21.005361  0.212294
  7238.491  7238.480  0.500  1.967942  150.551430  21.038689  0.220038
  7240.694  7240.680  0.500  1.966448  150.508390  21.064112  0.219267
  7242.914  7242.900  0.500  1.965113  150.490975  21.089809  0.211874
  7245.165  7245.150  0.500  1.963747  147.663531  20.721851  0.197738
  7247.425  7247.410  0.500  1.962537  150.211552  21.104950  0.192410
  7249.699  7249.690  0.500  1.961371  150.217513  21.130415  0.188603
  7252.000  7251.990  0.500  1.959964  150.142844  21.149635  0.190659
  7254.319  7254.310  0.500  1.958112  147.806529  20.859147  0.193748
  7256.664  7256.650  0.500  1.956620  150.212129  21.230276  0.201360
  7259.015  7259.000  0.500  1.954709  150.193897  21.268307  0.200330
  7261.392  7261.380  0.500  1.952852  150.097005  21.294085  0.194749
  7263.784  7263.770  0.500  1.949617  139.407020  19.841593  0.176312
  7266.198  7266.190  0.500  1.948873  150.267162  21.403224  0.186238
  7268.637  7268.620  0.500  1.946750  150.903297  21.539517  0.182312
  7271.079  7271.070  0.500  1.944936  150.835589  21.568937  0.173856
  7273.563  7273.550  0.500  1.942368  149.690723  21.460261  0.163985
  7276.049  7276.040  0.500  1.940146  150.858420  21.675796  0.160245
  7278.562  7278.550  0.500  1.938075  150.818058  21.714920  0.157610
  7281.080  7281.070  0.500  1.936114  150.759771  21.749122  0.153391
  7283.628  7283.620  0.500  1.933847  149.721604  21.648377  0.147119
  7286.198  7286.190  0.500  1.931062  150.363511  21.801831  0.142920
  7288.786  7288.770  0.500  1.928532  150.454690  21.870301  0.141231
  7291.391  7291.380  0.500  1.925705  150.424332  21.927810  0.146662
  7294.012  7294.000  0.500  1.922787  150.384238  21.986018  0.159607
  7296.664  7296.650  0.500  1.920310  150.311723  22.029916  0.176859
  7299.320  7299.310  0.500  1.917615  150.196260  22.072402  0.194396
  7302.006  7301.990  0.500  1.915305  148.472923  21.869604  0.207237
  7304.707  7304.690  0.500  1.912539  150.334129  22.205083  0.222170
  7307.419  7307.410  0.500  1.910153  150.252171  22.245990  0.230162
  7310.168  7310.150  0.500  1.907892  150.187223  22.286711  0.234102
  7312.914  7312.900  0.500  1.905363  150.094496  22.329360  0.234305
  7315.694  7315.680  0.500  1.902479  150.038730  22.385525  0.234842
  7318.481  7318.470  0.500  1.899901  149.982044  22.434838  0.236307
  7321.307  7321.290  0.500  1.897427  149.917775  22.480774  0.237801
  7324.134  7324.120  0.500  1.894973  149.865039  22.528063  0.238954
  7326.983  7326.970  0.500  1.892317  149.781219  22.575348  0.240155
  7329.863  7329.850  0.500  1.889864  149.712494  22.620418  0.241691
  7332.755  7332.740  0.500  1.887274  149.661891  22.671415  0.246681
  7335.667  7335.650  0.500  1.884954  149.594656  22.713859  0.252932
  7338.582  7338.570  0.500  1.882255  148.366921  22.588333  0.254825
  7341.532  7341.520  0.500  1.880040  149.390358  22.794569  0.254523
  7344.504  7344.490  0.500  1.877511  149.383017  22.851168  0.246258
  7347.486  7347.470  0.500  1.875183  149.326359  22.895747  0.233398
  7350.498  7350.480  0.500  1.872701  149.261643  22.942700  0.221424
  7353.512  7353.500  0.500  1.870164  149.191635  22.990195  0.211323
  7356.562  7356.550  0.500  1.867598  149.131261  23.039920  0.202953
  7359.621  7359.610  0.500  1.865003  149.050407  23.087264  0.195972
  7362.698  7362.690  0.500  1.862565  148.969597  23.131092  0.190824
  7365.802  7365.790  0.500  1.859907  148.896519  23.181279  0.189335
