# XDI/1.0 BlueSky/1.10.0 BMM/2023-1.0-py310-tiled
# Beamline.name: BMM (06BM) -- Beamline for Materials Measurement (NIST)
# Beamline.xray_source: NSLS-II three-pole wiggler
# Beamline.collimation: paraboloid mirror, 5 nm Rh on 30 nm Pt
# Beamline.focusing: not in use
# Beamline.harmonic_rejection: flat mirror, Si stripe, pitch = 7.0 mrad relative to beam
# Beamline.software: Bluesky 1.10.0, Ophyd 1.7.0, DataBroker 2.0.0b13, Python 3.10.8, 2023-1.0-py310-tiled
# Detector.I0: 10 cm N2
# Detector.I1: 25 cm N2
# Detector.I2: 25 cm N2
# Element.symbol: Fe
# Element.edge: K
# Element.reference: Fe
# Element.reference_material: Fe foil
# Facility.name: NSLS-II
# Facility.energy: 3.0
# Facility.current: 400.9
# Facility.mode: top-off
# Facility.GUP: 123456
# Facility.SAF: 301027
# Facility.cycle: 2023-2
# Mono.name: Si(111)
# Mono.d_spacing: 3.1351860
# Mono.encoder_resolution: 0.0000050 deg/ct
# Mono.angle_offset: 16.0754326 deg
# Mono.scan_mode: pseudo channel cut
# Mono.scan_type: step
# Mono.direction: forward in energy
# Sample.name: FeO
# Sample.prep: powder on tape
# Sample.x: 116.329 mm
# Sample.y: 114.126 mm
# Sample.SDD_position: 205.000 mm
# Scan.experimenters: Bruce Ravel
# Scan.edge_energy: 7112.0
# Scan.start_time: 2023-05-05T16:37:45
# Scan.end_time: 2023-05-05T16:45:53
# Scan.transient_id: 74491
# Scan.uid: ba5b3a2f-e3db-4bac-b267-aafd91d0e1f6
# Scan.plot_hint: ln(I0/It)  --  ln($5/$6)
# Column.1: energy eV
# Column.2: requested_energy eV
# Column.3: measurement_time seconds
# Column.4: xmu 
# Column.5: I0 nA
# Column.6: It nA
# Column.7: Ir nA
# ///////////
# Welcome to BMM
# -----------
# energy  requested_energy  measurement_time  xmu  I0  It  Ir
  6912.034  6912.000  0.500  2.385215  153.942949  14.173407  2.661995
  6922.003  6922.000  0.500  2.373003  153.795135  14.333767  2.712119
  6932.011  6932.000  0.500  2.360039  153.740978  14.515694  2.765716
  6942.019  6942.000  0.500  2.347863  153.821208  14.701177  2.820404
  6952.018  6952.000  0.500  2.335185  153.835941  14.890179  2.876838
  6962.022  6962.000  0.500  2.322621  153.821941  15.077064  2.932579
  6972.003  6972.000  0.500  2.310384  153.851684  15.265644  2.990062
  6982.006  6982.000  0.500  2.298135  153.815109  15.450108  3.046435
  6992.012  6992.000  0.500  2.286165  153.831502  15.637829  3.104665
  7002.011  7002.000  0.500  2.274203  153.794147  15.822162  3.162531
  7012.014  7012.000  0.500  2.262395  153.780528  16.008688  3.220418
  7022.012  7022.000  0.500  2.250762  153.735293  16.191240  3.278733
  7032.008  7032.000  0.500  2.239356  153.682964  16.371390  3.336973
  7041.880  7042.000  0.500  2.228599  153.647662  16.544650  3.392925
  7052.007  7052.000  0.500  2.217520  153.518547  16.714911  3.448182
  7061.998  7062.000  0.500  2.207289  152.773420  16.804846  3.485644
  7072.007  7072.000  0.500  2.198030  153.358002  17.026053  3.548883
  7082.001  7082.000  0.500  2.190690  153.259524  17.140484  3.586091
  7083.995  7084.000  0.500  2.189326  153.097529  17.145735  3.588898
  7085.995  7086.000  0.500  2.188183  153.212176  17.178193  3.595957
  7087.985  7088.000  0.500  2.187372  153.199022  17.190647  3.598998
  7089.990  7090.000  0.500  2.186897  153.204276  17.199410  3.601212
  7091.991  7092.000  0.500  2.186533  153.188868  17.203951  3.599864
  7093.993  7094.000  0.500  2.186833  153.167458  17.196386  3.597208
  7095.990  7096.000  0.500  2.187380  153.129526  17.182726  3.589032
  7097.993  7098.000  0.500  2.188663  153.136778  17.161498  3.578678
  7099.990  7100.000  0.500  2.190771  153.125626  17.124107  3.559900
  7101.993  7102.000  0.500  2.194401  153.098475  17.059048  3.532125
  7102.286  7102.300  0.500  2.194680  153.100211  17.054479  3.528916
  7102.583  7102.600  0.500  2.195385  153.086567  17.040941  3.523233
  7102.880  7102.900  0.500  2.196067  153.095380  17.030307  3.517512
  7103.182  7103.200  0.500  2.197348  153.079343  17.006721  3.508917
  7103.479  7103.500  0.500  2.198308  153.055956  16.987801  3.501708
  7103.785  7103.800  0.500  2.199067  153.046135  16.973817  3.493687
  7104.082  7104.100  0.500  2.199633  153.048144  16.964445  3.488423
  7104.384  7104.400  0.500  2.200681  153.045672  16.946399  3.479237
  7104.686  7104.700  0.500  2.201777  153.033232  16.926461  3.470555
  7104.985  7105.000  0.500  2.202844  153.031394  16.908210  3.460751
  7105.287  7105.300  0.500  2.204179  153.030370  16.885528  3.450174
  7105.593  7105.600  0.500  2.205439  153.032170  16.864469  3.439277
  7105.890  7105.900  0.500  2.206775  153.032823  16.842027  3.426089
  7106.188  7106.200  0.500  2.208441  153.009787  16.811460  3.412942
  7106.490  7106.500  0.500  2.210008  153.001944  16.784274  3.397523
  7106.792  7106.800  0.500  2.211853  152.996099  16.752692  3.381497
  7107.089  7107.100  0.500  2.214169  152.991121  16.713404  3.363492
  7107.389  7107.400  0.500  2.216374  152.988396  16.676299  3.343120
  7107.685  7107.700  0.500  2.218562  152.969552  16.637795  3.320856
  7107.993  7108.000  0.500  2.221140  152.967064  16.594691  3.295281
  7108.293  7108.300  0.500  2.223910  152.950526  16.546995  3.265629
  7108.591  7108.600  0.500  2.227030  152.945941  16.494958  3.232907
  7108.893  7108.900  0.500  2.230680  152.928982  16.433031  3.193157
  7109.197  7109.200  0.500  2.235219  152.916982  16.357331  3.144234
  7109.499  7109.500  0.500  2.240333  152.896814  16.271750  3.083512
  7109.797  7109.800  0.500  2.247144  152.899051  16.161535  3.005305
  7110.097  7110.100  0.500  2.256272  152.888774  16.013605  2.898819
  7110.397  7110.400  0.500  2.268387  152.874095  15.819249  2.751918
  7110.697  7110.700  0.500  2.285678  152.835136  15.544116  2.551357
  7110.997  7111.000  0.500  2.308248  152.819212  15.195627  2.304391
  7111.295  7111.300  0.500  2.334929  152.792123  14.792922  2.031030
  7111.591  7111.600  0.500  2.361512  152.748104  14.400720  1.765159
  7111.896  7111.900  0.500  2.384227  152.707854  14.073589  1.541084
  7112.194  7112.200  0.500  2.401630  152.693926  13.829523  1.375241
  7112.494  7112.500  0.500  2.416166  152.675867  13.628342  1.252743
  7112.792  7112.800  0.500  2.429076  152.642252  13.450565  1.160345
  7113.092  7113.100  0.500  2.442171  152.635579  13.274993  1.083175
  7113.403  7113.400  0.500  2.455884  152.619091  13.092782  1.014274
  7113.701  7113.700  0.500  2.468088  152.587816  12.931319  0.954089
  7113.998  7114.000  0.500  2.478299  152.582827  12.799535  0.900695
  7114.300  7114.300  0.500  2.488904  152.561085  12.662705  0.855654
  7114.603  7114.600  0.500  2.503775  152.558110  12.475546  0.812782
  7114.905  7114.900  0.500  2.524709  152.544419  12.216008  0.773938
  7115.199  7115.200  0.500  2.551526  152.558539  11.893865  0.737640
  7115.498  7115.500  0.500  2.583780  152.559150  11.516406  0.703722
  7115.798  7115.800  0.500  2.623912  152.549563  11.062688  0.668367
  7116.092  7116.100  0.500  2.672585  152.527687  10.535611  0.630833
  7116.404  7116.400  0.500  2.731981  152.505386  9.926609  0.588346
  7116.700  7116.700  0.500  2.799958  152.479381  9.272675  0.541565
  7116.998  7117.000  0.500  2.876951  152.484426  8.585819  0.490478
  7117.297  7117.300  0.500  2.962463  152.486793  7.882262  0.435821
  7117.602  7117.600  0.500  3.057370  152.474959  7.168025  0.378892
  7117.903  7117.900  0.500  3.160697  152.451383  6.463355  0.322689
  7118.203  7118.200  0.500  3.273901  152.451388  5.771571  0.269239
  7118.498  7118.500  0.500  3.392948  152.439051  5.123395  0.222111
  7118.798  7118.800  0.500  3.516904  152.406856  4.525147  0.181473
  7119.104  7119.100  0.500  3.640537  152.406508  3.998879  0.148172
  7119.400  7119.400  0.500  3.757521  152.370511  3.556561  0.121743
  7119.699  7119.700  0.500  3.865233  152.362838  3.193226  0.100914
  7120.002  7120.000  0.500  3.968040  152.356004  2.881122  0.083627
  7120.296  7120.300  0.500  4.064213  152.329282  2.616483  0.069565
  7120.597  7120.600  0.500  4.155178  152.312557  2.388717  0.058106
  7120.896  7120.900  0.500  4.241831  152.308836  2.190390  0.048851
  7121.201  7121.200  0.500  4.327969  152.318260  2.009735  0.041447
  7121.502  7121.500  0.500  4.414828  152.274304  1.842006  0.035180
  7121.799  7121.800  0.500  4.504538  152.280531  1.684024  0.030210
  7122.102  7122.100  0.500  4.601462  152.256368  1.528221  0.025793
  7122.403  7122.400  0.500  4.707593  152.241057  1.374201  0.021775
  7122.700  7122.700  0.500  4.820778  152.217982  1.226955  0.018649
  7122.997  7123.000  0.500  4.941723  152.210342  1.087129  0.015725
  7123.301  7123.300  0.500  5.064823  152.183876  0.961046  0.013331
  7123.597  7123.600  0.500  5.180416  152.197619  0.856213  0.011451
  7123.899  7123.900  0.500  5.286376  152.176745  0.770024  0.009924
  7124.198  7124.200  0.500  5.379293  152.165199  0.701646  0.008816
  7124.501  7124.500  0.500  5.456814  152.147655  0.649233  0.007846
  7124.800  7124.800  0.500  5.520289  152.126850  0.609221  0.007114
  7125.104  7125.100  0.500  5.572796  152.302570  0.578726  0.006730
  7125.405  7125.400  0.500  5.617171  152.372215  0.553859  0.006126
  7125.709  7125.700  0.500  5.657269  152.332950  0.531953  0.005693
  7126.008  7126.000  0.500  5.697797  152.318550  0.510777  0.005451
  7126.303  7126.300  0.500  5.740246  152.304900  0.489505  0.005016
  7126.600  7126.600  0.500  5.787692  152.293833  0.466788  0.004739
  7126.897  7126.900  0.500  5.838831  152.274317  0.443460  0.004253
  7127.195  7127.200  0.500  5.892849  152.279377  0.420155  0.004004
  7127.496  7127.500  0.500  5.947279  152.242845  0.397801  0.003558
  7127.796  7127.800  0.500  5.996403  152.214942  0.378663  0.003304
  7128.102  7128.100  0.500  6.033962  152.184671  0.364632  0.003146
  7128.405  7128.400  0.500  6.058511  152.166970  0.355748  0.002874
  7128.705  7128.700  0.500  6.065045  152.141135  0.353371  0.002864
  7129.004  7129.000  0.500  6.051432  152.147582  0.358230  0.002755
  7129.302  7129.300  0.500  6.019848  152.121877  0.369662  0.002645
  7129.606  7129.600  0.500  5.969529  152.121108  0.388737  0.002700
  7129.901  7129.900  0.500  5.908512  152.093578  0.413121  0.002607
  7130.201  7130.200  0.500  5.838593  152.058691  0.442937  0.002795
  7130.494  7130.500  0.500  5.764614  152.031447  0.476863  0.002758
  7130.798  7130.800  0.500  5.686187  151.986221  0.515614  0.003102
  7131.100  7131.100  0.500  5.607517  151.972625  0.557766  0.003340
  7131.399  7131.400  0.500  5.531661  151.968230  0.601704  0.003438
  7131.706  7131.700  0.500  5.461950  151.992905  0.645251  0.003826
  7132.005  7132.000  0.500  5.399237  151.976917  0.686940  0.004208
  7132.305  7132.300  0.500  5.344745  151.983228  0.725442  0.004545
  7132.605  7132.600  0.500  5.299210  151.997650  0.759310  0.004775
  7132.903  7132.900  0.500  5.259597  152.010480  0.790059  0.005284
  7133.205  7133.200  0.500  5.224615  152.000919  0.818135  0.005638
  7133.503  7133.500  0.500  5.195113  152.010990  0.842687  0.005974
  7133.798  7133.800  0.500  5.169251  152.040229  0.864931  0.006527
  7134.103  7134.100  0.500  5.145991  152.065608  0.885432  0.006749
  7134.403  7134.400  0.500  5.124762  152.080367  0.904518  0.007164
  7134.694  7134.700  0.500  5.104892  152.123625  0.922933  0.007483
  7134.998  7135.000  0.500  5.083446  152.144660  0.943071  0.007867
  7135.298  7135.300  0.500  5.062506  152.162959  0.963143  0.008082
  7135.601  7135.600  0.500  5.040572  152.179400  0.984608  0.008573
  7135.903  7135.900  0.500  5.019101  152.174937  1.005947  0.008811
  7136.203  7136.200  0.500  4.998700  152.195962  1.026823  0.009055
  7136.510  7136.500  0.500  4.981343  152.212195  1.044912  0.009317
  7136.806  7136.800  0.500  4.966233  152.205300  1.060772  0.009624
  7136.998  7137.000  0.500  4.958151  152.224337  1.069514  0.009540
  7137.998  7137.990  0.500  4.934072  152.238403  1.095681  0.009571
  7139.003  7138.990  0.500  4.947331  152.264662  1.081435  0.009047
  7140.026  7140.010  0.500  5.001003  152.284396  1.025056  0.008215
  7141.079  7141.060  0.500  5.080349  152.307723  0.947010  0.007235
  7142.128  7142.120  0.500  5.143649  152.332485  0.889067  0.006932
  7143.214  7143.200  0.500  5.158668  152.347573  0.875900  0.006873
  7144.328  7144.300  0.500  5.120710  152.368869  0.909913  0.007240
  7145.409  7145.420  0.500  5.054083  152.435613  0.973030  0.007665
  7146.546  7146.560  0.500  4.980353  152.449161  1.047575  0.007904
  7147.703  7147.710  0.500  4.917792  152.455333  1.115251  0.007801
  7148.875  7148.890  0.500  4.873136  152.451262  1.166151  0.007709
  7150.072  7150.080  0.500  4.841519  152.453469  1.203629  0.007615
  7151.299  7151.300  0.500  4.818904  152.473785  1.231323  0.007609
  7152.527  7152.530  0.500  4.803166  152.477513  1.250884  0.007468
  7153.777  7153.780  0.500  4.792091  152.469339  1.264747  0.007549
  7155.058  7155.050  0.500  4.788798  152.455981  1.268808  0.007600
  7156.344  7156.340  0.500  4.796948  152.427595  1.258275  0.007671
  7157.658  7157.650  0.500  4.815015  152.440279  1.235848  0.007709
  7159.006  7158.980  0.500  4.839066  152.422264  1.206337  0.007612
  7160.330  7160.330  0.500  4.863999  152.424745  1.176650  0.007439
  7161.703  7161.700  0.500  4.886978  152.386636  1.149633  0.007276
  7163.080  7163.080  0.500  4.913344  152.356942  1.119500  0.007281
  7164.491  7164.490  0.500  4.962270  152.316537  1.065762  0.006976
  7165.904  7165.910  0.500  5.034883  152.291952  0.990958  0.006719
  7167.351  7167.350  0.500  5.115935  152.257101  0.913598  0.006215
  7168.811  7168.810  0.500  5.188026  152.228811  0.849896  0.005975
  7170.296  7170.290  0.500  5.239388  152.193859  0.807160  0.005760
  7171.795  7171.790  0.500  5.276245  152.182808  0.777896  0.005571
  7173.305  7173.310  0.500  5.294436  152.172969  0.763824  0.005724
  7174.853  7174.850  0.500  5.297788  152.137253  0.761089  0.006062
  7176.418  7176.410  0.500  5.282088  152.121796  0.773054  0.006506
  7177.980  7177.980  0.500  5.245938  152.107825  0.801437  0.007132
  7179.587  7179.580  0.500  5.196616  152.103139  0.841931  0.007696
  7181.193  7181.190  0.500  5.145226  152.066528  0.886116  0.008147
  7182.839  7182.830  0.500  5.096221  152.009979  0.930275  0.008356
  7184.490  7184.480  0.500  5.056531  152.001511  0.967886  0.008574
  7186.150  7186.150  0.500  5.025101  151.960233  0.998519  0.008429
  7187.842  7187.840  0.500  4.995120  151.922566  1.028653  0.008352
  7189.555  7189.550  0.500  4.962675  151.909201  1.062482  0.008094
  7191.294  7191.280  0.500  4.932232  150.112238  1.082369  0.007945
  7193.030  7193.030  0.500  4.910440  151.542242  1.116752  0.007726
  7194.794  7194.790  0.500  4.900243  151.722029  1.129536  0.007669
  7196.589  7196.580  0.500  4.903006  151.721703  1.126417  0.007773
  7198.396  7198.380  0.500  4.916176  151.684107  1.111404  0.008038
  7200.219  7200.210  0.500  4.936201  151.651233  1.089133  0.008399
  7202.059  7202.050  0.500  4.955024  151.600600  1.068467  0.008895
  7203.922  7203.910  0.500  4.965122  151.576070  1.057561  0.009442
  7205.806  7205.790  0.500  4.964684  151.527174  1.057684  0.010094
  7207.701  7207.690  0.500  4.958946  151.476121  1.063412  0.010436
  7209.611  7209.610  0.500  4.955435  151.403606  1.066640  0.010232
  7211.562  7211.550  0.500  4.957112  151.361204  1.064555  0.009098
  7213.525  7213.510  0.500  4.965658  151.322181  1.055224  0.007714
  7215.495  7215.480  0.500  4.983081  151.283621  1.036734  0.006371
  7217.485  7217.480  0.500  5.005307  151.244985  1.013687  0.005419
  7219.508  7219.490  0.500  5.026143  151.197473  0.992472  0.004949
  7221.538  7221.520  0.500  5.035497  151.124068  0.982754  0.004795
  7223.588  7223.580  0.500  5.028347  151.083080  0.989538  0.005200
  7225.662  7225.650  0.500  5.007850  150.952929  1.009160  0.005721
  7227.746  7227.740  0.500  4.978462  148.360299  1.021407  0.006795
  7229.862  7229.850  0.500  4.943162  151.128535  1.077850  0.008279
  7231.991  7231.980  0.500  4.906756  151.067678  1.117363  0.009707
  7234.130  7234.120  0.500  4.872442  151.015463  1.155970  0.011149
  7236.301  7236.290  0.500  4.848859  150.975489  1.183242  0.012340
  7238.496  7238.480  0.500  4.844154  150.954222  1.188655  0.012818
  7240.692  7240.680  0.500  4.860999  150.898014  1.168365  0.012412
  7242.912  7242.900  0.500  4.891071  150.876702  1.133593  0.011693
  7245.160  7245.150  0.500  4.923772  148.129933  1.077149  0.010494
  7247.414  7247.410  0.500  4.947010  150.643632  1.070266  0.010144
  7249.705  7249.690  0.500  4.956160  150.657466  1.060615  0.009924
  7252.005  7251.990  0.500  4.951666  150.555608  1.064672  0.009930
  7254.324  7254.310  0.500  4.940475  148.034161  1.058622  0.010179
  7256.664  7256.650  0.500  4.930035  150.645697  1.088604  0.010582
  7259.010  7259.000  0.500  4.926245  150.471113  1.091470  0.010519
  7261.394  7261.380  0.500  4.928863  149.987533  1.085119  0.010291
  7263.787  7263.770  0.500  4.937209  135.524349  0.972333  0.008856
  7266.205  7266.190  0.500  4.940471  150.338970  1.075109  0.009728
  7268.637  7268.620  0.500  4.945487  150.869285  1.073503  0.009362
  7271.085  7271.070  0.500  4.947163  150.812267  1.071300  0.009010
  7273.565  7273.550  0.500  4.944135  149.154913  1.062740  0.008539
  7276.056  7276.040  0.500  4.933331  150.864440  1.086597  0.008360
  7278.562  7278.550  0.500  4.916498  150.735398  1.104097  0.008271
  7281.083  7281.070  0.500  4.894720  150.720978  1.128298  0.008346
  7283.637  7283.620  0.500  4.868361  149.317691  1.147649  0.008053
  7286.202  7286.190  0.500  4.838521  150.427829  1.191201  0.008100
  7288.783  7288.770  0.500  4.810235  150.473703  1.225750  0.008314
  7291.398  7291.380  0.500  4.784707  150.464636  1.257368  0.008767
  7294.014  7294.000  0.500  4.767183  150.425381  1.279264  0.009672
  7296.659  7296.650  0.500  4.758526  150.364908  1.289867  0.010796
  7299.322  7299.310  0.500  4.759354  150.240920  1.287736  0.011651
  7302.003  7301.990  0.500  4.768673  149.040526  1.265598  0.012462
  7304.702  7304.690  0.500  4.782072  150.379523  1.259973  0.012891
  7307.426  7307.410  0.500  4.795917  150.292748  1.241931  0.013206
  7310.168  7310.150  0.500  4.807478  150.703418  1.231011  0.013166
  7312.916  7312.900  0.500  4.816731  150.622940  1.219022  0.013142
  7315.692  7315.680  0.500  4.820729  150.562358  1.213670  0.013104
  7318.483  7318.470  0.500  4.820852  150.517247  1.213156  0.013118
  7321.304  7321.290  0.500  4.818319  150.459052  1.215763  0.013171
  7324.137  7324.120  0.500  4.814089  150.439736  1.220760  0.013371
  7326.978  7326.970  0.500  4.808754  150.377355  1.226781  0.013490
  7329.865  7329.850  0.500  4.801877  150.317325  1.234754  0.013502
  7332.750  7332.740  0.500  4.793826  150.271258  1.244354  0.013935
  7335.667  7335.650  0.500  4.785001  150.210390  1.254875  0.014322
  7338.578  7338.570  0.500  4.775365  148.637671  1.253759  0.014621
  7341.532  7341.520  0.500  4.764240  149.948151  1.278963  0.014569
  7344.502  7344.490  0.500  4.752985  149.961108  1.293551  0.014075
  7347.488  7347.470  0.500  4.742672  149.929635  1.306686  0.013581
  7350.491  7350.480  0.500  4.734629  149.866122  1.316680  0.012994
  7353.510  7353.500  0.500  4.729376  149.814693  1.323160  0.012444
  7356.557  7356.550  0.500  4.724944  149.756661  1.328523  0.011995
  7359.625  7359.610  0.500  4.718712  149.661483  1.335979  0.011742
  7362.705  7362.690  0.500  4.710936  149.580261  1.345677  0.011311
  7365.802  7365.790  0.500  4.701495  149.497123  1.357686  0.011401
  7368.919  7368.910  0.500  4.692437  149.457153  1.369674  0.011740
  7372.063  7372.050  0.500  4.685458  149.399048  1.378729  0.012223
  7375.211  7375.200  0.500  4.680427  149.350324  1.385232  0.013028
