# XDI/1.0 BlueSky/1.10.0 BMM/2023-1.0-py310-tiled
# Beamline.name: BMM (06BM) -- Beamline for Materials Measurement (NIST)
# Beamline.xray_source: NSLS-II three-pole wiggler
# Beamline.collimation: paraboloid mirror, 5 nm Rh on 30 nm Pt
# Beamline.focusing: not in use
# Beamline.harmonic_rejection: flat mirror, Si stripe, pitch = 7.0 mrad relative to beam
# Beamline.software: Bluesky 1.10.0, Ophyd 1.7.0, DataBroker 2.0.0b13, Python 3.10.8, 2023-1.0-py310-tiled
# Detector.I0: 10 cm N2
# Detector.I1: 25 cm N2
# Detector.I2: 25 cm N2
# Element.symbol: Fe
# Element.edge: K
# Element.reference: Fe
# Element.reference_material: Fe foil
# Facility.name: NSLS-II
# Facility.energy: 3.0
# Facility.current: 400.2
# Facility.mode: top-off
# Facility.GUP: 123456
# Facility.SAF: 301027
# Facility.cycle: 2023-2
# Mono.name: Si(111)
# Mono.d_spacing: 3.1351860
# Mono.encoder_resolution: 0.0000050 deg/ct
# Mono.angle_offset: 16.0754326 deg
# Mono.scan_mode: pseudo channel cut
# Mono.scan_type: step
# Mono.direction: forward in energy
# Sample.name: ZnFe2O4
# Sample.prep: PEG pellet
# Sample.x: 116.329 mm
# Sample.y: 114.126 mm
# Sample.SDD_position: 205.000 mm
# Scan.experimenters: Bruce Ravel
# Scan.edge_energy: 7112.0
# Scan.start_time: 2023-05-05T17:57:09
# Scan.end_time: 2023-05-05T18:05:18
# Scan.transient_id: 74536
# Scan.uid: 80fc001b-9195-4483-97c3-cb5da880062f
# Scan.plot_hint: ln(I0/It)  --  ln($5/$6)
# Column.1: energy eV
# Column.2: requested_energy eV
# Column.3: measurement_time seconds
# Column.4: xmu 
# Column.5: I0 nA
# Column.6: It nA
# Column.7: Ir nA
# ///////////
# courtesy Martin Stennett, University of Sheffield
# -----------
# energy  requested_energy  measurement_time  xmu  I0  It  Ir
  6912.003  6912.000  0.500  2.337933  154.471904  14.910703  2.798244
  6921.815  6922.000  0.500  2.325681  154.326146  15.080275  2.850322
  6932.034  6932.000  0.500  2.312684  154.283605  15.273341  2.907539
  6942.009  6942.000  0.500  2.300169  154.275499  15.464868  2.964476
  6951.999  6952.000  0.500  2.287412  154.241455  15.659959  3.022793
  6962.014  6962.000  0.500  2.275148  154.241710  15.853218  3.082158
  6972.012  6972.000  0.500  2.262646  154.230064  16.051448  3.142053
  6982.019  6982.000  0.500  2.250193  154.185285  16.247867  3.202094
  6992.014  6992.000  0.500  2.238062  154.185873  16.446233  3.262844
  7002.019  7002.000  0.500  2.225877  154.089049  16.637411  3.322900
  7012.014  7012.000  0.500  2.214025  154.056521  16.832220  3.384550
  7022.020  7022.000  0.500  2.202132  153.994243  17.026707  3.446404
  7032.016  7032.000  0.500  2.190245  153.931271  17.223264  3.508448
  7042.015  7042.000  0.500  2.178294  153.844757  17.420540  3.570271
  7052.009  7052.000  0.500  2.166612  153.757184  17.615200  3.631282
  7062.010  7062.000  0.500  2.155408  152.989876  17.724787  3.674420
  7072.011  7072.000  0.500  2.144607  153.534924  17.981098  3.746303
  7081.973  7082.000  0.500  2.133449  152.827824  18.099105  3.784579
  7083.991  7084.000  0.500  2.132205  153.178308  18.163196  3.799702
  7085.989  7086.000  0.500  2.130471  153.309139  18.210263  3.810182
  7087.992  7088.000  0.500  2.128816  153.322146  18.241976  3.817547
  7089.992  7090.000  0.500  2.126638  153.316736  18.281111  3.825133
  7091.991  7092.000  0.500  2.125035  153.290170  18.307263  3.829185
  7094.006  7094.000  0.500  2.123527  153.238491  18.328713  3.830329
  7096.116  7096.000  0.500  2.122173  153.218263  18.351109  3.831476
  7098.006  7098.000  0.500  2.120933  153.183069  18.369669  3.828822
  7099.994  7100.000  0.500  2.119854  153.156714  18.386334  3.821975
  7101.995  7102.000  0.500  2.119109  153.132899  18.397174  3.808010
  7102.290  7102.300  0.500  2.119098  153.129180  18.396935  3.805062
  7102.587  7102.600  0.500  2.119044  153.103943  18.394895  3.800806
  7102.889  7102.900  0.500  2.118852  153.073595  18.394770  3.798829
  7103.190  7103.200  0.500  2.119293  153.068171  18.386010  3.791609
  7103.483  7103.500  0.500  2.118978  153.040061  18.388422  3.788391
  7103.781  7103.800  0.500  2.118917  153.065610  18.392614  3.785669
  7104.084  7104.100  0.500  2.118789  153.062628  18.394625  3.780642
  7104.384  7104.400  0.500  2.118763  153.011610  18.388959  3.774641
  7104.690  7104.700  0.500  2.118954  153.006582  18.384849  3.768405
  7104.987  7105.000  0.500  2.118901  153.013421  18.386647  3.762918
  7105.287  7105.300  0.500  2.118828  152.987367  18.384860  3.755966
  7105.582  7105.600  0.500  2.119299  152.992331  18.376797  3.746360
  7105.890  7105.900  0.500  2.119464  152.980036  18.372293  3.737563
  7106.188  7106.200  0.500  2.119388  152.982087  18.373925  3.729084
  7106.490  7106.500  0.500  2.119239  152.961016  18.374140  3.719902
  7106.790  7106.800  0.500  2.119446  152.940017  18.367806  3.707611
  7107.087  7107.100  0.500  2.119632  152.944688  18.364949  3.696526
  7107.387  7107.400  0.500  2.120008  152.930235  18.356317  3.680105
  7107.693  7107.700  0.500  2.120275  152.914668  18.349547  3.662976
  7107.989  7108.000  0.500  2.120412  152.899587  18.345219  3.643105
  7108.289  7108.300  0.500  2.120698  152.886550  18.338413  3.621883
  7108.586  7108.600  0.500  2.121121  152.896592  18.331859  3.595303
  7108.888  7108.900  0.500  2.121487  152.894641  18.324917  3.564742
  7109.193  7109.200  0.500  2.122034  152.881989  18.313381  3.524139
  7109.491  7109.500  0.500  2.122677  152.857871  18.298725  3.475465
  7109.791  7109.800  0.500  2.123497  152.836245  18.281134  3.409993
  7110.093  7110.100  0.500  2.124502  152.823057  18.261202  3.319439
  7110.395  7110.400  0.500  2.125636  152.816492  18.239729  3.193503
  7110.699  7110.700  0.500  2.127073  152.772177  18.208254  3.015559
  7110.999  7111.000  0.500  2.129120  152.750720  18.168457  2.786862
  7111.293  7111.300  0.500  2.131214  152.744140  18.129676  2.523138
  7111.591  7111.600  0.500  2.134596  152.712775  18.064752  2.248310
  7111.893  7111.900  0.500  2.140181  152.686122  17.961010  1.996115
  7112.191  7112.200  0.500  2.147882  152.659765  17.820152  1.794619
  7112.494  7112.500  0.500  2.159090  152.635253  17.618702  1.638844
  7112.788  7112.800  0.500  2.171075  152.606285  17.405506  1.517330
  7113.094  7113.100  0.500  2.180255  152.580601  17.243541  1.419272
  7113.397  7113.400  0.500  2.185588  152.549564  17.148340  1.339707
  7113.699  7113.700  0.500  2.187454  152.515549  17.112555  1.271615
  7114.000  7114.000  0.500  2.188312  152.514276  17.097738  1.212335
  7114.296  7114.300  0.500  2.189408  152.470877  17.074157  1.160398
  7114.598  7114.600  0.500  2.188711  152.942249  17.138884  1.122053
  7114.901  7114.900  0.500  2.185559  152.948990  17.193742  1.092875
  7115.201  7115.200  0.500  2.180693  152.954912  17.278273  1.074306
  7115.500  7115.500  0.500  2.177498  152.933350  17.331133  1.060963
  7115.800  7115.800  0.500  2.177149  152.973952  17.341774  1.049020
  7116.090  7116.100  0.500  2.179562  152.944825  17.296689  1.036669
  7116.395  7116.400  0.500  2.183596  152.930197  17.225405  1.022213
  7116.698  7116.700  0.500  2.188434  152.880776  17.136735  1.002238
  7116.994  7117.000  0.500  2.193669  152.885503  17.047780  0.976255
  7117.295  7117.300  0.500  2.199219  152.854950  16.950044  0.939812
  7117.598  7117.600  0.500  2.205415  152.843633  16.844099  0.892982
  7117.900  7117.900  0.500  2.212026  152.825537  16.731122  0.838107
  7118.205  7118.200  0.500  2.219636  152.818729  16.603555  0.776001
  7118.502  7118.500  0.500  2.227966  152.789526  16.462666  0.714021
  7118.798  7118.800  0.500  2.237842  152.762558  16.298015  0.654812
  7119.104  7119.100  0.500  2.250007  152.759972  16.100676  0.597497
  7119.407  7119.400  0.500  2.264702  152.731211  15.862810  0.543284
  7119.699  7119.700  0.500  2.282502  152.713440  15.581141  0.493300
  7120.000  7120.000  0.500  2.304107  152.676911  15.244467  0.444473
  7120.294  7120.300  0.500  2.329835  152.666809  14.856280  0.397500
  7120.599  7120.600  0.500  2.360199  152.646071  14.410010  0.352563
  7120.898  7120.900  0.500  2.394415  152.603148  13.921375  0.312284
  7121.201  7121.200  0.500  2.432093  152.566891  13.403421  0.276958
  7121.498  7121.500  0.500  2.472667  152.539880  12.868202  0.246882
  7121.797  7121.800  0.500  2.518094  152.524656  12.295484  0.220086
  7122.102  7122.100  0.500  2.568756  152.519045  11.687660  0.196361
  7122.399  7122.400  0.500  2.623134  152.492584  11.067162  0.175591
  7122.702  7122.700  0.500  2.682005  152.485351  10.433938  0.156811
  7123.001  7123.000  0.500  2.742367  152.468558  9.821675  0.140553
  7123.298  7123.300  0.500  2.803293  152.436638  9.239205  0.126363
  7123.606  7123.600  0.500  2.864279  152.416165  8.691417  0.114101
  7123.905  7123.900  0.500  2.925003  152.392543  8.178072  0.103193
  7124.202  7124.200  0.500  2.986805  152.357567  7.686191  0.093700
  7124.495  7124.500  0.500  3.053250  152.312688  7.189957  0.084785
  7124.800  7124.800  0.500  3.128334  152.292687  6.669001  0.076106
  7125.097  7125.100  0.500  3.208207  152.266002  6.155967  0.068000
  7125.399  7125.400  0.500  3.294602  152.260630  5.646250  0.060505
  7125.698  7125.700  0.500  3.383411  152.235860  5.165595  0.053705
  7125.995  7126.000  0.500  3.472676  152.219678  4.723968  0.047696
  7126.297  7126.300  0.500  3.561852  152.186288  4.319990  0.042188
  7126.607  7126.600  0.500  3.650211  152.164650  3.954095  0.037361
  7126.902  7126.900  0.500  3.729050  152.122328  3.653315  0.033574
  7127.201  7127.200  0.500  3.799646  152.091517  3.403610  0.030025
  7127.498  7127.500  0.500  3.859974  152.055060  3.203578  0.027237
  7127.802  7127.800  0.500  3.910668  152.033397  3.044792  0.024569
  7128.104  7128.100  0.500  3.953014  151.988354  2.917683  0.022615
  7128.403  7128.400  0.500  3.989965  151.974550  2.811584  0.020881
  7128.698  7128.700  0.500  4.026148  151.953932  2.711303  0.019167
  7128.994  7129.000  0.500  4.065139  151.950189  2.607558  0.017659
  7129.297  7129.300  0.500  4.111822  151.901560  2.487829  0.015991
  7129.599  7129.600  0.500  4.168716  151.857033  2.349548  0.014500
  7129.901  7129.900  0.500  4.235448  151.809237  2.197184  0.012937
  7130.203  7130.200  0.500  4.313605  151.787726  2.031711  0.011594
  7130.502  7130.500  0.500  4.402432  151.751433  1.858578  0.010213
  7130.804  7130.800  0.500  4.497839  151.727171  1.689182  0.009334
  7131.106  7131.100  0.500  4.599149  151.670649  1.525866  0.008242
  7131.404  7131.400  0.500  4.691450  151.651970  1.391160  0.007662
  7131.701  7131.700  0.500  4.770839  151.625134  1.284761  0.007156
  7132.001  7132.000  0.500  4.827653  151.631327  1.213852  0.007102
  7132.301  7132.300  0.500  4.855704  151.620881  1.180195  0.007122
  7132.603  7132.600  0.500  4.853066  151.618611  1.183294  0.007371
  7132.896  7132.900  0.500  4.822110  151.606174  1.220397  0.007843
  7133.198  7133.200  0.500  4.765757  151.626431  1.291317  0.008490
  7133.496  7133.500  0.500  4.691036  151.599934  1.391259  0.009748
  7133.800  7133.800  0.500  4.605210  151.616562  1.516106  0.011078
  7134.100  7134.100  0.500  4.518870  151.609457  1.652746  0.012442
  7134.396  7134.400  0.500  4.438201  151.586934  1.791330  0.013755
  7134.701  7134.700  0.500  4.364077  151.579500  1.929061  0.015425
  7135.003  7135.000  0.500  4.298527  151.576038  2.059699  0.016820
  7135.305  7135.300  0.500  4.244349  151.568550  2.174262  0.018007
  7135.601  7135.600  0.500  4.201930  151.568998  2.268482  0.019139
  7135.901  7135.900  0.500  4.170536  151.573272  2.340894  0.020099
  7136.199  7136.200  0.500  4.149527  151.557771  2.390350  0.020593
  7136.501  7136.500  0.500  4.137025  151.545129  2.420219  0.021231
  7136.801  7136.800  0.500  4.131602  151.535945  2.433232  0.021265
  7136.989  7137.000  0.500  4.130439  151.543137  2.436180  0.021286
  7137.998  7137.990  0.500  4.145269  151.532942  2.400158  0.020457
  7139.001  7138.990  0.500  4.162208  151.526450  2.359743  0.019526
  7140.019  7140.010  0.500  4.135872  151.469190  2.421797  0.018980
  7141.072  7141.060  0.500  4.047375  151.490260  2.646258  0.019907
  7142.145  7142.120  0.500  3.945362  151.488447  2.930424  0.022019
  7143.192  7143.200  0.500  3.896335  151.468640  3.077272  0.023496
  7144.287  7144.300  0.500  3.920096  151.446415  3.004574  0.023332
  7145.407  7145.420  0.500  3.974892  151.443145  2.844304  0.021911
  7146.559  7146.560  0.500  3.986537  151.427309  2.811080  0.020782
  7147.707  7147.710  0.500  3.930436  151.406898  2.972891  0.020713
  7148.884  7148.890  0.500  3.837101  151.387184  3.263303  0.021241
  7150.080  7150.080  0.500  3.745199  151.369225  3.576996  0.022189
  7151.297  7151.300  0.500  3.672989  151.366534  3.844775  0.023173
  7152.532  7152.530  0.500  3.630890  151.355695  4.009804  0.023669
  7153.786  7153.780  0.500  3.603306  151.304044  4.120544  0.023964
  7155.054  7155.050  0.500  3.573989  151.257610  4.241831  0.024800
  7156.346  7156.340  0.500  3.539936  151.229044  4.387940  0.026245
  7157.652  7157.650  0.500  3.504621  151.225276  4.545553  0.027544
  7158.984  7158.980  0.500  3.473353  151.203991  4.689271  0.028545
  7160.330  7160.330  0.500  3.455757  151.152573  4.770891  0.029137
  7161.698  7161.700  0.500  3.457627  151.131037  4.761299  0.029261
  7163.078  7163.080  0.500  3.471870  151.083551  4.692487  0.029392
  7164.489  7164.490  0.500  3.491933  151.020525  4.597364  0.029482
  7165.915  7165.910  0.500  3.514797  150.942943  4.491134  0.029193
  7167.353  7167.350  0.500  3.546402  150.882134  4.349655  0.028564
  7168.809  7168.810  0.500  3.589618  150.836159  4.164415  0.027779
  7170.290  7170.290  0.500  3.642041  150.806144  3.950945  0.026938
  7171.795  7171.790  0.500  3.696608  150.792488  3.740788  0.026187
  7173.312  7173.310  0.500  3.745076  150.766540  3.563190  0.025973
  7174.858  7174.850  0.500  3.784194  150.700892  3.425005  0.026415
  7176.418  7176.410  0.500  3.808848  150.643609  3.340328  0.027184
  7177.987  7177.980  0.500  3.829568  150.620138  3.271317  0.028096
  7179.587  7179.580  0.500  3.863938  150.573391  3.159812  0.028091
  7181.195  7181.190  0.500  3.902461  150.541228  3.039751  0.027128
  7182.836  7182.830  0.500  3.925110  150.516061  2.971181  0.026259
  7184.485  7184.480  0.500  3.923867  150.490066  2.974363  0.025848
  7186.154  7186.150  0.500  3.909196  150.445278  3.017423  0.025228
  7187.842  7187.840  0.500  3.889867  150.417333  3.075745  0.024309
  7189.555  7189.550  0.500  3.869523  150.373224  3.138036  0.023619
  7191.290  7191.280  0.500  3.845840  148.736773  3.178273  0.022443
  7193.041  7193.030  0.500  3.817347  149.999910  3.297905  0.021937
  7194.796  7194.790  0.500  3.788949  150.145633  3.396198  0.022226
  7196.591  7196.580  0.500  3.762157  150.120290  3.487829  0.023302
  7198.390  7198.380  0.500  3.738776  150.061892  3.568951  0.025174
  7200.222  7200.210  0.500  3.717033  150.021372  3.646418  0.027401
  7202.059  7202.050  0.500  3.698499  149.966774  3.713277  0.030025
  7203.918  7203.910  0.500  3.684057  149.941721  3.766663  0.032933
  7205.803  7205.790  0.500  3.672395  149.909674  3.810034  0.035846
  7207.701  7207.690  0.500  3.663979  149.844818  3.840570  0.037289
  7209.618  7209.610  0.500  3.662337  149.811541  3.846030  0.036136
  7211.560  7211.550  0.500  3.664866  149.737126  3.834411  0.032337
  7213.523  7213.510  0.500  3.662689  149.694009  3.841660  0.027451
  7215.491  7215.480  0.500  3.654696  149.613777  3.870412  0.023052
  7217.491  7217.480  0.500  3.648098  149.548449  3.894334  0.019989
  7219.500  7219.490  0.500  3.646691  149.500410  3.898562  0.018292
  7221.538  7221.520  0.500  3.650886  149.449097  3.880910  0.017795
  7223.586  7223.580  0.500  3.659806  149.389847  3.844922  0.018929
  7225.660  7225.650  0.500  3.671758  149.258322  3.795896  0.020914
  7227.753  7227.740  0.500  3.679499  146.677686  3.701500  0.023623
  7229.862  7229.850  0.500  3.678634  150.040518  3.789641  0.028020
  7231.995  7231.980  0.500  3.669348  149.957514  3.822881  0.032482
  7234.134  7234.120  0.500  3.657841  149.894261  3.865493  0.036843
  7236.299  7236.290  0.500  3.644710  149.852648  3.915499  0.040367
  7238.489  7238.480  0.500  3.625420  149.814863  3.990755  0.042464
  7240.699  7240.680  0.500  3.598427  149.792453  4.099332  0.043257
  7242.908  7242.900  0.500  3.569837  149.774431  4.217716  0.042992
  7245.165  7245.150  0.500  3.547690  146.957700  4.231068  0.040955
  7247.421  7247.410  0.500  3.539022  149.497649  4.341669  0.040178
  7249.699  7249.690  0.500  3.542218  149.506375  4.328069  0.039337
  7252.000  7251.990  0.500  3.555594  149.392907  4.267320  0.039204
  7254.321  7254.310  0.500  3.577292  147.003615  4.108942  0.038708
  7256.664  7256.650  0.500  3.600514  149.456952  4.081623  0.039308
  7259.008  7259.000  0.500  3.621452  149.321415  3.993426  0.038218
  7261.397  7261.380  0.500  3.639228  148.869937  3.911205  0.036388
  7263.784  7263.770  0.500  3.655685  137.052551  3.541958  0.031968
  7266.201  7266.190  0.500  3.661502  149.091384  3.830737  0.033874
  7268.634  7268.620  0.500  3.664119  149.670066  3.835554  0.032964
  7271.083  7271.070  0.500  3.664551  149.564435  3.831193  0.031255
  7273.561  7273.550  0.500  3.664106  148.336843  3.801440  0.029541
  7276.058  7276.040  0.500  3.663217  149.653734  3.838597  0.028881
  7278.562  7278.550  0.500  3.661951  149.625738  3.842742  0.028313
  7281.080  7281.070  0.500  3.657956  149.571943  3.856735  0.027773
  7283.635  7283.620  0.500  3.648185  148.419155  3.864588  0.026841
  7286.198  7286.190  0.500  3.630392  149.204403  3.954781  0.026306
  7288.783  7288.770  0.500  3.608200  149.277598  4.045511  0.026610
  7291.393  7291.380  0.500  3.585129  149.253459  4.139261  0.028260
  7294.009  7294.000  0.500  3.563090  149.213312  4.230360  0.031331
  7296.664  7296.650  0.500  3.542202  149.156476  4.318005  0.035253
  7299.322  7299.310  0.500  3.522052  149.045929  4.402630  0.039529
  7301.999  7301.990  0.500  3.500927  147.457083  4.448694  0.042939
  7304.702  7304.690  0.500  3.482956  149.176296  4.582170  0.046577
  7307.428  7307.410  0.500  3.469729  149.086437  4.640383  0.048716
  7310.161  7310.150  0.500  3.464256  148.986780  4.662731  0.049622
  7312.907  7312.900  0.500  3.466138  148.985578  4.653927  0.049658
  7315.692  7315.680  0.500  3.472904  148.888061  4.619518  0.049090
  7318.486  7318.470  0.500  3.481462  148.830043  4.578371  0.048846
  7321.300  7321.290  0.500  3.491824  148.766730  4.529246  0.048605
  7324.134  7324.120  0.500  3.500979  148.733466  4.486968  0.048363
  7326.987  7326.970  0.500  3.506556  148.659653  4.459796  0.048116
  7329.863  7329.850  0.500  3.507303  148.564871  4.453626  0.048357
  7332.750  7332.740  0.500  3.503637  148.493440  4.467834  0.049279
  7335.656  7335.650  0.500  3.497635  148.454241  4.493545  0.050723
  7338.582  7338.570  0.500  3.492070  147.146717  4.478822  0.051265
  7341.534  7341.520  0.500  3.486439  148.186237  4.535933  0.051389
  7344.504  7344.490  0.500  3.480735  148.224501  4.563059  0.049737
  7347.479  7347.470  0.500  3.474478  148.182192  4.590389  0.047426
  7350.486  7350.480  0.500  3.467749  148.133223  4.619852  0.045128
  7353.515  7353.500  0.500  3.460008  148.033455  4.652618  0.043225
  7356.566  7356.550  0.500  3.449441  147.981285  4.700385  0.041989
  7359.625  7359.610  0.500  3.438649  147.904088  4.748908  0.040805
  7362.703  7362.690  0.500  3.431267  147.810401  4.781067  0.040055
  7365.797  7365.790  0.500  3.427741  147.705167  4.794539  0.039597
  7368.921  7368.910  0.500  3.426604  147.660588  4.798542  0.040236
  7372.063  7372.050  0.500  3.424272  147.601763  4.807829  0.042112
