# XDI/1.0 BlueSky/1.10.0 BMM/2023-1.0-py310-tiled
# Beamline.name: BMM (06BM) -- Beamline for Materials Measurement (NIST)
# Beamline.xray_source: NSLS-II three-pole wiggler
# Beamline.collimation: paraboloid mirror, 5 nm Rh on 30 nm Pt
# Beamline.focusing: not in use
# Beamline.harmonic_rejection: flat mirror, Pt stripe, pitch = 7.0 mrad relative to beam
# Beamline.software: Bluesky 1.10.0, Ophyd 1.7.0, DataBroker 2.0.0b13, Python 3.10.8, 2023-1.0-py310-tiled
# Detector.I0: 10 cm N2
# Detector.I1: 25 cm N2
# Detector.I2: 25 cm N2
# Element.symbol: Au
# Element.edge: L3
# Element.reference: Au
# Element.reference_material: Au foil
# Facility.name: NSLS-II
# Facility.energy: 3.0
# Facility.current: 399.4
# Facility.mode: top-off
# Facility.GUP: 301027
# Facility.SAF: 310583
# Facility.cycle: 2023-2
# Mono.name: Si(111)
# Mono.d_spacing: 3.1351860
# Mono.encoder_resolution: 0.0000050 deg/ct
# Mono.angle_offset: 16.0754326 deg
# Mono.scan_mode: pseudo channel cut
# Mono.scan_type: step
# Mono.direction: forward in energy
# Sample.name: Au foil
# Sample.prep: reference foil
# Sample.x: 109.138 mm
# Sample.y: 153.150 mm
# Sample.SDD_position: 205.000 mm
# Scan.experimenters: Bruce Ravel
# Scan.edge_energy: 11918.7
# Scan.start_time: 2023-05-28T19:30:02
# Scan.end_time: 2023-05-28T19:38:16
# Scan.transient_id: 78952
# Scan.uid: 448e41d8-d49b-4999-a03e-3ee0f38b68c3
# Scan.plot_hint: ln(It/Ir)  --  ln($6/$7)
# Column.1: energy eV
# Column.2: requested_energy eV
# Column.3: measurement_time seconds
# Column.4: xmu 
# Column.5: I0 nA
# Column.6: It nA
# Column.7: Ir nA
# ///////////
# standard reference foil
# -----------
# energy  requested_energy  measurement_time  xmu  I0  It  Ir
  11718.696  11718.700  0.500  0.505607  64.002579  107.544303  64.864208
  11728.735  11728.700  0.500  0.504335  63.858964  107.340619  64.823751
  11738.750  11738.700  0.500  0.503173  63.704457  107.130027  64.771769
  11748.794  11748.700  0.500  0.501827  63.560250  106.923615  64.734043
  11758.777  11758.700  0.500  0.500767  63.317373  106.567475  64.586875
  11768.723  11768.700  0.500  0.499474  63.420581  106.768205  64.792244
  11778.716  11778.700  0.500  0.498241  63.242852  106.500674  64.709661
  11788.739  11788.700  0.500  0.497118  63.241439  106.546763  64.810424
  11798.742  11798.700  0.500  0.495967  63.099450  106.352067  64.766442
  11808.733  11808.700  0.500  0.494771  62.946317  106.135107  64.711698
  11818.729  11818.700  0.500  0.493646  62.805188  105.922581  64.654825
  11828.747  11828.700  0.500  0.492493  62.615397  105.637769  64.555356
  11838.784  11838.700  0.500  0.491472  62.559934  105.598425  64.597198
  11848.678  11848.700  0.500  0.490398  62.288425  105.171961  64.405504
  11858.693  11858.700  0.500  0.489505  62.071222  104.846549  64.263561
  11868.738  11868.700  0.500  0.488799  62.159181  105.037380  64.425969
  11878.702  11878.700  0.500  0.488245  62.033513  104.862874  64.354592
  11888.720  11888.700  0.500  0.488425  61.877042  104.636172  64.203903
  11890.670  11890.700  0.500  0.488414  61.864748  104.621401  64.195577
  11892.664  11892.700  0.500  0.488632  61.811065  104.536969  64.129770
  11894.659  11894.700  0.500  0.488892  61.784284  104.496272  64.088172
  11896.654  11896.700  0.500  0.489258  61.746210  104.449278  64.035906
  11898.675  11898.700  0.500  0.489725  61.702264  104.374738  63.960298
  11900.678  11900.700  0.500  0.490294  61.442821  103.939237  63.657187
  11902.663  11902.700  0.500  0.491091  61.184028  103.509092  63.343280
  11904.648  11904.700  0.500  0.492164  61.637731  104.290015  63.752713
  11906.678  11906.700  0.500  0.493541  61.628154  104.284722  63.661750
  11908.665  11908.700  0.500  0.495566  61.601298  104.242158  63.507062
  11908.949  11909.000  0.500  0.495901  61.589626  104.225591  63.475681
  11909.251  11909.300  0.500  0.496271  61.589840  104.230215  63.455010
  11909.554  11909.600  0.500  0.496698  61.585821  104.215143  63.418768
  11909.844  11909.900  0.500  0.497132  61.582853  104.219419  63.393818
  11910.146  11910.200  0.500  0.497573  61.579854  104.216579  63.364180
  11910.449  11910.500  0.500  0.498048  61.570428  104.198048  63.322774
  11910.751  11910.800  0.500  0.498499  61.559681  104.176786  63.281326
  11911.048  11911.100  0.500  0.499065  61.557346  104.171119  63.242096
  11911.357  11911.400  0.500  0.499728  61.566999  104.190896  63.212164
  11911.653  11911.700  0.500  0.500343  61.551294  104.157035  63.152753
  11911.949  11912.000  0.500  0.500863  61.540851  104.154435  63.118378
  11912.258  11912.300  0.500  0.501600  61.529715  104.139880  63.063061
  11912.555  11912.600  0.500  0.502268  61.533830  104.147649  63.025641
  11912.851  11912.900  0.500  0.503094  61.526915  104.135580  62.966292
  11913.154  11913.200  0.500  0.503942  61.515546  104.116211  62.901206
  11913.463  11913.500  0.500  0.504889  61.505667  104.094563  62.828613
  11913.759  11913.800  0.500  0.505816  61.496087  104.084728  62.764464
  11914.062  11914.100  0.500  0.506904  61.491089  104.079981  62.693368
  11914.364  11914.400  0.500  0.508158  61.478378  104.068966  62.608192
  11914.667  11914.700  0.500  0.509380  61.465762  104.038227  62.513259
  11914.976  11915.000  0.500  0.510862  61.440318  104.004703  62.400555
  11915.291  11915.300  0.500  0.512398  61.389305  103.908713  62.247261
  11915.569  11915.600  0.500  0.514034  61.329681  103.808667  62.085691
  11915.878  11915.900  0.500  0.515902  61.222483  103.628350  61.862146
  11916.193  11916.200  0.500  0.518061  61.068806  103.373330  61.576831
  11916.484  11916.500  0.500  0.520144  60.936676  103.159483  61.321631
  11916.799  11916.800  0.500  0.522722  60.839147  102.990699  61.063669
  11917.096  11917.100  0.500  0.525548  60.774983  102.877627  60.824450
  11917.386  11917.400  0.500  0.528473  60.797143  102.916811  60.669937
  11917.695  11917.700  0.500  0.531977  60.874244  103.050531  60.536254
  11917.986  11918.000  0.500  0.535653  60.970465  103.212868  60.409146
  11918.283  11918.300  0.500  0.539690  61.070438  103.377981  60.261991
  11918.598  11918.600  0.500  0.544587  61.189739  103.579077  60.084272
  11918.889  11918.900  0.500  0.549504  61.285879  103.747789  59.886956
  11919.191  11919.200  0.500  0.555200  61.343897  103.839620  59.599502
  11919.501  11919.500  0.500  0.561703  61.369357  103.888573  59.241113
  11919.785  11919.800  0.500  0.568610  61.395178  103.934066  58.859145
  11920.100  11920.100  0.500  0.576697  61.388958  103.927161  58.381153
  11920.391  11920.400  0.500  0.584625  61.389605  103.933995  57.923961
  11920.682  11920.700  0.500  0.593333  61.389581  103.931333  57.420272
  11920.979  11921.000  0.500  0.602432  61.409766  103.962226  56.917109
  11921.269  11921.300  0.500  0.611593  61.386456  103.935966  56.383782
  11921.591  11921.600  0.500  0.621426  61.384308  103.916916  55.821840
  11921.869  11921.900  0.500  0.629977  61.387696  103.923706  55.350185
  11922.179  11922.200  0.500  0.638804  61.371882  103.913210  54.858197
  11922.476  11922.500  0.500  0.646658  61.371780  103.914416  54.429699
  11922.797  11922.800  0.500  0.654517  61.361613  103.894429  53.993202
  11923.082  11923.100  0.500  0.660683  61.354194  103.882171  53.655005
  11923.404  11923.400  0.500  0.666302  61.357442  103.878597  53.352490
  11923.682  11923.700  0.500  0.670953  61.366178  103.903410  53.117623
  11923.998  11924.000  0.500  0.675340  61.343381  103.867093  52.866624
  11924.301  11924.300  0.500  0.678706  61.340468  103.865955  52.688407
  11924.598  11924.600  0.500  0.681467  61.334348  103.851857  52.535991
  11924.895  11924.900  0.500  0.683666  61.324472  103.843370  52.416288
  11925.205  11925.200  0.500  0.685490  61.316776  103.824575  52.311293
  11925.502  11925.500  0.500  0.686820  61.314610  103.822957  52.240993
  11925.799  11925.800  0.500  0.687824  61.313285  103.821059  52.187615
  11926.102  11926.100  0.500  0.688393  61.312086  103.827563  52.161200
  11926.393  11926.400  0.500  0.688739  61.303858  103.812775  52.135683
  11926.709  11926.700  0.500  0.688802  61.297230  103.804436  52.128226
  11927.006  11927.000  0.500  0.688829  61.303711  103.815704  52.132467
  11927.309  11927.300  0.500  0.688722  61.290888  103.786554  52.123417
  11927.594  11927.600  0.500  0.688661  61.284564  103.780545  52.123577
  11927.898  11927.900  0.500  0.688709  61.284263  103.779484  52.120545
  11928.176  11928.200  0.500  0.688771  61.272285  103.766664  52.110893
  11928.486  11928.500  0.500  0.688862  61.271242  103.761777  52.103683
  11928.783  11928.800  0.500  0.689223  61.261471  103.749988  52.078940
  11929.093  11929.100  0.500  0.689698  61.262403  103.748441  52.053478
  11929.384  11929.400  0.500  0.690309  61.251604  103.727333  52.011064
  11929.681  11929.700  0.500  0.691106  61.247042  103.722030  51.966998
  11929.985  11930.000  0.500  0.692094  61.240558  103.708554  51.908900
  11930.301  11930.300  0.500  0.693255  61.244281  103.718461  51.853644
  11930.586  11930.600  0.500  0.694448  61.228318  103.696909  51.781062
  11930.908  11930.900  0.500  0.695876  61.224311  103.690669  51.704063
  11931.199  11931.200  0.500  0.697215  61.215422  103.682320  51.630691
  11931.521  11931.500  0.500  0.698700  61.213143  103.668657  51.547289
  11931.800  11931.800  0.500  0.700209  61.214498  103.669295  51.469905
  11932.104  11932.100  0.500  0.701720  61.195121  103.635314  51.375316
  11932.395  11932.400  0.500  0.703222  61.196391  103.646484  51.303742
  11932.705  11932.700  0.500  0.704830  61.159073  103.586013  51.191454
  11933.008  11933.000  0.500  0.706239  61.143276  103.557550  51.105313
  11933.300  11933.300  0.500  0.707553  61.098535  103.477484  50.998744
  11933.597  11933.600  0.500  0.708869  60.970914  103.262124  50.825666
  11933.907  11933.900  0.500  0.710080  60.816706  103.007290  50.638896
  11934.205  11934.200  0.500  0.711096  60.662836  102.749913  50.461076
  11934.490  11934.500  0.500  0.711981  60.544526  102.549435  50.318055
  11934.787  11934.800  0.500  0.712740  60.483375  102.443590  50.227998
  11935.079  11935.100  0.500  0.713465  60.501599  102.473006  50.205994
  11935.395  11935.400  0.500  0.714028  60.545999  102.545556  50.213236
  11935.686  11935.700  0.500  0.714576  60.632661  102.699917  50.261302
  11935.990  11936.000  0.500  0.715013  60.718534  102.846357  50.310967
  11936.282  11936.300  0.500  0.715285  60.834298  103.048219  50.396006
  11936.598  11936.600  0.500  0.715548  60.946573  103.238890  50.475978
  11936.883  11936.900  0.500  0.715890  61.017199  103.360070  50.517930
  11937.206  11937.200  0.500  0.716161  61.028186  103.380025  50.514033
  11937.485  11937.500  0.500  0.716346  61.045150  103.404570  50.516677
  11937.814  11937.800  0.500  0.716696  61.052779  103.430875  50.511836
  11938.099  11938.100  0.500  0.716906  61.046194  103.421461  50.496601
  11938.403  11938.400  0.500  0.717269  61.045979  103.424991  50.480016
  11938.701  11938.700  0.500  0.717687  61.047245  103.421196  50.457085
  11939.017  11939.000  0.500  0.718214  61.048076  103.414522  50.427243
  11939.309  11939.300  0.500  0.718734  61.046793  103.425103  50.406193
  11939.613  11939.600  0.500  0.719294  61.041312  103.414098  50.372616
  11939.904  11939.900  0.500  0.719889  61.044394  103.425298  50.348072
  11940.208  11940.200  0.500  0.720537  61.036804  103.404462  50.305320
  11940.506  11940.500  0.500  0.721074  61.031862  103.393989  50.273225
  11940.804  11940.800  0.500  0.721612  61.021798  103.390286  50.244409
  11941.096  11941.100  0.500  0.722082  61.015497  103.381469  50.216507
  11941.400  11941.400  0.500  0.722596  61.012268  103.379789  50.189894
  11941.704  11941.700  0.500  0.723088  61.016528  103.385614  50.168011
  11941.996  11942.000  0.500  0.723685  61.008821  103.374607  50.132723
  11942.294  11942.300  0.500  0.724367  60.998223  103.360101  50.091550
  11942.585  11942.600  0.500  0.725132  60.994137  103.347870  50.047323
  11942.896  11942.900  0.500  0.726086  60.990835  103.346739  49.999032
  11943.175  11943.200  0.500  0.727219  60.996323  103.354734  49.946270
  11943.498  11943.500  0.500  0.728770  60.983413  103.332855  49.858332
  11943.684  11943.700  0.500  0.729736  60.971211  103.318740  49.803364
  11944.709  11944.690  0.500  0.737061  60.964401  103.308194  49.434874
  11945.696  11945.690  0.500  0.745909  60.961282  103.300558  48.995777
  11946.709  11946.710  0.500  0.754610  60.925420  103.241097  48.543324
  11947.765  11947.760  0.500  0.760190  60.919084  103.231810  48.268893
  11948.815  11948.820  0.500  0.760775  60.903052  103.209326  48.230163
  11949.915  11949.900  0.500  0.757198  60.901517  103.204125  48.400535
  11951.040  11951.000  0.500  0.750961  60.880908  103.176658  48.690399
  11952.141  11952.120  0.500  0.744618  60.856571  103.152890  48.988912
  11953.285  11953.260  0.500  0.740178  60.842396  103.126525  49.194349
  11954.411  11954.410  0.500  0.737754  60.830447  103.107823  49.304800
  11955.580  11955.590  0.500  0.736827  60.826803  103.105932  49.349590
  11956.775  11956.780  0.500  0.735880  60.805326  103.068829  49.378603
  11958.013  11958.000  0.500  0.734237  60.766367  103.006691  49.429954
  11959.233  11959.230  0.500  0.732616  60.758926  102.997366  49.505669
  11960.485  11960.480  0.500  0.732241  60.916134  103.268150  49.654454
  11961.755  11961.750  0.500  0.733431  60.900457  103.243765  49.583692
  11963.032  11963.040  0.500  0.736126  60.879112  103.217773  49.437766
  11964.353  11964.350  0.500  0.740043  60.875382  103.213434  49.242465
  11965.693  11965.680  0.500  0.744610  60.862490  103.191185  49.007498
  11967.051  11967.030  0.500  0.749197  60.849800  103.188391  48.781912
  11968.410  11968.400  0.500  0.753229  60.828631  103.154005  48.569400
  11969.788  11969.780  0.500  0.756131  60.812189  103.130208  48.417492
  11971.198  11971.190  0.500  0.757418  60.786267  103.094663  48.338571
  11972.614  11972.610  0.500  0.756711  60.757925  103.054829  48.354046
  11974.025  11974.050  0.500  0.754401  60.749056  103.039933  48.458869
  11975.485  11975.510  0.500  0.751670  60.729345  103.024430  48.584092
  11976.965  11976.990  0.500  0.748902  60.695809  102.966820  48.691538
  11978.464  11978.490  0.500  0.746654  60.681455  102.939037  48.787935
  11980.013  11980.010  0.500  0.744651  60.658170  102.909362  48.871666
  11981.606  11981.550  0.500  0.742736  60.631834  102.863295  48.943404
  11983.056  11983.110  0.500  0.741507  60.600354  102.816279  48.981187
  11985.106  11984.680  0.500  0.740151  60.564623  102.770422  49.025793
  11986.288  11986.280  0.500  0.738841  60.546867  102.738997  49.075051
  11987.821  11987.890  0.500  0.737044  60.515039  102.691531  49.140609
  11989.504  11989.530  0.500  0.734620  60.511369  102.679726  49.254224
  11991.187  11991.180  0.500  0.732569  60.465869  102.624285  49.328661
  11992.815  11992.850  0.500  0.731243  60.449529  102.597616  49.381311
  11994.512  11994.540  0.500  0.730796  60.428002  102.568025  49.389134
  11996.228  11996.250  0.500  0.731026  60.402341  102.529971  49.359454
  11997.976  11997.980  0.500  0.731607  60.376774  102.494118  49.313515
  11999.724  11999.730  0.500  0.732673  60.358539  102.476788  49.252673
  12001.474  12001.490  0.500  0.734237  60.338383  102.446779  49.161264
  12003.267  12003.280  0.500  0.736420  60.302531  102.395141  49.029365
  12005.061  12005.080  0.500  0.738693  60.286440  102.364936  48.903605
  12006.887  12006.910  0.500  0.740677  60.278889  102.358624  48.803682
  12008.751  12008.750  0.500  0.741745  60.252675  102.322601  48.734404
  12010.603  12010.610  0.500  0.742031  60.224387  102.282419  48.701358
  12012.481  12012.490  0.500  0.741483  60.184722  102.229972  48.703052
  12014.379  12014.390  0.500  0.740319  60.164011  102.197677  48.744383
  12016.296  12016.310  0.500  0.739023  60.140934  102.162690  48.790894
  12018.226  12018.250  0.500  0.737833  60.121257  102.137529  48.836934
  12020.194  12020.210  0.500  0.736785  60.077226  102.069834  48.855767
  12022.182  12022.180  0.500  0.735941  60.051215  102.036233  48.880910
  12024.189  12024.180  0.500  0.735376  60.028205  102.000494  48.891428
  12026.198  12026.190  0.500  0.735214  60.013688  101.976929  48.888020
  12028.206  12028.220  0.500  0.735062  59.975412  101.921844  48.869049
  12030.254  12030.280  0.500  0.734960  59.956844  101.893158  48.860271
  12032.333  12032.350  0.500  0.734638  59.929271  101.863939  48.862020
  12034.432  12034.440  0.500  0.734071  59.894472  101.802345  48.860156
  12036.558  12036.550  0.500  0.733240  59.861171  101.750234  48.875748
  12038.690  12038.680  0.500  0.732032  59.821473  101.708880  48.914924
  12040.823  12040.820  0.500  0.730694  59.795812  101.647677  48.950955
  12042.988  12042.990  0.500  0.729340  59.750154  101.589835  48.989369
  12045.186  12045.180  0.500  0.728055  59.651721  101.424245  48.972408
  12047.391  12047.380  0.500  0.727192  58.079260  98.767739  47.730921
  12049.615  12049.600  0.500  0.726345  59.253822  100.762348  48.736101
  12051.853  12051.850  0.500  0.726086  59.581109  101.331496  49.024071
  12054.099  12054.110  0.500  0.726310  59.585275  101.353692  49.023810
  12056.376  12056.390  0.500  0.726780  59.572768  101.336156  48.992300
  12058.693  12058.690  0.500  0.727405  59.525225  101.257870  48.923859
  12061.010  12061.010  0.500  0.727984  59.501498  101.226155  48.880251
  12063.342  12063.350  0.500  0.728663  59.469815  101.188598  48.828952
  12065.686  12065.700  0.500  0.728941  59.437226  101.138974  48.791433
  12068.064  12068.080  0.500  0.729313  59.404065  101.092395  48.750798
  12070.480  12070.470  0.500  0.729470  59.371934  101.039872  48.717852
  12072.910  12072.890  0.500  0.729540  59.346635  101.003618  48.696961
  12075.322  12075.320  0.500  0.729611  59.314258  100.958107  48.671563
  12077.766  12077.770  0.500  0.729385  59.279552  100.906826  48.657837
  12080.238  12080.250  0.500  0.729178  59.236579  100.854976  48.642890
  12082.729  12082.740  0.500  0.728750  59.221692  100.819392  48.646526
  12085.253  12085.250  0.500  0.728541  59.174607  100.756422  48.626303
  12087.778  12087.770  0.500  0.728475  59.143209  100.713353  48.608750
  12090.323  12090.320  0.500  0.728441  59.085483  100.622051  48.566338
  12092.895  12092.890  0.500  0.728405  58.986585  100.460089  48.489919
  12095.455  12095.470  0.500  0.728234  59.038275  100.565621  48.549126
  12098.074  12098.080  0.500  0.727578  59.007855  100.519029  48.558493
  12100.719  12100.700  0.500  0.726583  58.978254  100.471583  48.583874
  12103.365  12103.350  0.500  0.725138  58.932819  100.400874  48.619909
  12106.019  12106.010  0.500  0.723529  58.907595  100.369235  48.682843
  12108.687  12108.690  0.500  0.722135  58.866125  100.303354  48.718749
  12111.414  12111.390  0.500  0.721060  58.836196  100.255956  48.748088
  12114.123  12114.110  0.500  0.720379  58.799316  100.209906  48.758911
  12116.852  12116.850  0.500  0.719783  58.761729  100.159435  48.763402
  12119.595  12119.600  0.500  0.719403  58.726713  100.101183  48.753587
  12122.378  12122.380  0.500  0.719121  58.685326  100.047538  48.741205
  12125.181  12125.170  0.500  0.718913  58.645371  99.976442  48.716663
  12127.979  12127.990  0.500  0.718845  58.507326  99.760164  48.614609
  12130.836  12130.820  0.500  0.718905  58.560271  99.861575  48.661111
  12133.695  12133.670  0.500  0.719377  58.546703  99.858263  48.636515
  12136.568  12136.550  0.500  0.719916  58.505103  99.792186  48.578157
  12139.448  12139.440  0.500  0.720557  58.468369  99.731189  48.517368
  12142.362  12142.350  0.500  0.721280  58.422528  99.668236  48.451703
