# XDI/1.0 BlueSky/1.10.0 BMM/2023-1.0-py310-tiled
# Beamline.name: BMM (06BM) -- Beamline for Materials Measurement (NIST)
# Beamline.xray_source: NSLS-II three-pole wiggler
# Beamline.collimation: paraboloid mirror, 5 nm Rh on 30 nm Pt
# Beamline.focusing: not in use
# Beamline.harmonic_rejection: flat mirror, Pt stripe, pitch = 7.0 mrad relative to beam
# Beamline.software: Bluesky 1.10.0, Ophyd 1.7.0, DataBroker 2.0.0b13, Python 3.10.8, 2023-1.0-py310-tiled
# Detector.I0: 10 cm N2
# Detector.I1: 25 cm N2
# Detector.I2: 25 cm N2
# Element.symbol: Au
# Element.edge: L3
# Element.reference: Au
# Element.reference_material: Au foil
# Facility.name: NSLS-II
# Facility.energy: 3.0
# Facility.current: 399.8
# Facility.mode: top-off
# Facility.GUP: 301027
# Facility.SAF: 310583
# Facility.cycle: 2023-2
# Mono.name: Si(111)
# Mono.d_spacing: 3.1351860
# Mono.encoder_resolution: 0.0000050 deg/ct
# Mono.angle_offset: 16.0754326 deg
# Mono.scan_mode: pseudo channel cut
# Mono.scan_type: step
# Mono.direction: forward in energy
# Sample.name: Au2O3, Gold oxide
# Sample.prep: powder on tape
# Sample.x: 145.711 mm
# Sample.y: 114.376 mm
# Sample.SDD_position: 205.000 mm
# Scan.experimenters: Bruce Ravel
# Scan.edge_energy: 11918.7
# Scan.start_time: 2023-06-27T18:32:17
# Scan.end_time: 2023-06-27T18:40:09
# Scan.transient_id: 85227
# Scan.uid: 93ec9f91-1c27-4b2c-805a-3bbb17040b49
# Scan.plot_hint: ln(I0/It)  --  ln($5/$6)
# Column.1: energy eV
# Column.2: requested_energy eV
# Column.3: measurement_time seconds
# Column.4: xmu 
# Column.5: I0 nA
# Column.6: It nA
# Column.7: Ir nA
# ///////////
# sample courtesy Martin Stennett, University of Sheffield
# -----------
# energy  requested_energy  measurement_time  xmu  I0  It  Ir
  11718.666  11718.700  0.500  0.928191  64.564009  25.520091  16.233367
  11728.723  11728.700  0.500  0.924749  64.434396  25.556671  16.273067
  11738.750  11738.700  0.500  0.921236  64.263948  25.578780  16.305618
  11748.722  11748.700  0.500  0.917614  64.054437  25.587885  16.325344
  11758.723  11758.700  0.500  0.914190  63.820248  25.581777  16.342220
  11768.735  11768.700  0.500  0.910865  63.892778  25.696156  16.435330
  11778.758  11778.700  0.500  0.907470  63.563064  25.650476  16.421736
  11788.739  11788.700  0.500  0.903850  63.614566  25.764358  16.508551
  11798.773  11798.700  0.500  0.900709  63.483682  25.792240  16.548412
  11808.745  11808.700  0.500  0.897412  63.320096  25.810751  16.576189
  11818.783  11818.700  0.500  0.894407  63.189727  25.835131  16.608044
  11828.699  11828.700  0.500  0.891433  63.026459  25.845110  16.631987
  11838.741  11838.700  0.500  0.888624  62.933633  25.879653  16.667829
  11848.733  11848.700  0.500  0.886285  62.614933  25.808884  16.640357
  11858.742  11858.700  0.500  0.884146  62.580525  25.849941  16.675615
  11868.720  11868.700  0.500  0.882911  62.543540  25.866580  16.700913
  11878.721  11878.700  0.500  0.883048  62.407569  25.806805  16.666504
  11888.732  11888.700  0.500  0.886042  62.232513  25.657481  16.567344
  11890.676  11890.700  0.500  0.887188  62.220997  25.623356  16.543417
  11892.676  11892.700  0.500  0.888615  62.195376  25.576292  16.508896
  11894.671  11894.700  0.500  0.890443  62.165182  25.517180  16.467842
  11896.672  11896.700  0.500  0.892786  62.139102  25.446778  16.417294
  11898.681  11898.700  0.500  0.895548  62.110925  25.365084  16.354052
  11900.665  11900.700  0.500  0.899084  62.000846  25.230753  16.258240
  11902.675  11902.700  0.500  0.903737  61.395283  24.868357  16.013384
  11904.673  11904.700  0.500  0.909579  61.982413  24.959937  16.055219
  11906.672  11906.700  0.500  0.917360  62.001422  24.774077  15.916334
  11908.671  11908.700  0.500  0.927643  61.967831  24.507332  15.712139
  11908.943  11909.000  0.500  0.929518  61.971988  24.463076  15.678700
  11909.245  11909.300  0.500  0.931645  61.979198  24.413933  15.642244
  11909.548  11909.600  0.500  0.933640  61.967768  24.360774  15.602764
  11909.844  11909.900  0.500  0.936027  61.961467  24.300230  15.556538
  11910.153  11910.200  0.500  0.938447  62.135983  24.309772  15.556651
  11910.455  11910.500  0.500  0.940779  62.127788  24.249954  15.509122
  11910.770  11910.800  0.500  0.943608  62.129324  24.182036  15.461159
  11911.072  11911.100  0.500  0.946432  62.128777  24.113637  15.409653
  11911.369  11911.400  0.500  0.949210  62.117538  24.042385  15.354038
  11911.671  11911.700  0.500  0.952299  62.105111  23.963441  15.295855
  11911.974  11912.000  0.500  0.955418  62.099982  23.886845  15.237229
  11912.277  11912.300  0.500  0.958862  62.106352  23.807165  15.176759
  11912.585  11912.600  0.500  0.962546  62.105435  23.719258  15.113315
  11912.876  11912.900  0.500  0.966484  62.094677  23.621945  15.037500
  11913.178  11913.200  0.500  0.970667  62.078659  23.517277  14.958794
  11913.475  11913.500  0.500  0.975051  62.077577  23.413993  14.880572
  11913.778  11913.800  0.500  0.980050  62.069555  23.294227  14.791338
  11914.068  11914.100  0.500  0.985042  62.065380  23.176681  14.702721
  11914.377  11914.400  0.500  0.990863  62.053740  23.037837  14.599604
  11914.667  11914.700  0.500  0.996759  62.034910  22.895453  14.488960
  11914.964  11915.000  0.500  1.003570  62.033044  22.739364  14.376625
  11915.285  11915.300  0.500  1.011105  62.012715  22.561272  14.240753
  11915.563  11915.600  0.500  1.018573  61.988916  22.384813  14.112469
  11915.884  11915.900  0.500  1.027624  61.940909  22.165948  13.950454
  11916.163  11916.200  0.500  1.036586  61.853918  21.937325  13.782485
  11916.490  11916.500  0.500  1.047804  61.711744  21.642736  13.568989
  11916.774  11916.800  0.500  1.058569  61.577843  21.364552  13.366378
  11917.071  11917.100  0.500  1.071095  61.456726  21.057119  13.143627
  11917.374  11917.400  0.500  1.084761  61.367232  20.741061  12.912736
  11917.702  11917.700  0.500  1.100899  61.349892  20.403258  12.662990
  11917.992  11918.000  0.500  1.117220  61.388973  20.085745  12.428100
  11918.289  11918.300  0.500  1.136053  61.470673  19.737233  12.168545
  11918.598  11918.600  0.500  1.156274  61.570519  19.373566  11.900194
  11918.907  11918.900  0.500  1.179855  61.681199  18.956061  11.590939
  11919.198  11919.200  0.500  1.204068  61.793899  18.536402  11.279858
  11919.507  11919.500  0.500  1.232645  61.891408  18.042609  10.920613
  11919.791  11919.800  0.500  1.262710  61.922208  17.516954  10.541073
  11920.107  11920.100  0.500  1.297598  61.950733  16.924142  10.116137
  11920.391  11920.400  0.500  1.334023  61.960430  16.321325  9.686987
  11920.694  11920.700  0.500  1.373693  61.965284  15.687760  9.237841
  11920.991  11921.000  0.500  1.416538  61.977526  15.032792  8.776495
  11921.276  11921.300  0.500  1.459522  61.970690  14.398725  8.334369
  11921.603  11921.600  0.500  1.507764  61.968443  13.720092  7.862298
  11921.869  11921.900  0.500  1.550841  61.953173  13.138377  7.460245
  11922.179  11922.200  0.500  1.597410  61.960569  12.542064  7.050917
  11922.494  11922.500  0.500  1.640115  61.950878  12.015849  6.690800
  11922.779  11922.800  0.500  1.679284  61.950041  11.554150  6.378795
  11923.107  11923.100  0.500  1.716654  61.944672  11.129374  6.089320
  11923.391  11923.400  0.500  1.745619  61.940665  10.810934  5.874380
  11923.695  11923.700  0.500  1.772531  61.935075  10.522924  5.681615
  11924.004  11924.000  0.500  1.793932  61.933330  10.299821  5.529264
  11924.301  11924.300  0.500  1.811482  61.921475  10.118702  5.406464
  11924.598  11924.600  0.500  1.825602  61.934377  9.978901  5.309357
  11924.889  11924.900  0.500  1.836124  61.914817  9.871341  5.236469
  11925.211  11925.200  0.500  1.845523  61.914073  9.778874  5.173530
  11925.495  11925.500  0.500  1.851517  61.902972  9.718693  5.129139
  11925.805  11925.800  0.500  1.856279  61.905517  9.672919  5.096797
  11926.102  11926.100  0.500  1.859250  61.912911  9.645379  5.075782
  11926.393  11926.400  0.500  1.860621  61.894660  9.629327  5.063376
  11926.696  11926.700  0.500  1.861007  61.897817  9.626100  5.059100
  11926.987  11927.000  0.500  1.860444  61.883824  9.629345  5.058791
  11927.297  11927.300  0.500  1.859453  61.883122  9.638779  5.063252
  11927.582  11927.600  0.500  1.858151  61.878337  9.650595  5.070818
  11927.885  11927.900  0.500  1.856818  61.876619  9.663200  5.078055
  11928.195  11928.200  0.500  1.855259  61.870330  9.677293  5.085044
  11928.492  11928.500  0.500  1.854513  61.874515  9.685164  5.088548
  11928.789  11928.800  0.500  1.854000  61.866011  9.688800  5.089622
  11929.093  11929.100  0.500  1.854270  61.868462  9.686573  5.086992
  11929.409  11929.400  0.500  1.855251  61.854364  9.674864  5.079999
  11929.700  11929.700  0.500  1.856684  61.849513  9.660258  5.069038
  11930.010  11930.000  0.500  1.859088  61.838003  9.635271  5.052727
  11930.301  11930.300  0.500  1.862382  61.840563  9.603976  5.032119
  11930.604  11930.600  0.500  1.865781  61.821339  9.568411  5.007299
  11930.908  11930.900  0.500  1.870153  61.822905  9.526919  4.979539
  11931.205  11931.200  0.500  1.874831  61.817111  9.481562  4.950523
  11931.509  11931.500  0.500  1.880131  61.817621  9.431521  4.916564
  11931.794  11931.800  0.500  1.885670  61.800866  9.376882  4.881031
  11932.097  11932.100  0.500  1.891768  61.809274  9.321142  4.845278
  11932.389  11932.400  0.500  1.897532  61.783170  9.263655  4.808209
  11932.711  11932.700  0.500  1.904281  61.784580  9.201561  4.768562
  11932.990  11933.000  0.500  1.910098  61.769545  9.145959  4.731657
  11933.300  11933.300  0.500  1.916530  61.749962  9.084439  4.693448
  11933.579  11933.600  0.500  1.922065  61.723254  9.030393  4.659095
  11933.895  11933.900  0.500  1.927753  61.660049  8.969976  4.619716
  11934.186  11934.200  0.500  1.932944  61.524661  8.903945  4.581008
  11934.496  11934.500  0.500  1.937858  61.357674  8.836245  4.539897
  11934.787  11934.800  0.500  1.942345  61.208490  8.775303  4.504331
  11935.097  11935.100  0.500  1.946515  61.102769  8.723690  4.473777
  11935.401  11935.400  0.500  1.949872  61.066393  8.689276  4.451911
  11935.693  11935.700  0.500  1.953164  61.090483  8.664134  4.437372
  11936.003  11936.000  0.500  1.955912  61.149559  8.648717  4.426167
  11936.307  11936.300  0.500  1.958083  61.244820  8.643402  4.421167
  11936.610  11936.600  0.500  1.960131  61.365505  8.642719  4.418916
  11936.908  11936.900  0.500  1.961844  61.480806  8.644135  4.418946
  11937.212  11937.200  0.500  1.963311  61.570279  8.644021  4.417333
  11937.516  11937.500  0.500  1.964748  61.626360  8.639474  4.413213
  11937.814  11937.800  0.500  1.966010  61.649190  8.631770  4.408303
  11938.093  11938.100  0.500  1.967381  61.661588  8.621682  4.401962
  11938.409  11938.400  0.500  1.969031  61.659511  8.607181  4.395042
  11938.688  11938.700  0.500  1.970735  61.663533  8.593085  4.386298
  11938.998  11939.000  0.500  1.972765  61.675280  8.577288  4.376145
  11939.296  11939.300  0.500  1.974868  61.663641  8.557660  4.362896
  11939.600  11939.600  0.500  1.977467  61.656991  8.534526  4.349133
  11939.886  11939.900  0.500  1.979991  61.658199  8.513179  4.336626
  11940.196  11940.200  0.500  1.982726  61.651222  8.488963  4.321634
  11940.488  11940.500  0.500  1.985418  61.646117  8.465442  4.307135
  11940.804  11940.800  0.500  1.988089  61.639138  8.441910  4.291020
  11941.090  11941.100  0.500  1.990828  61.637683  8.418617  4.278321
  11941.406  11941.400  0.500  1.993386  61.623635  8.395195  4.262855
  11941.698  11941.700  0.500  1.995779  61.632777  8.376373  4.251876
  11942.008  11942.000  0.500  1.998106  61.605513  8.353207  4.237137
  11942.300  11942.300  0.500  2.000794  61.604768  8.330680  4.224488
  11942.604  11942.600  0.500  2.003526  61.610221  8.308690  4.210231
  11942.908  11942.900  0.500  2.006844  61.594473  8.279051  4.192580
  11943.206  11943.200  0.500  2.010334  61.587043  8.249208  4.172873
  11943.510  11943.500  0.500  2.014992  61.587413  8.210923  4.148968
  11943.709  11943.700  0.500  2.018320  61.589441  8.183914  4.132134
  11944.709  11944.690  0.500  2.042298  61.573588  7.987960  4.009374
  11945.696  11945.690  0.500  2.075517  61.564234  7.725791  3.844913
  11946.721  11946.710  0.500  2.112426  61.555523  7.444784  3.669560
  11947.771  11947.760  0.500  2.141666  61.531165  7.227386  3.535402
  11948.840  11948.820  0.500  2.153186  61.516934  7.142952  3.484159
  11949.915  11949.900  0.500  2.146393  61.511211  7.190975  3.514405
  11951.015  11951.000  0.500  2.126825  61.500448  7.331789  3.604310
  11952.116  11952.120  0.500  2.102185  61.479674  7.512146  3.715834
  11953.279  11953.260  0.500  2.081047  61.453620  7.669377  3.815197
  11954.411  11954.410  0.500  2.069134  61.445889  7.760316  3.873366
  11955.605  11955.590  0.500  2.064149  61.419903  7.795799  3.896016
  11956.806  11956.780  0.500  2.061616  61.405930  7.813790  3.909340
  11958.013  11958.000  0.500  2.057016  61.392913  7.848158  3.931129
  11959.233  11959.230  0.500  2.051558  61.380915  7.889563  3.958788
  11960.485  11960.480  0.500  2.048839  61.360602  7.908427  3.971812
  11961.768  11961.750  0.500  2.051927  61.342013  7.881659  3.956494
  11963.063  11963.040  0.500  2.061418  61.327970  7.805415  3.908073
  11964.378  11964.350  0.500  2.076562  61.305030  7.685228  3.835591
  11965.686  11965.680  0.500  2.094221  61.278550  7.547442  3.749421
  11967.045  11967.030  0.500  2.112670  61.264142  7.407734  3.663744
  11968.417  11968.400  0.500  2.129790  61.254291  7.280825  3.583495
  11969.807  11969.780  0.500  2.143533  61.226427  7.178181  3.521947
  11971.204  11971.190  0.500  2.151404  61.204554  7.119356  3.485034
  11972.621  11972.610  0.500  2.151193  61.181962  7.118234  3.485274
  11974.043  11974.050  0.500  2.143953  61.166492  7.168144  3.516570
  11975.516  11975.510  0.500  2.133051  61.136681  7.243181  3.563746
  11977.015  11976.990  0.500  2.121839  61.117910  7.322603  3.611657
  11978.495  11978.490  0.500  2.112190  61.096966  7.391071  3.653443
  11980.025  11980.010  0.500  2.104126  61.086339  7.449614  3.691024
  11981.556  11981.550  0.500  2.096461  61.049235  7.502372  3.724002
  11983.125  11983.110  0.500  2.090053  61.029853  7.548210  3.752644
  11984.694  11984.680  0.500  2.085207  61.017015  7.583276  3.774921
  11986.295  11986.280  0.500  2.079589  60.987503  7.622310  3.798563
  11987.883  11987.890  0.500  2.072647  60.966088  7.672720  3.831845
  11989.529  11989.530  0.500  2.063599  60.939762  7.739111  3.873221
  11991.193  11991.180  0.500  2.054790  60.911256  7.803933  3.914390
  11992.859  11992.850  0.500  2.048580  60.894720  7.850414  3.942941
  11994.537  11994.540  0.500  2.046063  60.870249  7.867035  3.955848
  11996.240  11996.250  0.500  2.046249  60.842096  7.861936  3.952124
  11997.995  11997.980  0.500  2.048538  60.819163  7.841005  3.939022
  11999.750  11999.730  0.500  2.052475  60.798954  7.807601  3.918997
  12001.505  12001.490  0.500  2.058399  60.779836  7.759047  3.888306
  12003.280  12003.280  0.500  2.066966  60.753818  7.689562  3.845383
  12005.080  12005.080  0.500  2.076319  60.731233  7.615145  3.799608
  12006.925  12006.910  0.500  2.084954  60.699288  7.545702  3.758375
  12008.764  12008.750  0.500  2.090705  60.673370  7.499230  3.729012
  12010.591  12010.610  0.500  2.092800  60.653941  7.481139  3.716162
  12012.475  12012.490  0.500  2.092244  60.628815  7.482192  3.719539
  12014.410  12014.390  0.500  2.088732  60.611872  7.506423  3.734218
  12016.333  12016.310  0.500  2.084311  60.579912  7.535707  3.754838
  12018.251  12018.250  0.500  2.079907  60.549229  7.565129  3.774221
  12020.219  12020.210  0.500  2.076046  60.523399  7.591160  3.789876
  12022.194  12022.180  0.500  2.073042  60.510798  7.612413  3.804788
  12024.158  12024.180  0.500  2.071062  60.471131  7.622500  3.812035
  12026.153  12026.190  0.500  2.070496  60.444703  7.623479  3.814617
  12028.194  12028.220  0.500  2.070430  60.420491  7.620927  3.812767
  12030.260  12030.280  0.500  2.070622  60.391334  7.615787  3.810933
  12032.396  12032.350  0.500  2.070122  60.363902  7.616135  3.811853
  12035.006  12034.440  0.500  2.068455  60.321029  7.623426  3.817697
  12036.520  12036.550  0.500  2.066040  60.494839  7.663879  3.840023
  12038.892  12038.680  0.500  2.061915  60.454093  7.690373  3.857541
  12040.949  12040.820  0.500  2.057070  60.422394  7.723674  3.880030
  12043.032  12042.990  0.500  2.052361  60.386007  7.755458  3.901574
  12045.192  12045.180  0.500  2.047731  60.317107  7.782554  3.919915
  12047.378  12047.380  0.500  2.043659  59.167653  7.665397  3.865021
  12049.609  12049.600  0.500  2.040827  59.352010  7.711088  3.890715
  12051.860  12051.850  0.500  2.039613  60.193540  7.829916  3.951965
  12054.118  12054.110  0.500  2.039965  60.204625  7.828601  3.951020
  12056.383  12056.390  0.500  2.041888  60.183709  7.810851  3.940036
  12058.680  12058.690  0.500  2.044643  60.159090  7.786173  3.925340
  12061.010  12061.010  0.500  2.047124  60.130311  7.763167  3.910683
  12063.361  12063.350  0.500  2.049645  60.104885  7.740347  3.897040
  12065.705  12065.700  0.500  2.051798  60.071307  7.719381  3.884946
  12068.089  12068.080  0.500  2.053239  60.039169  7.704142  3.874109
  12070.461  12070.470  0.500  2.054461  60.008503  7.690802  3.867151
  12072.891  12072.890  0.500  2.055189  59.971738  7.680498  3.861291
  12075.334  12075.320  0.500  2.055781  59.938027  7.671638  3.857469
  12077.785  12077.770  0.500  2.055854  59.912692  7.667833  3.856075
  12080.257  12080.250  0.500  2.055066  59.869111  7.668301  3.857244
  12082.735  12082.740  0.500  2.054065  59.837767  7.671958  3.859608
  12085.265  12085.250  0.500  2.053344  59.799208  7.672547  3.862938
  12087.778  12087.770  0.500  2.052993  59.768893  7.671350  3.859868
  12090.323  12090.320  0.500  2.053522  59.721266  7.661181  3.855872
  12092.888  12092.890  0.500  2.054026  59.513348  7.630661  3.840341
  12095.455  12095.470  0.500  2.053951  59.680537  7.652672  3.851068
  12098.067  12098.080  0.500  2.052593  59.649689  7.659108  3.856952
  12100.725  12100.700  0.500  2.049230  59.602946  7.678890  3.869712
  12103.359  12103.350  0.500  2.044163  59.565478  7.713048  3.893628
  12106.007  12106.010  0.500  2.038465  59.533987  7.753019  3.919745
  12108.694  12108.690  0.500  2.033142  59.502654  7.790300  3.944034
  12111.388  12111.390  0.500  2.029423  59.465252  7.814408  3.960716
  12114.142  12114.110  0.500  2.027036  59.432723  7.828798  3.971652
  12116.858  12116.850  0.500  2.025136  59.391658  7.838269  3.977524
  12119.608  12119.600  0.500  2.023925  59.350731  7.842360  3.981888
  12122.371  12122.380  0.500  2.023014  59.312145  7.844402  3.983307
  12125.200  12125.170  0.500  2.022783  59.268893  7.840495  3.981876
  12127.992  12127.990  0.500  2.022919  59.195302  7.829694  3.977264
  12130.824  12130.820  0.500  2.024044  59.135754  7.813018  3.967145
  12133.650  12133.670  0.500  2.025650  59.177011  7.805923  3.962143
  12136.561  12136.550  0.500  2.028175  59.134782  7.780683  3.947114
  12139.435  12139.440  0.500  2.030980  59.097658  7.754017  3.931096
  12142.298  12142.350  0.500  2.034472  59.056239  7.721572  3.913213
  12145.259  12145.270  0.500  2.037407  59.015024  7.693569  3.894739
  12148.214  12148.220  0.500  2.040128  58.971658  7.667024  3.881067
  12151.197  12151.190  0.500  2.041033  58.940353  7.656025  3.872258
  12154.174  12154.170  0.500  2.040585  58.891297  7.653080  3.872144
  12157.166  12157.180  0.500  2.038252  58.849754  7.665546  3.880746
  12160.205  12160.200  0.500  2.034629  58.794422  7.686135  3.895083
  12163.258  12163.250  0.500  2.030015  58.556546  7.690437  3.901708
  12166.312  12166.310  0.500  2.024773  58.737136  7.754697  3.940892
