# XDI/1.0 BlueSky/1.10.0 BMM/2023-1.0-py310-tiled
# Beamline.name: BMM (06BM) -- Beamline for Materials Measurement (NIST)
# Beamline.xray_source: NSLS-II three-pole wiggler
# Beamline.collimation: paraboloid mirror, 5 nm Rh on 30 nm Pt
# Beamline.focusing: not in use
# Beamline.harmonic_rejection: flat mirror, Si stripe, pitch = 7.0 mrad relative to beam
# Beamline.software: Bluesky 1.10.0, Ophyd 1.7.0, DataBroker 2.0.0b13, Python 3.10.8, 2023-1.0-py310-tiled
# Detector.I0: 10 cm N2
# Detector.I1: 25 cm N2
# Detector.I2: 25 cm N2
# Element.symbol: V
# Element.edge: K
# Element.reference: V
# Element.reference_material: V foil
# Facility.name: NSLS-II
# Facility.energy: 3.0
# Facility.current: 399.5
# Facility.mode: top-off
# Facility.GUP: 301027
# Facility.SAF: 310583
# Facility.cycle: 2023-2
# Mono.name: Si(111)
# Mono.d_spacing: 3.1351860
# Mono.encoder_resolution: 0.0000050 deg/ct
# Mono.angle_offset: 16.0754326 deg
# Mono.scan_mode: pseudo channel cut
# Mono.scan_type: step
# Mono.direction: forward in energy
# Sample.name: V foil
# Sample.prep: reference foil
# Sample.x: 109.138 mm
# Sample.y: 153.150 mm
# Sample.SDD_position: 205.000 mm
# Scan.experimenters: Bruce Ravel
# Scan.edge_energy: 5465.1
# Scan.start_time: 2023-05-28T11:05:17
# Scan.end_time: 2023-05-28T11:13:13
# Scan.transient_id: 78623
# Scan.uid: 846f2db3-3a51-4dd0-b1cf-2c907795b8d5
# Scan.plot_hint: ln(It/Ir)  --  ln($6/$7)
# Column.1: energy eV
# Column.2: requested_energy eV
# Column.3: measurement_time seconds
# Column.4: xmu 
# Column.5: I0 nA
# Column.6: It nA
# Column.7: Ir nA
# ///////////
# standard reference foil
# -----------
# energy  requested_energy  measurement_time  xmu  I0  It  Ir
  5265.095  5265.100  0.500  2.574881  95.173746  34.083154  2.595871
  5275.113  5275.100  0.500  2.560243  95.961069  34.675808  2.679954
  5285.120  5285.100  0.500  2.545735  96.405850  35.177803  2.758483
  5295.110  5295.100  0.500  2.531405  97.418522  35.903787  2.856045
  5305.112  5305.100  0.500  2.516925  98.141544  36.522432  2.947630
  5315.112  5315.100  0.500  2.502703  98.820807  37.110284  3.037974
  5325.109  5325.100  0.500  2.488460  99.508375  37.730498  3.133056
  5335.109  5335.100  0.500  2.474670  100.194773  38.330688  3.227091
  5345.106  5345.100  0.500  2.460569  100.860466  38.951086  3.325892
  5355.115  5355.100  0.500  2.446843  101.360379  39.502236  3.419567
  5365.108  5365.100  0.500  2.433282  102.034395  40.126650  3.521049
  5375.109  5375.100  0.500  2.419519  102.670019  40.720538  3.622679
  5385.104  5385.100  0.500  2.406275  103.322757  41.342797  3.727072
  5395.106  5395.100  0.500  2.392881  104.030647  41.992512  3.836691
  5405.109  5405.100  0.500  2.379811  102.393790  41.697843  3.859891
  5415.109  5415.100  0.500  2.366823  105.154246  43.202356  4.051440
  5425.106  5425.100  0.500  2.353938  105.646146  43.779212  4.158779
  5435.110  5435.100  0.500  2.341513  106.255552  44.420531  4.272456
  5437.102  5437.100  0.500  2.339077  106.369435  44.521734  4.292633
  5439.107  5439.100  0.500  2.336696  106.515858  44.661517  4.316378
  5441.110  5441.100  0.500  2.334455  106.627428  44.798457  4.339323
  5443.107  5443.100  0.500  2.332127  106.711677  44.915972  4.360850
  5445.106  5445.100  0.500  2.329951  106.842186  45.011444  4.379635
  5447.103  5447.100  0.500  2.327415  106.944176  45.161221  4.405366
  5449.102  5449.100  0.500  2.325689  107.078380  45.266808  4.423296
  5451.102  5451.100  0.500  2.323914  107.186338  45.377979  4.442035
  5453.103  5453.100  0.500  2.322431  107.321076  45.517881  4.462345
  5455.103  5455.100  0.500  2.321184  107.432692  45.645960  4.480485
  5455.398  5455.400  0.500  2.321107  107.426318  45.647665  4.480998
  5455.693  5455.700  0.500  2.320956  107.444420  45.687669  4.485601
  5455.991  5456.000  0.500  2.321000  107.457049  45.732068  4.489763
  5456.290  5456.300  0.500  2.320856  107.474844  45.725201  4.489737
  5456.590  5456.600  0.500  2.320552  107.468415  45.715657  4.490164
  5456.893  5456.900  0.500  2.320664  107.496005  45.744118  4.492455
  5457.192  5457.200  0.500  2.320657  107.524773  45.785883  4.496589
  5457.491  5457.500  0.500  2.320618  107.537189  45.792469  4.497412
  5457.792  5457.800  0.500  2.320686  107.546487  45.822388  4.500041
  5458.090  5458.100  0.500  2.320775  107.559869  45.810836  4.498507
  5458.394  5458.400  0.500  2.320851  107.570673  45.821918  4.499255
  5458.690  5458.700  0.500  2.320894  107.580433  45.863361  4.503130
  5458.993  5459.000  0.500  2.321438  107.595450  45.896109  4.503896
  5459.293  5459.300  0.500  2.321609  107.614117  45.925438  4.506001
  5459.595  5459.600  0.500  2.321990  107.642345  45.911847  4.502950
  5459.894  5459.900  0.500  2.322380  107.656710  45.923245  4.502312
  5460.194  5460.200  0.500  2.322965  107.663776  45.939555  4.501277
  5460.493  5460.500  0.500  2.323594  107.666816  45.947255  4.499200
  5460.795  5460.800  0.500  2.324505  107.686774  45.997659  4.500035
  5461.093  5461.100  0.500  2.325560  107.714131  46.018846  4.497360
  5461.395  5461.400  0.500  2.326998  107.730497  46.009646  4.490000
  5461.696  5461.700  0.500  2.328641  107.742473  46.026859  4.484307
  5461.996  5462.000  0.500  2.330729  107.755750  46.064028  4.478568
  5462.299  5462.300  0.500  2.333456  107.782542  46.084017  4.468312
  5462.594  5462.600  0.500  2.337083  107.793092  46.109715  4.454614
  5462.896  5462.900  0.500  2.342128  107.817749  46.147269  4.435808
  5463.193  5463.200  0.500  2.349542  107.829102  46.134881  4.401859
  5463.494  5463.500  0.500  2.360737  107.843543  46.165256  4.355722
  5463.797  5463.800  0.500  2.379918  107.852471  46.176405  4.274005
  5464.096  5464.100  0.500  2.413159  107.880888  46.209231  4.137208
  5464.399  5464.400  0.500  2.469131  107.886317  46.200955  3.911297
  5464.699  5464.700  0.500  2.547085  107.913802  46.230290  3.620276
  5464.996  5465.000  0.500  2.617194  107.929421  46.265181  3.377703
  5465.297  5465.300  0.500  2.642522  107.935954  46.280843  3.294342
  5465.597  5465.600  0.500  2.629597  107.935497  46.277848  3.336981
  5465.896  5465.900  0.500  2.606392  107.965382  46.302194  3.417117
  5466.201  5466.200  0.500  2.589035  107.971799  46.321695  3.478410
  5466.498  5466.500  0.500  2.582827  107.984484  46.338550  3.501344
  5466.798  5466.800  0.500  2.586378  107.993996  46.367103  3.491084
  5467.100  5467.100  0.500  2.597806  108.007951  46.368043  3.451485
  5467.397  5467.400  0.500  2.614346  108.026910  46.397851  3.397048
  5467.696  5467.700  0.500  2.632307  108.027667  46.410903  3.337520
  5467.999  5468.000  0.500  2.650810  108.034353  46.425821  3.277384
  5468.303  5468.300  0.500  2.670082  108.054846  46.445842  3.216213
  5468.600  5468.600  0.500  2.689298  108.068345  46.437438  3.154431
  5468.897  5468.900  0.500  2.706904  108.097914  46.467180  3.101365
  5469.197  5469.200  0.500  2.721805  108.118613  46.494108  3.057264
  5469.500  5469.500  0.500  2.734217  108.131349  46.512849  3.020769
  5469.800  5469.800  0.500  2.743762  108.152321  46.532000  2.993307
  5470.098  5470.100  0.500  2.750700  108.158788  46.551962  2.973885
  5470.399  5470.400  0.500  2.755378  108.180281  46.552380  2.960031
  5470.698  5470.700  0.500  2.758231  108.203125  46.605343  2.954958
  5470.999  5471.000  0.500  2.760062  108.212622  46.611780  2.949960
  5471.297  5471.300  0.500  2.761816  108.208719  46.584082  2.943040
  5471.600  5471.600  0.500  2.764088  108.216055  46.600781  2.937413
  5471.903  5471.900  0.500  2.768774  108.242970  46.639491  2.926110
  5472.204  5472.200  0.500  2.776488  108.246073  46.666086  2.905281
  5472.496  5472.500  0.500  2.789259  108.271238  46.696078  2.870255
  5472.796  5472.800  0.500  2.806791  108.294016  46.731069  2.822485
  5473.101  5473.100  0.500  2.828883  108.306452  46.790848  2.764347
  5473.399  5473.400  0.500  2.853980  108.325678  46.749345  2.693441
  5473.702  5473.700  0.500  2.880430  108.348429  46.766591  2.624104
  5474.006  5474.000  0.500  2.905980  108.356162  46.753302  2.557180
  5474.301  5474.300  0.500  2.929948  108.384503  46.798973  2.499057
  5474.601  5474.600  0.500  2.953183  108.387845  46.836676  2.443628
  5474.900  5474.900  0.500  2.975006  108.397922  46.846823  2.391396
  5475.199  5475.200  0.500  2.994728  108.420934  46.869042  2.345806
  5475.501  5475.500  0.500  3.012670  108.439285  46.887372  2.304994
  5475.803  5475.800  0.500  3.030338  108.448303  46.916733  2.266046
  5476.103  5476.100  0.500  3.046825  108.455728  46.932257  2.229730
  5476.405  5476.400  0.500  3.062916  108.465434  46.937891  2.194401
  5476.705  5476.700  0.500  3.078717  108.496123  46.966802  2.161331
  5477.000  5477.000  0.500  3.094262  108.518330  47.002772  2.129623
  5477.301  5477.300  0.500  3.110322  108.532099  46.982494  2.094790
  5477.602  5477.600  0.500  3.125968  108.547743  47.018075  2.063831
  5477.899  5477.900  0.500  3.140592  108.553661  47.027108  2.034260
  5478.202  5478.200  0.500  3.155762  108.585608  47.040835  2.004218
  5478.505  5478.500  0.500  3.170317  108.593751  47.064409  1.976249
  5478.801  5478.800  0.500  3.184345  108.617876  47.093205  1.949910
  5479.101  5479.100  0.500  3.197964  108.644682  47.114148  1.924390
  5479.404  5479.400  0.500  3.211484  108.655753  47.124351  1.898960
  5479.700  5479.700  0.500  3.225228  108.654702  47.132959  1.873380
  5479.999  5480.000  0.500  3.238723  108.648023  47.147954  1.848856
  5480.299  5480.300  0.500  3.251501  108.658264  47.149009  1.825423
  5480.601  5480.600  0.500  3.263908  108.671606  47.188161  1.804412
  5480.904  5480.900  0.500  3.275884  108.695273  47.204561  1.783551
  5481.200  5481.200  0.500  3.286491  108.726199  47.237578  1.765968
  5481.503  5481.500  0.500  3.295893  108.726856  47.255917  1.750120
  5481.805  5481.800  0.500  3.306042  108.769050  47.277912  1.733256
  5482.100  5482.100  0.500  3.316179  108.771826  47.308458  1.716883
  5482.400  5482.400  0.500  3.327349  108.775416  47.324385  1.698383
  5482.697  5482.700  0.500  3.337690  108.789516  47.286493  1.679565
  5483.003  5483.000  0.500  3.347419  108.822770  47.325031  1.664660
  5483.299  5483.300  0.500  3.354947  108.819042  47.344998  1.652872
  5483.606  5483.600  0.500  3.359119  108.834836  47.352467  1.646250
  5483.900  5483.900  0.500  3.359195  108.853444  47.355760  1.646240
  5484.201  5484.200  0.500  3.354967  108.868582  47.381659  1.654118
  5484.497  5484.500  0.500  3.346866  108.890727  47.417994  1.668852
  5484.800  5484.800  0.500  3.335363  108.890009  47.441449  1.688994
  5485.101  5485.100  0.500  3.321297  108.894308  47.448485  1.713174
  5485.400  5485.400  0.500  3.306551  108.920800  47.470709  1.739437
  5485.702  5485.700  0.500  3.290954  108.924724  47.486699  1.767376
  5486.002  5486.000  0.500  3.274864  108.946691  47.500680  1.796571
  5486.302  5486.300  0.500  3.260486  108.963987  47.503513  1.822699
  5486.602  5486.600  0.500  3.247269  108.967903  47.541397  1.848421
  5486.902  5486.900  0.500  3.235360  108.998684  47.592213  1.872565
  5487.200  5487.200  0.500  3.225233  109.024052  47.593365  1.891670
  5487.504  5487.500  0.500  3.217144  109.011379  47.596066  1.907142
  5487.802  5487.800  0.500  3.211350  109.032479  47.601188  1.918431
  5488.102  5488.100  0.500  3.207493  109.043736  47.626552  1.926872
  5488.401  5488.400  0.500  3.205655  109.061354  47.657302  1.931661
  5488.699  5488.700  0.500  3.205262  109.067351  47.674493  1.933119
  5489.002  5489.000  0.500  3.207164  109.092640  47.708674  1.930829
  5489.297  5489.300  0.500  3.209747  109.108471  47.717565  1.926206
  5489.604  5489.600  0.500  3.214590  109.128482  47.722814  1.917111
  5489.902  5489.900  0.500  3.219751  109.139136  47.740989  1.907970
  5490.104  5490.100  0.500  3.224067  109.165414  47.772099  1.900989
  5491.106  5491.090  0.500  3.247675  109.216973  47.850451  1.859682
  5492.086  5492.090  0.500  3.267770  109.487679  47.985447  1.827827
  5493.103  5493.110  0.500  3.276513  109.557960  48.029064  1.813563
  5494.159  5494.160  0.500  3.271184  109.610942  48.089376  1.825542
  5495.219  5495.220  0.500  3.256846  109.654973  48.150855  1.854273
  5496.303  5496.300  0.500  3.245152  109.710657  48.223786  1.878927
  5497.401  5497.400  0.500  3.244608  109.753636  48.312495  1.883407
  5498.527  5498.520  0.500  3.256175  109.810503  48.396442  1.864981
  5499.664  5499.660  0.500  3.270444  109.875315  48.463012  1.841088
  5500.814  5500.810  0.500  3.282038  109.931448  48.545537  1.822964
  5501.993  5501.990  0.500  3.290488  109.984785  48.615588  1.810235
  5503.182  5503.180  0.500  3.297253  110.020061  48.658757  1.799626
  5504.404  5504.400  0.500  3.299940  110.091376  48.708422  1.796629
  5505.636  5505.630  0.500  3.301186  110.134590  48.790975  1.797433
  5506.884  5506.880  0.500  3.304662  110.214946  48.881870  1.794533
  5508.150  5508.150  0.500  3.312849  110.277525  48.966770  1.782992
  5509.446  5509.440  0.500  3.322160  110.343177  49.059350  1.769808
  5510.754  5510.750  0.500  3.326235  110.409398  49.135664  1.765352
  5512.088  5512.080  0.500  3.322971  110.446281  49.219827  1.774157
  5513.434  5513.430  0.500  3.314764  110.514312  49.293325  1.791450
  5514.807  5514.800  0.500  3.305957  110.555455  49.380970  1.810510
  5516.190  5516.180  0.500  3.297974  110.623618  49.459115  1.827908
  5517.595  5517.590  0.500  3.288972  110.688815  49.542898  1.847562
  5519.016  5519.010  0.500  3.276110  110.766381  49.625187  1.874587
  5520.456  5520.450  0.500  3.258361  110.827240  49.710372  1.911432
  5521.917  5521.910  0.500  3.238397  110.898087  49.796399  1.953350
  5523.397  5523.390  0.500  3.217782  110.961834  49.902310  1.998277
  5524.899  5524.890  0.500  3.199968  111.030075  49.990437  2.037786
  5526.414  5526.410  0.500  3.184936  111.093284  50.054543  2.071302
  5527.960  5527.950  0.500  3.171951  111.164006  50.159166  2.102758
  5529.518  5529.510  0.500  3.161694  111.227226  50.266613  2.128989
  5531.090  5531.080  0.500  3.156670  111.301369  50.352591  2.143371
  5532.689  5532.680  0.500  3.160213  111.367004  50.404021  2.137972
  5534.305  5534.290  0.500  3.171158  111.422905  50.513355  2.119286
  5535.941  5535.930  0.500  3.188412  111.463897  50.592470  2.086296
  5537.592  5537.580  0.500  3.210179  111.532470  50.692303  2.045404
  5539.260  5539.250  0.500  3.228974  111.602268  50.806358  2.011836
  5540.950  5540.940  0.500  3.232192  111.681065  50.917951  2.009777
  5542.666  5542.650  0.500  3.219796  111.749745  51.013828  2.038677
  5544.392  5544.380  0.500  3.199588  111.832200  51.125304  2.084840
  5546.138  5546.130  0.500  3.177133  111.903991  51.238798  2.136916
  5547.900  5547.890  0.500  3.153253  111.993060  51.329605  2.192440
  5549.685  5549.680  0.500  3.129848  112.045298  51.395195  2.247225
  5551.490  5551.480  0.500  3.112471  112.122914  51.507753  2.291625
  5553.319  5553.310  0.500  3.109436  112.173672  51.623249  2.303746
  5555.164  5555.150  0.500  3.124129  112.254539  51.747232  2.275596
  5557.020  5557.010  0.500  3.153082  112.334859  51.868046  2.215816
  5558.899  5558.890  0.500  3.187722  112.396444  51.957848  2.144079
  5560.801  5560.790  0.500  3.220571  112.488230  52.076552  2.079534
  5562.717  5562.710  0.500  3.249099  112.547215  52.185794  2.025287
  5564.657  5564.650  0.500  3.267766  112.643011  52.308486  1.992505
  5566.617  5566.610  0.500  3.271768  112.679037  52.404747  1.988199
  5568.589  5568.580  0.500  3.257669  112.740101  52.492971  2.019823
  5570.591  5570.580  0.500  3.230283  112.814306  52.606609  2.080398
  5572.598  5572.590  0.500  3.196073  112.884788  52.730918  2.157886
  5574.631  5574.620  0.500  3.160022  112.970894  52.837835  2.241635
  5576.688  5576.680  0.500  3.128403  113.032796  52.983061  2.320006
  5578.758  5578.750  0.500  3.105917  113.110253  53.115807  2.378709
  5580.850  5580.840  0.500  3.094014  113.180717  53.208314  2.411383
  5582.959  5582.950  0.500  3.090721  113.266326  53.355487  2.426028
  5585.088  5585.080  0.500  3.091894  113.336503  53.486364  2.429130
  5587.229  5587.220  0.500  3.092897  113.404778  53.596550  2.431693
  5589.402  5589.390  0.500  3.088953  113.487319  53.716952  2.446786
  5591.588  5591.580  0.500  3.079379  113.567992  53.844871  2.476208
  5593.791  5593.780  0.500  3.067102  113.624133  53.951422  2.511757
  5596.011  5596.000  0.500  3.056627  113.702845  54.068563  2.543717
  5598.259  5598.250  0.500  3.051174  113.745967  54.184853  2.563124
  5600.522  5600.510  0.500  3.050477  113.854042  54.337661  2.572146
  5602.797  5602.790  0.500  3.051821  113.895771  54.461285  2.574535
  5605.098  5605.090  0.500  3.053795  113.962364  54.600451  2.576024
  5607.419  5607.410  0.500  3.058298  114.050332  54.739678  2.570990
  5609.758  5609.750  0.500  3.066103  114.135057  54.855619  2.556403
  5612.107  5612.100  0.500  3.072365  114.208934  55.016802  2.547911
  5614.489  5614.480  0.500  3.074851  114.276720  55.108545  2.545823
  5616.876  5616.870  0.500  3.077553  114.342515  55.243978  2.545192
  5619.298  5619.290  0.500  3.085595  114.434507  55.401675  2.532014
  5621.724  5621.720  0.500  3.098417  114.492955  55.542343  2.506101
  5624.174  5624.170  0.500  3.111157  114.558713  55.673648  2.480227
  5626.653  5626.650  0.500  3.114098  114.628007  55.783813  2.477836
  5629.147  5629.140  0.500  3.104842  114.704740  55.903206  2.506229
  5631.657  5631.650  0.500  3.087014  114.768987  56.075098  2.559158
  5634.177  5634.170  0.500  3.066251  114.837949  56.223085  2.619743
  5636.726  5636.720  0.500  3.046447  114.895663  56.351530  2.678246
  5639.294  5639.290  0.500  3.029228  114.971790  56.497630  2.731827
  5641.870  5641.870  0.500  3.015747  115.041806  56.642351  2.775997
  5644.481  5644.480  0.500  3.006301  115.108973  56.788582  2.809578
  5647.102  5647.100  0.500  2.999183  115.181254  56.929348  2.836661
  5649.755  5649.750  0.500  2.992300  115.258700  57.084668  2.864047
  5652.415  5652.410  0.500  2.984713  115.303868  57.211367  2.892265
  5655.094  5655.090  0.500  2.977047  115.379555  57.340778  2.921115
  5657.795  5657.790  0.500  2.969952  115.443673  57.487731  2.949453
  5660.514  5660.510  0.500  2.963741  115.499230  57.637201  2.975546
  5663.253  5663.250  0.500  2.955879  115.570279  57.786255  3.006786
  5666.004  5666.000  0.500  2.945164  115.621309  57.938755  3.047197
  5668.782  5668.780  0.500  2.934693  115.678577  58.083548  3.086970
  5671.573  5671.570  0.500  2.928161  115.736923  58.208138  3.113863
  5674.392  5674.390  0.500  2.927288  115.762454  58.308720  3.121968
  5677.224  5677.220  0.500  2.931057  115.802231  58.447488  3.117627
  5680.076  5680.070  0.500  2.936349  115.859723  58.601636  3.109350
  5682.953  5682.950  0.500  2.942581  115.914278  58.748267  3.097763
  5685.842  5685.840  0.500  2.949196  115.921726  58.882095  3.084352
  5688.753  5688.750  0.500  2.956338  115.948147  59.014654  3.069296
  5691.676  5691.670  0.500  2.962855  115.982947  59.158564  3.056794
  5694.624  5694.620  0.500  2.966939  116.039088  59.305945  3.051919
  5697.593  5697.590  0.500  2.966907  116.068435  59.478071  3.060874
  5700.574  5700.570  0.500  2.960286  116.116062  59.621770  3.088651
  5703.582  5703.580  0.500  2.947235  116.144926  59.770755  3.137045
  5706.606  5706.600  0.500  2.929294  116.190541  59.920949  3.201860
  5709.656  5709.650  0.500  2.910838  116.250083  60.094594  3.270955
  5712.713  5712.710  0.500  2.896304  116.297874  60.248726  3.327354
  5715.795  5715.790  0.500  2.887604  116.319760  60.388886  3.364238
  5718.899  5718.890  0.500  2.881781  116.349165  60.520314  3.391250
