# XDI/1.0 BlueSky/1.10.0 BMM/2023-1.0-py310-tiled
# Beamline.name: BMM (06BM) -- Beamline for Materials Measurement (NIST)
# Beamline.xray_source: NSLS-II three-pole wiggler
# Beamline.collimation: paraboloid mirror, 5 nm Rh on 30 nm Pt
# Beamline.focusing: not in use
# Beamline.harmonic_rejection: flat mirror, Si stripe, pitch = 7.0 mrad relative to beam
# Beamline.software: Bluesky 1.10.0, Ophyd 1.7.0, DataBroker 2.0.0b13, Python 3.10.8, 2023-1.0-py310-tiled
# Detector.I0: 10 cm N2
# Detector.I1: 25 cm N2
# Detector.I2: 25 cm N2
# Element.symbol: V
# Element.edge: K
# Element.reference: V
# Element.reference_material: V foil
# Facility.name: NSLS-II
# Facility.energy: 3.0
# Facility.current: 399.8
# Facility.mode: top-off
# Facility.GUP: 123456
# Facility.SAF: 301027
# Facility.cycle: 2023-2
# Mono.name: Si(111)
# Mono.d_spacing: 3.1351860
# Mono.encoder_resolution: 0.0000050 deg/ct
# Mono.angle_offset: 16.0754326 deg
# Mono.scan_mode: pseudo channel cut
# Mono.scan_type: step
# Mono.direction: forward in energy
# Sample.name: V foil
# Sample.prep: foil reference
# Sample.x: 116.329 mm
# Sample.y: 114.126 mm
# Sample.SDD_position: 205.000 mm
# Scan.experimenters: Bruce Ravel
# Scan.edge_energy: 5465.1
# Scan.start_time: 2023-05-06T09:51:57
# Scan.end_time: 2023-05-06T09:59:21
# Scan.transient_id: 74699
# Scan.uid: f8d5b096-3de6-434a-a31d-33a75c383afc
# Scan.plot_hint: ln(It/Ir)  --  ln($6/$7)
# Column.1: energy eV
# Column.2: requested_energy eV
# Column.3: measurement_time seconds
# Column.4: xmu 
# Column.5: I0 nA
# Column.6: It nA
# Column.7: Ir nA
# ///////////
# foil
# -----------
# energy  requested_energy  measurement_time  xmu  I0  It  Ir
  5265.104  5265.100  0.500  1.865526  98.773194  18.255522  2.826223
  5275.110  5275.100  0.500  1.854607  99.549221  18.643868  2.918035
  5285.110  5285.100  0.500  1.844269  99.945252  18.945021  2.995981
  5295.111  5295.100  0.500  1.833615  100.622723  19.341059  3.091371
  5305.109  5305.100  0.500  1.823380  101.205758  19.715924  3.183707
  5315.111  5315.100  0.500  1.812845  101.786317  20.084673  3.277602
  5325.113  5325.100  0.500  1.802446  102.329913  20.458386  3.373486
  5335.108  5335.100  0.500  1.792441  102.854320  20.821650  3.467912
  5345.110  5345.100  0.500  1.782298  103.391442  21.199172  3.566783
  5355.389  5355.100  0.500  1.772080  103.908928  21.584623  3.668933
  5365.091  5365.100  0.500  1.762278  104.410861  21.958670  3.769280
  5375.093  5375.100  0.500  1.752375  104.939710  22.341726  3.873199
  5385.097  5385.100  0.500  1.742529  105.430435  22.730096  3.979518
  5395.096  5395.100  0.500  1.732779  105.993753  23.129580  4.089135
  5405.097  5405.100  0.500  1.723249  103.681938  22.902434  4.087748
  5415.094  5415.100  0.500  1.714016  106.755243  23.867505  4.299513
  5425.094  5425.100  0.500  1.704795  107.075030  24.224845  4.404312
  5435.097  5435.100  0.500  1.695991  107.506911  24.604223  4.512843
  5437.094  5437.100  0.500  1.694276  107.577108  24.672496  4.533134
  5439.092  5439.100  0.500  1.692382  107.660573  24.735750  4.553368
  5441.092  5441.100  0.500  1.690749  107.710055  24.808386  4.574204
  5443.093  5443.100  0.500  1.689209  107.954155  24.938748  4.605327
  5445.099  5445.100  0.500  1.687621  108.144370  25.057082  4.634532
  5447.094  5447.100  0.500  1.686349  108.222363  25.135550  4.654963
  5449.095  5449.100  0.500  1.685101  108.301614  25.205674  4.673781
  5451.093  5451.100  0.500  1.683921  108.350558  25.280079  4.693113
  5453.095  5453.100  0.500  1.683037  108.446627  25.365746  4.713181
  5455.095  5455.100  0.500  1.682575  108.532251  25.440862  4.729321
  5455.393  5455.400  0.500  1.682470  108.525190  25.447008  4.730959
  5455.690  5455.700  0.500  1.682601  108.543427  25.457974  4.732377
  5455.989  5456.000  0.500  1.682369  108.526757  25.475382  4.736713
  5456.290  5456.300  0.500  1.682685  108.535513  25.474919  4.735131
  5456.591  5456.600  0.500  1.682633  108.532767  25.492420  4.738630
  5456.890  5456.900  0.500  1.682608  108.546633  25.484244  4.737231
  5457.192  5457.200  0.500  1.682695  108.550822  25.504412  4.740565
  5457.492  5457.500  0.500  1.682863  108.550857  25.516491  4.742014
  5457.791  5457.800  0.500  1.682988  108.556289  25.527862  4.743535
  5458.089  5458.100  0.500  1.683254  108.557508  25.532570  4.743146
  5458.394  5458.400  0.500  1.683480  108.566466  25.546493  4.744659
  5458.690  5458.700  0.500  1.683801  108.557744  25.551531  4.744072
  5458.996  5459.000  0.500  1.684177  108.556736  25.561381  4.744117
  5459.293  5459.300  0.500  1.684546  108.572899  25.576514  4.745176
  5459.595  5459.600  0.500  1.685191  108.583097  25.593261  4.745221
  5459.893  5459.900  0.500  1.685704  108.586039  25.597375  4.743550
  5460.192  5460.200  0.500  1.686517  108.588500  25.599764  4.740139
  5460.494  5460.500  0.500  1.687510  108.582408  25.586461  4.732971
  5460.796  5460.800  0.500  1.688594  108.600825  25.621527  4.734324
  5461.094  5461.100  0.500  1.689739  108.598004  25.632317  4.730897
  5461.398  5461.400  0.500  1.691595  108.609372  25.648254  4.725062
  5461.699  5461.700  0.500  1.693462  108.607998  25.656385  4.717741
  5461.996  5462.000  0.500  1.696315  108.608444  25.670515  4.706891
  5462.294  5462.300  0.500  1.699646  108.612257  25.677825  4.692574
  5462.595  5462.600  0.500  1.704575  108.609743  25.688568  4.671457
  5462.895  5462.900  0.500  1.711325  108.626160  25.703115  4.642659
  5463.195  5463.200  0.500  1.721276  108.628197  25.713294  4.598509
  5463.496  5463.500  0.500  1.738334  108.633978  25.722469  4.522346
  5463.796  5463.800  0.500  1.768449  108.655970  25.726061  4.388798
  5464.099  5464.100  0.500  1.820573  108.653558  25.726819  4.166019
  5464.397  5464.400  0.500  1.892210  108.646259  25.746773  3.881024
  5464.694  5464.700  0.500  1.963104  108.661163  25.751900  3.616131
  5464.994  5465.000  0.500  1.996684  108.681523  25.772778  3.499552
  5465.297  5465.300  0.500  1.988060  108.661132  25.773218  3.529924
  5465.598  5465.600  0.500  1.965930  108.658227  25.780796  3.609970
  5465.899  5465.900  0.500  1.947844  108.670301  25.784784  3.676424
  5466.203  5466.200  0.500  1.940344  108.660070  25.792423  3.705199
  5466.497  5466.500  0.500  1.942715  108.694032  25.819446  3.700296
  5466.796  5466.800  0.500  1.952717  108.704860  25.835034  3.665683
  5467.098  5467.100  0.500  1.967944  108.701784  25.842248  3.611297
  5467.398  5467.400  0.500  1.985709  108.707869  25.837539  3.547060
  5467.699  5467.700  0.500  2.003468  108.691626  25.839852  3.484936
  5468.001  5468.000  0.500  2.021682  108.676686  25.852195  3.423672
  5468.301  5468.300  0.500  2.040159  108.697051  25.849358  3.360625
  5468.599  5468.600  0.500  2.057787  108.700276  25.863890  3.303758
  5468.897  5468.900  0.500  2.072995  108.694387  25.883558  3.256369
  5469.200  5469.200  0.500  2.085338  108.694372  25.901326  3.218630
  5469.495  5469.500  0.500  2.094729  108.717474  25.910036  3.189618
  5469.799  5469.800  0.500  2.101665  108.717024  25.913059  3.167941
  5470.100  5470.100  0.500  2.106532  108.714628  25.921923  3.153639
  5470.399  5470.400  0.500  2.109600  108.730559  25.933155  3.145341
  5470.697  5470.700  0.500  2.111443  108.736536  25.957155  3.142455
  5471.000  5471.000  0.500  2.113033  108.739788  25.968153  3.138793
  5471.300  5471.300  0.500  2.115537  108.746578  25.977190  3.132033
  5471.601  5471.600  0.500  2.119591  108.751622  25.981644  3.119895
  5471.899  5471.900  0.500  2.126364  108.744290  25.977195  3.098304
  5472.200  5472.200  0.500  2.137525  108.764164  25.989151  3.065326
  5472.498  5472.500  0.500  2.154041  108.769966  25.994724  3.015762
  5472.800  5472.800  0.500  2.174536  108.783233  26.008410  2.956140
  5473.103  5473.100  0.500  2.198106  108.789490  26.041657  2.890969
  5473.402  5473.400  0.500  2.223318  108.784530  26.037949  2.818590
  5473.699  5473.700  0.500  2.247682  108.800540  26.044863  2.751478
  5474.001  5474.000  0.500  2.271426  108.774861  26.061202  2.688604
  5474.298  5474.300  0.500  2.292993  108.822645  26.084540  2.633594
  5474.603  5474.600  0.500  2.313740  108.814874  26.080719  2.579140
  5474.904  5474.900  0.500  2.333212  108.823468  26.081651  2.529497
  5475.200  5475.200  0.500  2.350840  108.815834  26.086611  2.485770
  5475.501  5475.500  0.500  2.366780  108.798549  26.105971  2.448277
  5475.801  5475.800  0.500  2.382513  108.805624  26.127817  2.412076
  5476.099  5476.100  0.500  2.398233  108.816138  26.138098  2.375388
  5476.399  5476.400  0.500  2.413277  108.821661  26.148298  2.340834
  5476.703  5476.700  0.500  2.428009  108.838163  26.167403  2.308287
  5477.005  5477.000  0.500  2.443127  108.836320  26.169446  2.273830
  5477.302  5477.300  0.500  2.457770  108.833765  26.172316  2.241022
  5477.601  5477.600  0.500  2.472393  108.848900  26.178482  2.209011
  5477.901  5477.900  0.500  2.486225  108.882105  26.200183  2.180471
  5478.203  5478.200  0.500  2.499857  108.871851  26.195039  2.150528
  5478.500  5478.500  0.500  2.513007  108.863432  26.197117  2.122601
  5478.800  5478.800  0.500  2.526475  108.881307  26.211197  2.095331
  5479.103  5479.100  0.500  2.539038  108.888441  26.230456  2.070693
  5479.403  5479.400  0.500  2.551743  108.886895  26.251932  2.046225
  5479.703  5479.700  0.500  2.564627  108.889171  26.267274  2.021211
  5480.000  5480.000  0.500  2.577138  108.913288  26.289209  1.997748
  5480.298  5480.300  0.500  2.588609  108.884668  26.281157  1.974358
  5480.602  5480.600  0.500  2.599666  108.897796  26.308522  1.954681
  5480.899  5480.900  0.500  2.609568  108.902341  26.317409  1.936074
  5481.205  5481.200  0.500  2.619521  108.926848  26.323824  1.917367
  5481.503  5481.500  0.500  2.628321  108.934702  26.337590  1.901564
  5481.803  5481.800  0.500  2.638020  108.942714  26.340241  1.883398
  5482.103  5482.100  0.500  2.648216  108.948259  26.348781  1.864897
  5482.404  5482.400  0.500  2.658440  108.936406  26.349492  1.845978
  5482.702  5482.700  0.500  2.667531  108.951413  26.344302  1.828911
  5483.002  5483.000  0.500  2.675120  108.959012  26.365793  1.816566
  5483.299  5483.300  0.500  2.679245  108.951035  26.365693  1.809080
  5483.598  5483.600  0.500  2.679676  108.972540  26.374209  1.808886
  5483.903  5483.900  0.500  2.676595  108.967023  26.398433  1.816133
  5484.204  5484.200  0.500  2.669671  108.973470  26.418823  1.830164
  5484.501  5484.500  0.500  2.659389  108.990910  26.414117  1.848751
  5484.803  5484.800  0.500  2.646506  109.001278  26.411730  1.872553
  5485.098  5485.100  0.500  2.633270  109.018156  26.447408  1.900066
  5485.397  5485.400  0.500  2.618999  109.041505  26.471893  1.929159
  5485.701  5485.700  0.500  2.604133  109.031655  26.478739  1.958559
  5486.001  5486.000  0.500  2.590050  109.033233  26.488074  1.987038
  5486.302  5486.300  0.500  2.577557  109.038303  26.500037  2.012926
  5486.603  5486.600  0.500  2.566543  109.045834  26.506307  2.035700
  5486.902  5486.900  0.500  2.556951  109.056577  26.519774  2.056364
  5487.202  5487.200  0.500  2.549269  109.083848  26.518403  2.072116
  5487.498  5487.500  0.500  2.543519  109.075829  26.545352  2.086183
  5487.802  5487.800  0.500  2.539712  109.077323  26.555812  2.094966
  5488.098  5488.100  0.500  2.537869  109.086966  26.564534  2.099519
  5488.403  5488.400  0.500  2.537790  109.110198  26.581011  2.100986
  5488.701  5488.700  0.500  2.538932  109.117822  26.598160  2.099942
  5489.000  5489.000  0.500  2.541455  109.113021  26.605847  2.095256
  5489.304  5489.300  0.500  2.545553  109.134599  26.619539  2.087761
  5489.598  5489.600  0.500  2.550535  109.143915  26.623867  2.077723
  5489.899  5489.900  0.500  2.556420  109.135050  26.638077  2.066634
  5490.099  5490.100  0.500  2.560537  109.140399  26.637387  2.058090
  5491.099  5491.090  0.500  2.583017  109.151524  26.659980  2.014048
  5492.100  5492.090  0.500  2.600081  109.166291  26.696888  1.982712
  5493.121  5493.110  0.500  2.604679  109.201891  26.736077  1.976515
  5494.175  5494.160  0.500  2.597199  109.217905  26.788557  1.995263
  5495.218  5495.220  0.500  2.584158  109.208152  26.813205  2.023314
  5496.298  5496.300  0.500  2.575324  109.255306  26.848917  2.043985
  5497.400  5497.400  0.500  2.577875  109.660981  26.983608  2.049005
  5498.519  5498.520  0.500  2.590172  109.663007  27.026900  2.027210
  5499.661  5499.660  0.500  2.603808  109.679018  27.058279  2.002076
  5500.816  5500.810  0.500  2.613686  109.700781  27.103386  1.985703
  5501.992  5501.990  0.500  2.621707  109.744114  27.152075  1.973377
  5503.184  5503.180  0.500  2.627371  109.769405  27.200587  1.965737
  5504.404  5504.400  0.500  2.629790  109.790729  27.243783  1.964103
  5505.631  5505.630  0.500  2.631176  109.795478  27.277714  1.963825
  5506.884  5506.880  0.500  2.635333  109.820367  27.320351  1.958736
  5508.155  5508.150  0.500  2.644018  109.834226  27.365225  1.944987
  5509.439  5509.440  0.500  2.652501  109.868469  27.416442  1.932166
  5510.756  5510.750  0.500  2.654787  109.877617  27.454754  1.930448
  5512.084  5512.080  0.500  2.650798  109.898947  27.499643  1.941333
  5513.435  5513.430  0.500  2.643394  109.930614  27.547142  1.959138
  5514.808  5514.800  0.500  2.635617  109.955686  27.604866  1.978571
  5516.183  5516.180  0.500  2.628850  110.016422  27.680715  1.997480
  5517.600  5517.590  0.500  2.620215  110.018300  27.711207  2.017021
  5519.019  5519.010  0.500  2.607874  110.021046  27.734863  2.043811
  5520.454  5520.450  0.500  2.591239  110.040053  27.799672  2.082951
  5521.917  5521.910  0.500  2.572390  110.058301  27.848584  2.126318
  5523.398  5523.390  0.500  2.553988  110.058658  27.896076  2.169502
  5524.894  5524.890  0.500  2.538281  110.070035  27.941292  2.207420
  5526.417  5526.410  0.500  2.525394  110.098012  27.991891  2.240100
  5527.957  5527.950  0.500  2.514019  110.118984  28.043288  2.269888
  5529.515  5529.510  0.500  2.505159  110.136085  28.102923  2.294959
  5531.090  5531.080  0.500  2.502162  110.139339  28.160945  2.306599
  5532.689  5532.680  0.500  2.507234  110.159228  28.212361  2.299118
  5534.305  5534.290  0.500  2.518566  110.164863  28.253364  2.276518
  5535.937  5535.930  0.500  2.535385  110.195383  28.321792  2.243969
  5537.587  5537.580  0.500  2.556327  110.208125  28.348681  2.199551
  5539.261  5539.250  0.500  2.572842  110.235268  28.421500  2.169081
  5540.952  5540.940  0.500  2.573734  110.264181  28.490095  2.172377
  5542.657  5542.650  0.500  2.561277  110.286960  28.546687  2.203978
  5544.388  5544.380  0.500  2.542387  110.299965  28.605774  2.250655
  5546.139  5546.130  0.500  2.521445  110.310137  28.663342  2.302912
  5547.897  5547.890  0.500  2.499685  110.327731  28.724784  2.358618
  5549.702  5549.680  0.500  2.478525  110.348399  28.785174  2.414123
  5551.488  5551.480  0.500  2.464726  110.372401  28.845651  2.452807
  5553.329  5553.310  0.500  2.464318  110.369765  28.902068  2.458608
  5555.160  5555.150  0.500  2.480908  110.401934  28.969809  2.423824
  5557.020  5557.010  0.500  2.509761  110.391241  29.021191  2.359066
  5558.903  5558.890  0.500  2.542755  110.391266  29.081736  2.287261
  5560.811  5560.790  0.500  2.573299  110.423506  29.151212  2.223756
  5562.717  5562.710  0.500  2.599220  110.439106  29.211801  2.171358
  5564.662  5564.650  0.500  2.615602  110.452395  29.269236  2.140276
  5566.634  5566.610  0.500  2.617123  110.467074  29.343369  2.142437
  5568.601  5568.580  0.500  2.602886  110.488910  29.412456  2.178272
  5570.590  5570.580  0.500  2.576838  110.485401  29.470511  2.240170
  5572.601  5572.590  0.500  2.545116  110.504149  29.537774  2.317650
  5574.643  5574.620  0.500  2.512242  110.534518  29.616762  2.401513
  5576.695  5576.680  0.500  2.484228  110.563447  29.687282  2.475619
  5578.760  5578.750  0.500  2.465179  110.573031  29.760725  2.529473
  5580.859  5580.840  0.500  2.455743  110.583990  29.831438  2.559520
  5582.962  5582.950  0.500  2.453768  110.603440  29.901251  2.570583
  5585.070  5585.080  0.500  2.455624  110.601932  29.971315  2.571829
  5587.236  5587.220  0.500  2.456716  110.631390  30.042666  2.575135
  5589.402  5589.390  0.500  2.452998  110.648556  30.116579  2.591089
  5591.588  5591.580  0.500  2.443942  110.650497  30.186776  2.620753
  5593.792  5593.780  0.500  2.433226  110.644388  30.255216  2.654995
  5595.995  5596.000  0.500  2.424446  110.672771  30.334554  2.685433
  5598.259  5598.250  0.500  2.420374  110.681039  30.412428  2.703310
  5600.522  5600.510  0.500  2.420790  110.689386  30.478363  2.708046
  5602.800  5602.790  0.500  2.422827  110.684242  30.561712  2.709925
  5605.100  5605.090  0.500  2.425177  110.715150  30.636047  2.710139
  5607.412  5607.410  0.500  2.430475  110.726319  30.718204  2.703049
  5609.745  5609.750  0.500  2.438226  110.735908  30.796100  2.688980
  5612.112  5612.100  0.500  2.444209  110.719211  30.873008  2.679615
  5614.490  5614.480  0.500  2.446685  110.762896  30.961012  2.680609
  5616.876  5616.870  0.500  2.450588  110.766862  31.032284  2.676313
  5619.305  5619.290  0.500  2.458760  110.805714  31.124062  2.662381
  5621.737  5621.720  0.500  2.472083  110.806167  31.186579  2.632424
  5624.189  5624.170  0.500  2.483604  110.786771  31.251646  2.607699
  5626.669  5626.650  0.500  2.485950  110.765288  31.329986  2.608108
  5629.160  5629.140  0.500  2.476393  110.776065  31.428687  2.641451
  5631.662  5631.650  0.500  2.459906  110.794617  31.502513  2.691669
  5634.179  5634.170  0.500  2.441147  110.825595  31.605202  2.751577
  5636.720  5636.720  0.500  2.423462  110.807466  31.677867  2.807112
  5639.298  5639.290  0.500  2.408374  110.791798  31.767106  2.857815
  5641.865  5641.870  0.500  2.396849  110.816556  31.862963  2.899665
  5644.489  5644.480  0.500  2.388909  110.807840  31.934410  2.929333
  5647.104  5647.100  0.500  2.383160  110.802824  32.008071  2.953020
  5649.749  5649.750  0.500  2.377189  110.757407  32.070885  2.976533
  5652.408  5652.410  0.500  2.370600  110.739023  32.148739  3.003485
  5655.090  5655.090  0.500  2.363837  110.693151  32.218365  3.030416
  5657.792  5657.790  0.500  2.357932  110.680747  32.306214  3.056675
  5660.513  5660.510  0.500  2.352801  110.609581  32.391477  3.080509
  5663.256  5663.250  0.500  2.345654  110.580627  32.485740  3.111633
  5666.007  5666.000  0.500  2.336243  110.558481  32.565428  3.148758
  5668.783  5668.780  0.500  2.327351  110.523042  32.644906  3.184636
  5671.575  5671.570  0.500  2.322525  110.462329  32.717039  3.207113
  5674.396  5674.390  0.500  2.322912  110.405836  32.798182  3.213823
  5677.228  5677.220  0.500  2.327135  110.338112  32.864569  3.206756
  5680.083  5680.070  0.500  2.332940  110.276698  32.941455  3.195654
  5682.959  5682.950  0.500  2.339640  110.224542  33.016069  3.181505
  5685.849  5685.840  0.500  2.346536  110.109703  33.061840  3.164021
  5688.759  5688.750  0.500  2.353956  110.013664  33.129339  3.147044
  5691.681  5691.670  0.500  2.360233  109.922464  33.220211  3.135930
  5694.643  5694.620  0.500  2.364598  109.825670  33.285249  3.128384
  5697.600  5697.590  0.500  2.364561  109.692881  33.338479  3.133502
  5700.579  5700.570  0.500  2.358254  109.625663  33.405360  3.159653
  5703.601  5703.580  0.500  2.345914  109.504037  33.466121  3.204705
  5706.606  5706.600  0.500  2.329561  109.364634  33.526663  3.263435
  5709.661  5709.650  0.500  2.313044  109.206602  33.589843  3.324035
  5712.721  5712.710  0.500  2.301207  109.079013  33.649763  3.369616
  5715.799  5715.790  0.500  2.293657  108.945766  33.708807  3.401111
  5718.899  5718.890  0.500  2.289242  108.775768  33.761595  3.421508
  5722.029  5722.010  0.500  2.284462  108.617213  33.801888  3.442008
