# XDI/1.0 BlueSky/1.10.0 BMM/2023-1.0-py310-tiled
# Beamline.name: BMM (06BM) -- Beamline for Materials Measurement (NIST)
# Beamline.xray_source: NSLS-II three-pole wiggler
# Beamline.collimation: paraboloid mirror, 5 nm Rh on 30 nm Pt
# Beamline.focusing: not in use
# Beamline.harmonic_rejection: flat mirror, Si stripe, pitch = 7.0 mrad relative to beam
# Beamline.software: Bluesky 1.10.0, Ophyd 1.7.0, DataBroker 2.0.0b13, Python 3.10.8, 2023-1.0-py310-tiled
# Detector.I0: 10 cm N2
# Detector.I1: 25 cm N2
# Detector.I2: 25 cm N2
# Element.symbol: Pr
# Element.edge: L1
# Element.reference: Pr
# Element.reference_material: Pr6O11
# Facility.name: NSLS-II
# Facility.energy: 3.0
# Facility.current: 399.8
# Facility.mode: top-off
# Facility.GUP: 123456
# Facility.SAF: 301027
# Facility.cycle: 2023-2
# Mono.name: Si(111)
# Mono.d_spacing: 3.1351860
# Mono.encoder_resolution: 0.0000050 deg/ct
# Mono.angle_offset: 16.0754326 deg
# Mono.scan_mode: pseudo channel cut
# Mono.scan_type: step
# Mono.direction: forward in energy
# Sample.name: Pr2Ti2O7
# Sample.prep: Powder in PEG pellet
# Sample.x: 123.848 mm
# Sample.y: 114.690 mm
# Sample.SDD_position: 205.000 mm
# Scan.experimenters: Bruce Ravel
# Scan.edge_energy: 6834.8
# Scan.start_time: 2023-05-08T19:49:23
# Scan.end_time: 2023-05-08T19:55:15
# Scan.transient_id: 75554
# Scan.uid: fd81b0f3-44b2-4738-a731-fc349a068e98
# Scan.plot_hint: ln(I0/It)  --  ln($5/$6)
# Column.1: energy eV
# Column.2: requested_energy eV
# Column.3: measurement_time seconds
# Column.4: xmu 
# Column.5: I0 nA
# Column.6: It nA
# Column.7: Ir nA
# ///////////
# sample courtesy Martin Stennett, University of Sheffield
# -----------
# energy  requested_energy  measurement_time  xmu  I0  It  Ir
  6634.807  6634.800  0.500  1.649115  150.891905  29.004436  0.880000
  6644.817  6644.800  0.500  1.639592  151.073737  29.317246  0.904517
  6654.814  6654.800  0.500  1.631111  151.214083  29.594416  0.926830
  6664.803  6664.800  0.500  1.622296  151.358251  29.884910  0.945529
  6674.791  6674.800  0.500  1.613569  151.465336  30.168185  0.962670
  6684.800  6684.800  0.500  1.604123  151.619552  30.485512  0.985668
  6694.808  6694.800  0.500  1.594579  151.736358  30.801557  1.010525
  6704.821  6704.800  0.500  1.585521  151.846796  31.104467  1.032855
  6714.813  6714.800  0.500  1.576437  151.977622  31.415326  1.053118
  6724.814  6724.800  0.500  1.567829  152.093913  31.711165  1.072001
  6734.816  6734.800  0.500  1.558609  152.181874  32.023423  1.096611
  6744.815  6744.800  0.500  1.549873  152.284425  32.326163  1.123713
  6754.816  6754.800  0.500  1.540885  152.402363  32.643277  1.150757
  6764.809  6764.800  0.500  1.532042  152.495121  32.953262  1.174112
  6774.809  6774.800  0.500  1.523366  152.594225  33.262025  1.195788
  6784.810  6784.800  0.500  1.514795  152.715748  33.575063  1.218395
  6794.811  6794.800  0.500  1.506054  142.083721  31.511800  1.156899
  6805.306  6804.800  0.500  1.497976  152.587534  34.115876  1.268614
  6806.781  6806.800  0.500  1.496676  152.620516  34.167626  1.273181
  6808.781  6808.800  0.500  1.495015  152.500592  34.197544  1.277418
  6810.781  6810.800  0.500  1.492571  147.188117  33.087001  1.238111
  6812.788  6812.800  0.500  1.492071  151.477019  34.068165  1.278347
  6814.784  6814.800  0.500  1.490461  152.433596  34.338544  1.290837
  6817.284  6816.800  0.500  1.488446  152.546508  34.433263  1.297348
  6818.894  6818.800  0.500  1.487544  152.545529  34.464136  1.300964
  6820.780  6820.800  0.500  1.485856  152.405924  34.490759  1.303647
  6822.797  6822.800  0.500  1.483783  146.064409  33.124205  1.253681
  6824.797  6824.800  0.500  1.482809  151.391810  34.365796  1.302177
  6825.293  6825.300  0.500  1.482403  151.899850  34.495139  1.307447
  6825.795  6825.800  0.500  1.482363  152.097891  34.541498  1.309064
  6826.295  6826.300  0.500  1.482076  152.201319  34.574897  1.310825
  6826.793  6826.800  0.500  1.481251  152.266304  34.618217  1.312186
  6827.289  6827.300  0.500  1.481032  152.299304  34.633306  1.312542
  6827.785  6827.800  0.500  1.480796  152.316418  34.645369  1.312690
  6828.289  6828.300  0.500  1.480377  152.332734  34.663596  1.312937
  6828.787  6828.800  0.500  1.480084  152.345783  34.676743  1.312544
  6829.290  6829.300  0.500  1.479522  152.353982  34.698082  1.312296
  6829.788  6829.800  0.500  1.479293  152.356928  34.706711  1.311233
  6830.289  6830.300  0.500  1.479273  152.355695  34.707118  1.309739
  6830.788  6830.800  0.500  1.478728  152.360795  34.727189  1.309197
  6831.288  6831.300  0.500  1.478674  152.359221  34.728724  1.308140
  6831.787  6831.800  0.500  1.478529  152.356829  34.733218  1.307396
  6832.290  6832.300  0.500  1.478387  152.357849  34.738386  1.306899
  6832.789  6832.800  0.500  1.478221  152.345923  34.741407  1.306305
  6833.296  6833.300  0.500  1.478560  152.344815  34.729412  1.305577
  6833.789  6833.800  0.500  1.478569  152.334645  34.726749  1.304789
  6834.290  6834.300  0.500  1.478659  152.335848  34.723904  1.303911
  6834.785  6834.800  0.500  1.478970  152.335274  34.712992  1.301552
  6835.295  6835.300  0.500  1.479007  152.328958  34.710266  1.299750
  6835.794  6835.800  0.500  1.479566  152.326021  34.690199  1.296019
  6836.292  6836.300  0.500  1.480041  152.330160  34.674652  1.291282
  6836.795  6836.800  0.500  1.480815  152.325784  34.646842  1.286266
  6837.295  6837.300  0.500  1.481438  152.318107  34.623528  1.281310
  6837.791  6837.800  0.500  1.482212  152.265369  34.584753  1.274961
  6838.290  6838.300  0.500  1.482604  152.114952  34.537031  1.268330
  6838.790  6838.800  0.500  1.483090  151.861682  34.462774  1.260929
  6839.300  6839.300  0.500  1.483495  151.568944  34.382425  1.253428
  6839.792  6839.800  0.500  1.483595  149.535036  33.917660  1.232609
  6840.298  6840.300  0.500  1.484178  143.256908  32.474723  1.175932
  6840.796  6840.800  0.500  1.485122  140.820466  31.892284  1.150784
  6841.297  6841.300  0.500  1.486814  144.662698  32.707043  1.176668
  6841.797  6841.800  0.500  1.487300  149.474955  33.778662  1.210635
  6842.293  6842.300  0.500  1.488761  150.644591  33.993265  1.213480
  6842.794  6842.800  0.500  1.489720  151.091491  34.061432  1.210593
  6843.300  6843.300  0.500  1.491372  151.316488  34.055831  1.204615
  6843.799  6843.800  0.500  1.492922  151.461039  34.035575  1.197672
  6844.302  6844.300  0.500  1.494588  152.103579  34.123071  1.193357
  6844.799  6844.800  0.500  1.496534  152.211563  34.080894  1.184095
  6845.300  6845.300  0.500  1.498421  152.245227  34.024192  1.172974
  6845.797  6845.800  0.500  1.500324  152.286277  33.968646  1.161737
  6846.294  6846.300  0.500  1.501945  152.312573  33.919500  1.149777
  6846.799  6846.800  0.500  1.503631  152.337215  33.867824  1.137485
  6847.300  6847.300  0.500  1.505104  152.356617  33.822284  1.126091
  6847.799  6847.800  0.500  1.506304  152.378933  33.786678  1.115051
  6848.300  6848.300  0.500  1.506945  152.392449  33.768007  1.105315
  6848.802  6848.800  0.500  1.507509  152.398882  33.750400  1.095513
  6849.301  6849.300  0.500  1.508000  152.400910  33.734269  1.087641
  6849.795  6849.800  0.500  1.508099  152.411138  33.733202  1.081781
  6850.297  6850.300  0.500  1.507887  152.414741  33.741165  1.076192
  6850.796  6850.800  0.500  1.507601  152.424139  33.752888  1.072284
  6851.302  6851.300  0.500  1.507108  152.426442  33.770048  1.069388
  6851.800  6851.800  0.500  1.506646  152.431133  33.786700  1.066727
  6852.300  6852.300  0.500  1.506416  152.430202  33.794243  1.064471
  6852.800  6852.800  0.500  1.505864  152.432564  33.813431  1.063087
  6853.298  6853.300  0.500  1.505024  152.442281  33.844006  1.061302
  6853.794  6853.800  0.500  1.504294  152.448299  33.870068  1.059790
  6854.299  6854.300  0.500  1.503507  152.445771  33.896183  1.058179
  6854.803  6854.800  0.500  1.502681  152.450513  33.925217  1.057210
  6855.303  6855.300  0.500  1.501922  152.451131  33.951117  1.056146
  6855.804  6855.800  0.500  1.501550  152.453866  33.964376  1.055620
  6856.300  6856.300  0.500  1.500955  152.454333  33.984678  1.054649
  6856.803  6856.800  0.500  1.500310  152.460803  34.008052  1.054612
  6857.298  6857.300  0.500  1.499610  152.467846  34.033444  1.054714
  6857.799  6857.800  0.500  1.499001  152.477798  34.056409  1.054581
  6858.301  6858.300  0.500  1.498450  152.477582  34.075116  1.054439
  6858.800  6858.800  0.500  1.497825  152.462709  34.093093  1.053247
  6859.307  6859.300  0.500  1.496960  152.452895  34.120394  1.052305
  6859.803  6859.800  0.500  1.496373  152.442909  34.138217  1.050909
  6860.799  6860.790  0.500  1.495006  152.271698  34.146513  1.046715
  6861.794  6861.790  0.500  1.493733  152.098434  34.151105  1.042670
  6862.821  6862.810  0.500  1.492014  152.435475  34.285650  1.044796
  6863.874  6863.860  0.500  1.490478  152.519475  34.357280  1.047975
  6864.933  6864.920  0.500  1.488535  152.546113  34.430127  1.054323
  6866.007  6866.000  0.500  1.486942  152.558909  34.487917  1.062617
  6867.113  6867.100  0.500  1.485034  152.571808  34.556684  1.071960
  6868.233  6868.220  0.500  1.483142  152.590583  34.626404  1.082409
  6869.364  6869.360  0.500  1.480981  152.591810  34.701587  1.092018
  6870.519  6870.510  0.500  1.479087  152.604053  34.770174  1.101409
  6871.698  6871.690  0.500  1.477229  152.616620  34.837703  1.111515
  6872.888  6872.880  0.500  1.475640  152.624391  34.894871  1.120737
  6874.104  6874.100  0.500  1.474489  152.633805  34.937205  1.128517
  6875.343  6875.330  0.500  1.473113  152.647720  34.988511  1.135474
  6876.586  6876.580  0.500  1.472303  152.655120  35.018550  1.141563
  6877.860  6877.850  0.500  1.471533  152.657662  35.046120  1.146523
  6879.150  6879.140  0.500  1.470447  152.656321  35.083908  1.152082
  6880.458  6880.450  0.500  1.469327  152.657282  35.123415  1.156650
  6881.789  6881.780  0.500  1.468729  152.654566  35.143800  1.159314
  6883.143  6883.130  0.500  1.468730  152.653994  35.143665  1.161124
  6884.507  6884.500  0.500  1.468169  152.647306  35.161834  1.163648
  6885.886  6885.880  0.500  1.467616  152.653038  35.182616  1.165763
  6887.299  6887.290  0.500  1.467184  152.655521  35.198391  1.166944
  6888.713  6888.710  0.500  1.466682  152.667462  35.218786  1.168237
  6890.160  6890.150  0.500  1.466336  152.670209  35.231633  1.169158
  6891.618  6891.610  0.500  1.466204  152.662307  35.234462  1.170032
  6893.104  6893.090  0.500  1.465305  152.653797  35.264170  1.171269
  6894.601  6894.590  0.500  1.464364  152.654259  35.297496  1.172743
  6896.121  6896.110  0.500  1.463524  152.659839  35.328439  1.173816
  6897.661  6897.650  0.500  1.462364  152.646684  35.366378  1.175566
  6899.221  6899.210  0.500  1.461110  152.638743  35.408916  1.178290
  6900.791  6900.780  0.500  1.459769  152.631810  35.454827  1.181712
  6902.388  6902.380  0.500  1.458524  152.626170  35.497676  1.184530
  6903.998  6903.990  0.500  1.457278  152.616955  35.539783  1.187755
  6905.643  6905.630  0.500  1.455405  152.600823  35.602673  1.190725
  6907.287  6907.280  0.500  1.453057  152.598917  35.685931  1.194986
  6908.966  6908.950  0.500  1.451058  152.577075  35.752208  1.198660
  6910.646  6910.640  0.500  1.449199  152.533317  35.808471  1.201797
  6912.363  6912.350  0.500  1.446954  152.488339  35.878352  1.205610
  6914.081  6914.080  0.500  1.445134  152.455477  35.935979  1.209483
  6915.844  6915.830  0.500  1.443724  152.449181  35.985181  1.213194
  6917.595  6917.590  0.500  1.442126  152.409241  36.033283  1.217208
  6919.388  6919.380  0.500  1.440229  152.352639  36.088311  1.221563
  6921.189  6921.180  0.500  1.438456  152.328013  36.146509  1.226916
  6923.017  6923.010  0.500  1.436852  152.317908  36.202135  1.232600
  6924.856  6924.850  0.500  1.435306  152.302815  36.254562  1.239030
  6926.720  6926.710  0.500  1.434036  152.290538  36.297687  1.244238
  6928.594  6928.590  0.500  1.432710  152.270565  36.341090  1.249990
  6930.497  6930.490  0.500  1.431017  152.251786  36.398187  1.255516
  6932.412  6932.410  0.500  1.429478  152.240114  36.451429  1.261194
  6934.360  6934.350  0.500  1.428002  152.226998  36.502152  1.267869
  6936.317  6936.310  0.500  1.426674  152.232618  36.551996  1.274177
  6938.288  6938.280  0.500  1.425061  152.243488  36.613626  1.281672
  6940.288  6940.280  0.500  1.423458  152.225891  36.668125  1.289252
  6942.300  6942.290  0.500  1.421913  152.218369  36.723012  1.296364
  6944.324  6944.320  0.500  1.420140  152.215286  36.787434  1.303346
  6946.389  6946.380  0.500  1.418581  152.206119  36.842597  1.309317
  6948.460  6948.450  0.500  1.417116  152.188746  36.892392  1.314424
  6950.542  6950.540  0.500  1.415572  152.176371  36.946386  1.319837
  6952.662  6952.650  0.500  1.413820  152.176980  37.011332  1.325039
  6954.786  6954.780  0.500  1.412423  152.166036  37.060423  1.329471
  6956.929  6956.920  0.500  1.410303  152.149945  37.135130  1.334746
  6959.101  6959.090  0.500  1.408419  152.138305  37.202303  1.338930
  6961.284  6961.280  0.500  1.406499  152.143989  37.275191  1.343529
  6963.487  6963.480  0.500  1.404753  152.142132  37.339883  1.348377
  6965.708  6965.700  0.500  1.402990  152.131184  37.403071  1.352822
  6967.957  6967.950  0.500  1.401303  152.127150  37.465236  1.357798
  6970.220  6970.210  0.500  1.399554  152.125363  37.530379  1.362630
  6972.493  6972.490  0.500  1.398006  152.110822  37.584925  1.368310
  6974.800  6974.790  0.500  1.396235  152.090123  37.646427  1.374058
  6977.118  6977.110  0.500  1.394716  152.079016  37.700913  1.380392
  6979.457  6979.450  0.500  1.393253  152.053742  37.749844  1.386261
  6981.818  6981.800  0.500  1.392019  152.034499  37.791669  1.392448
  6984.192  6984.180  0.500  1.390170  152.004055  37.854035  1.398751
  6986.582  6986.570  0.500  1.388373  151.988304  37.918160  1.405237
  6989.002  6988.990  0.500  1.386184  151.967233  37.996005  1.411884
  6991.433  6991.420  0.500  1.384412  151.936995  38.055833  1.417682
  6993.877  6993.870  0.500  1.382389  151.900156  38.123643  1.423543
  6996.361  6996.350  0.500  1.380378  151.877424  38.194671  1.428834
  6998.859  6998.840  0.500  1.378172  151.857013  38.273876  1.435311
  7001.359  7001.350  0.500  1.375806  151.843122  38.361017  1.441427
  7003.886  7003.870  0.500  1.373701  151.828911  38.438262  1.448166
  7006.435  7006.420  0.500  1.371629  151.814490  38.514340  1.454552
  7009.003  7008.990  0.500  1.369220  151.788869  38.600697  1.462058
  7011.587  7011.570  0.500  1.367491  151.764628  38.661311  1.468702
  7014.205  7014.180  0.500  1.365351  151.742952  38.738605  1.475788
  7016.814  7016.800  0.500  1.363107  151.729752  38.822286  1.484757
  7019.463  7019.450  0.500  1.361090  151.727068  38.899957  1.493665
  7022.122  7022.110  0.500  1.358990  151.713594  38.978295  1.502587
  7024.805  7024.790  0.500  1.357020  151.684640  39.047700  1.511508
  7027.504  7027.490  0.500  1.354947  151.673573  39.125854  1.520098
  7030.222  7030.210  0.500  1.353236  151.655644  39.188247  1.528117
  7032.965  7032.950  0.500  1.351188  151.616946  39.258556  1.535578
  7035.719  7035.700  0.500  1.349135  151.578681  39.329296  1.543223
  7038.496  7038.480  0.500  1.347109  151.567651  39.406177  1.550353
  7041.282  7041.270  0.500  1.345159  151.545283  39.477292  1.557916
  7044.099  7044.090  0.500  1.343257  151.522559  39.546518  1.565060
  7046.934  7046.920  0.500  1.341235  151.490253  39.618114  1.571517
  7049.783  7049.770  0.500  1.338770  151.451939  39.705831  1.579197
  7052.662  7052.650  0.500  1.336578  151.441349  39.790202  1.586843
  7055.551  7055.540  0.500  1.334337  151.429054  39.876211  1.595269
  7058.462  7058.450  0.500  1.332147  151.404327  39.957102  1.603909
  7061.385  7061.370  0.500  1.329707  151.416508  40.057967  1.613125
  7064.335  7064.320  0.500  1.327535  151.223854  40.093993  1.619941
  7067.303  7067.290  0.500  1.325156  151.279820  40.204344  1.630810
  7070.282  7070.270  0.500  1.322912  149.922383  39.933107  1.625991
  7073.291  7073.280  0.500  1.320307  151.193759  40.376792  1.650658
  7076.312  7076.300  0.500  1.318233  150.925277  40.388772  1.656720
  7079.362  7079.350  0.500  1.316251  151.125943  40.522708  1.668687
  7082.426  7082.410  0.500  1.313901  150.919381  40.562523  1.676026
  7085.504  7085.490  0.500  1.311374  150.978715  40.681159  1.686543
  7088.601  7088.590  0.500  1.309135  150.985237  40.774106  1.696327
  7091.716  7091.710  0.500  1.306733  150.939431  40.859739  1.704892
  7094.859  7094.850  0.500  1.304458  150.902217  40.942703  1.713053
  7098.014  7098.000  0.500  1.302013  150.874303  41.035370  1.722083
  7101.195  7101.180  0.500  1.299759  150.835893  41.117504  1.730874
  7104.384  7104.370  0.500  1.297199  150.788926  41.210032  1.740539
  7107.603  7107.590  0.500  1.294885  150.738755  41.291778  1.750049
  7110.834  7110.820  0.500  1.292349  150.618722  41.363646  1.759218
  7114.081  7114.070  0.500  1.290178  150.398113  41.392829  1.766511
  7117.359  7117.350  0.500  1.287820  150.308787  41.465934  1.776366
  7120.651  7120.640  0.500  1.285318  150.157273  41.527887  1.787003
  7123.957  7123.950  0.500  1.282943  150.012454  41.586489  1.796807
  7127.281  7127.270  0.500  1.280714  149.811064  41.623338  1.805991
  7130.634  7130.620  0.500  1.278440  149.563499  41.649142  1.814320
  7134.006  7133.990  0.500  1.275853  149.429844  41.719744  1.824265
  7137.380  7137.370  0.500  1.273394  149.384323  41.809708  1.835867
  7140.785  7140.780  0.500  1.270795  149.381416  41.917691  1.846465
  7144.209  7144.200  0.500  1.268441  149.382864  42.016889  1.857188
  7147.659  7147.650  0.500  1.266143  149.385364  42.114272  1.868182
  7151.115  7151.110  0.500  1.263503  149.339896  42.212738  1.878098
  7154.598  7154.590  0.500  1.260847  149.289789  42.310791  1.888689
  7158.100  7158.090  0.500  1.258265  149.251914  42.409435  1.899855
  7161.622  7161.610  0.500  1.255895  149.173902  42.487840  1.909054
  7165.157  7165.150  0.500  1.253325  149.062398  42.565325  1.919549
  7168.713  7168.700  0.500  1.250787  148.947777  42.640669  1.930334
  7172.288  7172.280  0.500  1.248227  148.851145  42.722231  1.941127
  7175.893  7175.880  0.500  1.245820  148.757880  42.798382  1.953144
  7179.500  7179.490  0.500  1.243371  148.708833  42.889173  1.965773
  7183.132  7183.120  0.500  1.240824  148.607608  42.969290  1.978217
  7186.792  7186.780  0.500  1.238177  148.533450  43.061660  1.990890
  7190.461  7190.450  0.500  1.235643  148.489598  43.158161  2.003280
  7194.150  7194.140  0.500  1.233181  148.173392  43.172428  2.012226
  7197.860  7197.850  0.500  1.230556  148.173681  43.286015  2.026156
  7201.588  7201.580  0.500  1.227958  148.085367  43.372735  2.037712
  7205.330  7205.320  0.500  1.225161  147.976255  43.462172  2.049696
  7209.104  7209.090  0.500  1.222333  147.888025  43.559262  2.062285
  7212.889  7212.880  0.500  1.219550  148.320545  43.808407  2.082012
  7216.689  7216.680  0.500  1.216854  148.205162  43.892515  2.093806
  7220.524  7220.510  0.500  1.214208  148.080754  43.971868  2.106398
  7224.359  7224.350  0.500  1.211455  147.956112  44.055948  2.117015
  7228.218  7228.210  0.500  1.208917  145.544986  43.448163  2.095803
  7232.089  7232.090  0.500  1.206201  147.893564  44.269323  2.144079
  7235.990  7235.990  0.500  1.203539  147.784862  44.354691  2.156857
  7239.909  7239.910  0.500  1.200750  147.681068  44.447347  2.170209
  7243.850  7243.850  0.500  1.197953  147.473442  44.509166  2.183284
  7247.809  7247.810  0.500  1.195244  147.408495  44.610256  2.197372
  7251.779  7251.780  0.500  1.192473  147.269918  44.691965  2.211120
  7255.783  7255.780  0.500  1.189683  147.379292  44.850109  2.229191
