# XDI/1.0 BlueSky/1.10.0 BMM/2023-1.0-py310-tiled
# Beamline.name: BMM (06BM) -- Beamline for Materials Measurement (NIST)
# Beamline.xray_source: NSLS-II three-pole wiggler
# Beamline.collimation: paraboloid mirror, 5 nm Rh on 30 nm Pt
# Beamline.focusing: not in use
# Beamline.harmonic_rejection: flat mirror, Si stripe, pitch = 7.0 mrad relative to beam
# Beamline.software: Bluesky 1.10.0, Ophyd 1.7.0, DataBroker 2.0.0b13, Python 3.10.8, 2023-1.0-py310-tiled
# Detector.I0: 10 cm N2
# Detector.I1: 25 cm N2
# Detector.I2: 25 cm N2
# Element.symbol: Pr
# Element.edge: L1
# Element.reference: Pr
# Element.reference_material: Pr6O11
# Facility.name: NSLS-II
# Facility.energy: 3.0
# Facility.current: 399.3
# Facility.mode: top-off
# Facility.GUP: 301027
# Facility.SAF: 310583
# Facility.cycle: 2023-2
# Mono.name: Si(111)
# Mono.d_spacing: 3.1351860
# Mono.encoder_resolution: 0.0000050 deg/ct
# Mono.angle_offset: 16.0754326 deg
# Mono.scan_mode: pseudo channel cut
# Mono.scan_type: step
# Mono.direction: forward in energy
# Sample.name: Pr6O11
# Sample.prep: PEG pellet
# Sample.x: 109.138 mm
# Sample.y: 153.150 mm
# Sample.SDD_position: 205.000 mm
# Scan.experimenters: Bruce Ravel
# Scan.edge_energy: 6834.8
# Scan.start_time: 2023-05-28T12:57:03
# Scan.end_time: 2023-05-28T13:04:56
# Scan.transient_id: 78700
# Scan.uid: 9b1d83a5-1b2c-460e-ab96-64fd5aa97cf1
# Scan.plot_hint: ln(It/Ir)  --  ln($6/$7)
# Column.1: energy eV
# Column.2: requested_energy eV
# Column.3: measurement_time seconds
# Column.4: xmu 
# Column.5: I0 nA
# Column.6: It nA
# Column.7: Ir nA
# ///////////
# sample courtesy Martin Stennett, University of Sheffield
# -----------
# energy  requested_energy  measurement_time  xmu  I0  It  Ir
  6634.801  6634.800  0.500  3.839960  152.209399  127.864743  2.748384
  6644.815  6644.800  0.500  3.821415  152.360122  128.467174  2.813019
  6654.815  6654.800  0.500  3.805423  152.517343  129.063343  2.871631
  6664.851  6664.800  0.500  3.793769  152.697697  129.710634  2.919864
  6674.818  6674.800  0.500  3.783668  153.322649  130.791811  2.974093
  6684.806  6684.800  0.500  3.768819  153.490916  131.377284  3.032097
  6694.806  6694.800  0.500  3.752668  153.661822  132.058050  3.097432
  6704.806  6704.800  0.500  3.738854  153.774320  132.648329  3.154556
  6714.809  6714.800  0.500  3.728098  153.914174  133.250791  3.203151
  6724.810  6724.800  0.500  3.718009  154.054373  133.828398  3.249658
  6734.810  6734.800  0.500  3.703513  154.175955  134.435544  3.312065
  6744.815  6744.800  0.500  3.687676  154.284097  135.016354  3.379474
  6754.810  6754.800  0.500  3.671988  154.394015  135.594203  3.447602
  6764.796  6764.800  0.500  3.659418  154.504539  136.190084  3.506552
  6774.789  6774.800  0.500  3.649495  154.672902  136.825335  3.558042
  6784.794  6784.800  0.500  3.638661  154.841791  137.461500  3.613522
  6794.793  6794.800  0.500  3.625419  145.008117  129.183077  3.441172
  6804.798  6804.800  0.500  3.611713  154.829207  138.398483  3.737525
  6806.797  6806.800  0.500  3.609171  154.868045  138.540792  3.750892
  6808.791  6808.800  0.500  3.606468  154.798044  138.560557  3.761582
  6810.793  6810.800  0.500  3.604014  150.832025  135.108591  3.676882
  6812.794  6812.800  0.500  3.601490  153.381546  137.469704  3.750590
  6814.790  6814.800  0.500  3.598947  154.700520  138.774137  3.795821
  6816.795  6816.800  0.500  3.596935  154.868058  138.968429  3.808790
  6818.794  6818.800  0.500  3.594652  154.899844  139.111438  3.821424
  6820.795  6820.800  0.500  3.592996  154.872700  139.173801  3.829473
  6822.797  6822.800  0.500  3.591467  150.688143  135.498616  3.734052
  6824.795  6824.800  0.500  3.589870  153.328315  138.014342  3.809460
  6825.084  6825.100  0.500  3.589891  153.893381  138.570710  3.824736
  6825.381  6825.400  0.500  3.589602  154.176582  138.818776  3.832693
  6825.682  6825.700  0.500  3.589577  154.344415  138.979468  3.837223
  6825.982  6826.000  0.500  3.589284  154.467575  139.100544  3.841691
  6826.283  6826.300  0.500  3.589237  154.542098  139.150663  3.843257
  6826.582  6826.600  0.500  3.589311  154.601114  139.237532  3.845370
  6826.885  6826.900  0.500  3.589081  154.646873  139.341637  3.849131
  6827.188  6827.200  0.500  3.589332  154.676536  139.367963  3.848895
  6827.486  6827.500  0.500  3.589397  154.701493  139.440810  3.850655
  6827.787  6827.800  0.500  3.589647  154.716422  139.443801  3.849777
  6828.086  6828.100  0.500  3.589673  154.731794  139.470693  3.850417
  6828.388  6828.400  0.500  3.589755  154.739989  139.472498  3.850151
  6828.693  6828.700  0.500  3.590022  154.745244  139.498732  3.849846
  6828.992  6829.000  0.500  3.590399  154.758739  139.496132  3.848326
  6829.292  6829.300  0.500  3.590892  154.766689  139.493284  3.846350
  6829.587  6829.600  0.500  3.591324  154.771127  139.501273  3.844908
  6829.887  6829.900  0.500  3.591974  154.788404  139.520697  3.842943
  6830.184  6830.200  0.500  3.592822  154.789785  139.570771  3.841064
  6830.484  6830.500  0.500  3.593504  154.789789  139.589426  3.838959
  6830.791  6830.800  0.500  3.593986  154.786328  139.616272  3.837849
  6831.095  6831.100  0.500  3.594790  154.800990  139.667724  3.836176
  6831.397  6831.400  0.500  3.595275  154.797146  139.635518  3.833432
  6831.696  6831.700  0.500  3.595755  154.803788  139.644181  3.831830
  6831.996  6832.000  0.500  3.595839  154.798456  139.706399  3.833216
  6832.296  6832.300  0.500  3.596021  154.812695  139.731957  3.833219
  6832.594  6832.600  0.500  3.596569  154.814809  139.733042  3.831147
  6832.897  6832.900  0.500  3.596514  154.807803  139.709688  3.830720
  6833.195  6833.200  0.500  3.596699  154.809729  139.726746  3.830479
  6833.493  6833.500  0.500  3.597099  154.796750  139.753518  3.829678
  6833.791  6833.800  0.500  3.597123  154.807754  139.801779  3.830911
  6834.091  6834.100  0.500  3.597573  154.811001  139.831542  3.830003
  6834.397  6834.400  0.500  3.597986  154.812685  139.871395  3.829513
  6834.693  6834.700  0.500  3.598655  154.821516  139.863275  3.826728
  6834.997  6835.000  0.500  3.599554  154.814520  139.894422  3.824142
  6835.299  6835.300  0.500  3.600247  154.808959  139.892010  3.821426
  6835.601  6835.600  0.500  3.601499  154.819285  139.904094  3.816973
  6835.903  6835.900  0.500  3.602791  154.811822  139.872785  3.811193
  6836.201  6836.200  0.500  3.604437  154.808031  139.861044  3.804606
  6836.501  6836.500  0.500  3.606211  154.810009  139.922734  3.799536
  6836.795  6836.800  0.500  3.608104  154.809417  139.949557  3.793080
  6837.095  6837.100  0.500  3.610104  154.808898  139.904809  3.784292
  6837.397  6837.400  0.500  3.612271  154.786140  139.925727  3.776662
  6837.694  6837.700  0.500  3.614395  154.756159  139.930792  3.768786
  6837.996  6838.000  0.500  3.616757  154.715783  139.908656  3.759299
  6838.302  6838.300  0.500  3.618805  154.607079  139.831760  3.749548
  6838.603  6838.600  0.500  3.621316  154.454102  139.711619  3.736931
  6838.901  6838.900  0.500  3.623508  154.290808  139.594395  3.725618
  6839.199  6839.200  0.500  3.625599  154.133001  139.484997  3.714924
  6839.500  6839.500  0.500  3.627485  153.859395  139.260058  3.701944
  6839.800  6839.800  0.500  3.629455  152.725282  138.168307  3.665693
  6840.099  6840.100  0.500  3.631573  149.281981  135.084255  3.576289
  6840.397  6840.400  0.500  3.633673  145.617633  131.737517  3.480371
  6840.694  6840.700  0.500  3.635654  143.769121  130.087117  3.429967
  6840.994  6841.000  0.500  3.637766  143.001968  129.452531  3.406033
  6841.297  6841.300  0.500  3.639664  145.386849  131.621599  3.456537
  6841.599  6841.600  0.500  3.641748  149.944469  135.734500  3.557124
  6841.902  6841.900  0.500  3.644127  152.056978  137.682219  3.599595
  6842.201  6842.200  0.500  3.646479  152.898701  138.462163  3.611481
  6842.499  6842.500  0.500  3.649097  153.330464  138.844103  3.611976
  6842.802  6842.800  0.500  3.651774  153.600401  139.122338  3.609537
  6843.101  6843.100  0.500  3.654245  153.758159  139.290137  3.604972
  6843.401  6843.400  0.500  3.657086  153.871398  139.386408  3.597229
  6843.696  6843.700  0.500  3.660100  153.961986  139.480129  3.588816
  6843.997  6844.000  0.500  3.663276  154.044871  139.603548  3.580600
  6844.300  6844.300  0.500  3.666955  154.096680  139.665595  3.569037
  6844.601  6844.600  0.500  3.670864  154.144653  139.683770  3.555578
  6844.902  6844.900  0.500  3.675041  154.179731  139.762994  3.542765
  6845.201  6845.200  0.500  3.679568  154.196358  139.782867  3.527263
  6845.502  6845.500  0.500  3.684025  154.228737  139.831316  3.512793
  6845.802  6845.800  0.500  3.689090  154.241874  139.858862  3.495735
  6846.103  6846.100  0.500  3.694387  154.271416  139.906943  3.478464
  6846.403  6846.400  0.500  3.699806  154.294349  139.942690  3.460549
  6846.698  6846.700  0.500  3.705137  154.316260  139.966483  3.442733
  6846.999  6847.000  0.500  3.710635  154.343968  140.007975  3.424874
  6847.298  6847.300  0.500  3.715905  154.337603  139.993402  3.406517
  6847.597  6847.600  0.500  3.721526  154.353626  140.058545  3.388999
  6847.900  6847.900  0.500  3.726796  154.358229  140.057703  3.371164
  6848.201  6848.200  0.500  3.732113  154.362148  140.074935  3.353701
  6848.501  6848.500  0.500  3.737127  154.378977  140.107705  3.337709
  6848.802  6848.800  0.500  3.741782  154.378000  140.124390  3.322604
  6849.103  6849.100  0.500  3.746154  154.380694  140.126284  3.308153
  6849.402  6849.400  0.500  3.750283  154.376412  140.171198  3.295579
  6849.700  6849.700  0.500  3.753895  154.380851  140.182195  3.283955
  6849.997  6850.000  0.500  3.757295  154.378089  140.158213  3.272247
  6850.297  6850.300  0.500  3.760243  154.376182  140.192111  3.263405
  6850.596  6850.600  0.500  3.763029  154.363034  140.201205  3.254535
  6850.899  6850.900  0.500  3.765299  154.370771  140.207509  3.247302
  6851.199  6851.200  0.500  3.767537  154.364553  140.238174  3.240753
  6851.502  6851.500  0.500  3.769349  154.353271  140.242355  3.234980
  6851.804  6851.800  0.500  3.771133  154.356148  140.230354  3.228940
  6852.102  6852.100  0.500  3.772708  154.345837  140.242595  3.224140
  6852.399  6852.400  0.500  3.774151  154.355499  140.276875  3.220275
  6852.701  6852.700  0.500  3.775756  154.332972  140.283171  3.215258
  6852.998  6853.000  0.500  3.777013  154.329907  140.281194  3.211172
  6853.298  6853.300  0.500  3.778406  154.321626  140.284981  3.206788
  6853.598  6853.600  0.500  3.779610  154.324309  140.297518  3.203215
  6853.898  6853.900  0.500  3.781014  154.334094  140.322488  3.199291
  6854.197  6854.200  0.500  3.782291  154.331670  140.340824  3.195626
  6854.497  6854.500  0.500  3.783479  154.323808  140.367446  3.192437
  6854.805  6854.800  0.500  3.784601  154.320655  140.411920  3.189867
  6855.105  6855.100  0.500  3.785610  154.320464  140.354682  3.185351
  6855.403  6855.400  0.500  3.786391  154.334063  140.378950  3.183414
  6855.705  6855.700  0.500  3.787495  154.317555  140.422085  3.180880
  6856.002  6856.000  0.500  3.787813  154.320074  140.441823  3.180314
  6856.300  6856.300  0.500  3.788645  154.300625  140.443695  3.177714
  6856.600  6856.600  0.500  3.789164  154.316140  140.489654  3.177102
  6856.898  6856.900  0.500  3.789208  154.310524  140.454048  3.176158
  6857.198  6857.200  0.500  3.789665  154.311904  140.434527  3.174267
  6857.501  6857.500  0.500  3.790301  154.307884  140.439254  3.172354
  6857.803  6857.800  0.500  3.790820  154.303150  140.439208  3.170706
  6858.103  6858.100  0.500  3.791389  154.288835  140.429041  3.168674
  6858.403  6858.400  0.500  3.791994  154.282646  140.465076  3.167570
  6858.705  6858.700  0.500  3.792624  154.272206  140.507364  3.166529
  6859.003  6859.000  0.500  3.793352  154.256424  140.501137  3.164082
  6859.301  6859.300  0.500  3.794248  154.259814  140.458029  3.160280
  6859.602  6859.600  0.500  3.795191  154.265655  140.458155  3.157304
  6859.799  6859.800  0.500  3.796143  154.245458  140.514078  3.155555
  6860.793  6860.790  0.500  3.800307  154.112847  140.449476  3.141000
  6861.800  6861.790  0.500  3.804496  153.848991  140.251270  3.123454
  6862.823  6862.810  0.500  3.806991  154.194201  140.613064  3.123710
  6863.864  6863.860  0.500  3.805888  154.306338  140.786239  3.131007
  6864.933  6864.920  0.500  3.801991  154.333698  140.872540  3.145160
  6866.013  6866.000  0.500  3.795890  154.369188  140.967668  3.166543
  6867.111  6867.100  0.500  3.788895  154.382959  140.984549  3.189152
  6868.233  6868.220  0.500  3.781357  154.374672  141.083193  3.215533
  6869.374  6869.360  0.500  3.774087  154.615509  141.360807  3.245368
  6870.517  6870.510  0.500  3.767266  154.859925  141.572933  3.272484
  6871.698  6871.690  0.500  3.759971  154.907861  141.647594  3.298180
  6872.888  6872.880  0.500  3.752987  154.937290  141.725114  3.323114
  6874.104  6874.100  0.500  3.746476  154.947925  141.786435  3.346269
  6875.341  6875.330  0.500  3.741599  154.979255  141.862653  3.364435
  6876.586  6876.580  0.500  3.736910  154.989621  141.957301  3.382504
  6877.850  6877.850  0.500  3.732898  155.000045  142.070941  3.398820
  6879.150  6879.140  0.500  3.729480  155.008048  142.137439  3.412054
  6880.458  6880.450  0.500  3.726329  155.015764  142.216790  3.424732
  6881.789  6881.780  0.500  3.723844  155.026079  142.278277  3.434739
  6883.143  6883.130  0.500  3.722087  155.009417  142.317796  3.441735
  6884.505  6884.500  0.500  3.720492  155.028584  142.414631  3.449573
  6885.894  6885.880  0.500  3.719346  155.029757  142.504754  3.455714
  6887.295  6887.290  0.500  3.718511  155.054645  142.589466  3.460658
  6888.719  6888.710  0.500  3.717483  155.067117  142.674682  3.466289
  6890.162  6890.150  0.500  3.716697  155.076332  142.732479  3.470418
  6891.614  6891.610  0.500  3.716084  155.071824  142.807377  3.474367
  6893.104  6893.090  0.500  3.715675  155.074058  142.864256  3.477174
  6894.597  6894.590  0.500  3.715328  155.094806  142.956328  3.480621
  6896.123  6896.110  0.500  3.714980  155.102178  143.028295  3.483587
  6897.653  6897.650  0.500  3.714394  155.109797  143.101987  3.487426
  6899.219  6899.210  0.500  3.712994  155.115707  143.186115  3.494365
  6900.785  6900.780  0.500  3.711280  155.105362  143.278732  3.502621
  6902.390  6902.380  0.500  3.709648  155.121730  143.332698  3.509665
  6904.002  6903.990  0.500  3.708127  155.112593  143.394814  3.516531
  6905.645  6905.630  0.500  3.706625  155.121857  143.524394  3.524998
  6907.297  6907.280  0.500  3.705531  155.120755  143.577865  3.530172
  6908.960  6908.950  0.500  3.704194  155.115843  143.649922  3.536668
  6910.650  6910.640  0.500  3.702775  155.092777  143.707641  3.543113
  6912.359  6912.350  0.500  3.701258  155.040573  143.730810  3.549066
  6914.091  6914.080  0.500  3.699468  155.010655  143.820459  3.557642
  6915.836  6915.830  0.500  3.697649  155.016584  143.901353  3.566124
  6917.603  6917.590  0.500  3.695700  154.990959  143.948076  3.574240
  6919.394  6919.380  0.500  3.693168  154.968868  143.942402  3.583160
  6921.191  6921.180  0.500  3.690296  154.952477  144.021008  3.595428
  6923.027  6923.010  0.500  3.686653  154.949457  144.162703  3.612100
  6924.860  6924.850  0.500  3.683115  154.953100  144.220046  3.626344
  6926.729  6926.710  0.500  3.679396  154.944287  144.272434  3.641177
  6928.598  6928.590  0.500  3.676150  154.958343  144.379807  3.655737
  6930.507  6930.490  0.500  3.672920  154.940571  144.483505  3.670198
  6932.422  6932.410  0.500  3.669426  154.938954  144.588081  3.685709
  6934.368  6934.350  0.500  3.665759  154.931116  144.684519  3.701715
  6936.321  6936.310  0.500  3.661238  154.950400  144.794037  3.721304
  6938.294  6938.280  0.500  3.657045  154.978256  144.892494  3.739482
  6940.293  6940.280  0.500  3.652646  154.978264  144.997314  3.758684
  6942.302  6942.290  0.500  3.648196  154.980879  145.092553  3.777927
  6944.330  6944.320  0.500  3.644254  154.983303  145.182112  3.795191
  6946.395  6946.380  0.500  3.640907  154.983660  145.265910  3.810113
  6948.466  6948.450  0.500  3.637892  154.965409  145.330168  3.823307
  6950.554  6950.540  0.500  3.635107  154.960641  145.448002  3.837080
  6952.658  6952.650  0.500  3.632497  154.983547  145.570401  3.850343
  6954.796  6954.780  0.500  3.630337  154.976453  145.632191  3.860309
  6956.925  6956.920  0.500  3.628112  154.962085  145.732146  3.871562
  6959.105  6959.090  0.500  3.626346  154.956321  145.817287  3.880672
  6961.290  6961.280  0.500  3.624249  154.973738  145.913524  3.891385
  6963.489  6963.480  0.500  3.622405  154.978051  146.005342  3.901020
  6965.714  6965.700  0.500  3.620321  154.986136  146.172519  3.913636
  6967.959  6967.950  0.500  3.618359  154.990156  146.299358  3.924722
  6970.224  6970.210  0.500  3.616070  154.996915  146.399422  3.936410
  6972.503  6972.490  0.500  3.613526  154.991545  146.434555  3.947381
  6974.796  6974.790  0.500  3.610360  154.982198  146.539591  3.962740
  6977.128  6977.110  0.500  3.606785  154.966174  146.684736  3.980870
  6979.467  6979.450  0.500  3.603461  154.953613  146.814853  3.997668
  6981.810  6981.800  0.500  3.600207  154.956354  146.872041  4.012261
  6984.198  6984.180  0.500  3.596836  154.945361  146.946063  4.027838
  6986.586  6986.570  0.500  3.593238  154.949312  147.115534  4.047018
  6989.000  6988.990  0.500  3.590320  154.947119  147.231271  4.062037
  6991.439  6991.420  0.500  3.587716  154.940270  147.343238  4.075727
  6993.888  6993.870  0.500  3.585085  154.918201  147.437927  4.089088
  6996.363  6996.350  0.500  3.582805  154.905753  147.532263  4.101046
  6998.857  6998.840  0.500  3.580368  154.891307  147.592095  4.112721
  7001.373  7001.350  0.500  3.577602  154.901790  147.757758  4.128739
  7003.875  7003.870  0.500  3.575049  154.884840  147.820182  4.141040
  7006.424  7006.420  0.500  3.572292  154.887417  147.939597  4.155829
  7009.009  7008.990  0.500  3.569417  154.867424  148.052621  4.170980
  7011.583  7011.570  0.500  3.566064  154.833544  148.134530  4.187302
  7014.194  7014.180  0.500  3.562076  154.843183  148.203841  4.206003
  7016.812  7016.800  0.500  3.558325  154.831667  148.307149  4.224750
  7019.463  7019.450  0.500  3.553901  154.826779  148.463076  4.247944
  7022.124  7022.110  0.500  3.549744  154.810599  148.582804  4.269082
  7024.805  7024.790  0.500  3.545551  154.803957  148.719187  4.290952
  7027.500  7027.490  0.500  3.541202  154.807970  148.832500  4.312941
  7030.228  7030.210  0.500  3.537165  154.787658  148.928347  4.333174
  7032.963  7032.950  0.500  3.533492  154.771153  149.035877  4.352258
  7035.717  7035.700  0.500  3.530225  154.729123  149.143958  4.369668
  7038.490  7038.480  0.500  3.526976  154.735781  149.296648  4.388376
  7041.284  7041.270  0.500  3.523977  154.702837  149.371214  4.403756
  7044.105  7044.090  0.500  3.520738  154.711186  149.507387  4.422069
  7046.936  7046.920  0.500  3.517717  154.666532  149.585977  4.437782
  7049.785  7049.770  0.500  3.514739  154.638978  149.668856  4.453482
  7052.660  7052.650  0.500  3.511755  154.631771  149.823184  4.471397
  7055.551  7055.540  0.500  3.508693  154.633408  149.954909  4.489053
  7058.464  7058.450  0.500  3.504960  154.612134  150.015287  4.507657
  7061.387  7061.370  0.500  3.501067  154.618494  150.169477  4.529888
  7064.333  7064.320  0.500  3.497170  154.429059  150.122980  4.546170
  7067.301  7067.290  0.500  3.493133  154.523789  150.329084  4.570826
  7070.282  7070.270  0.500  3.488977  153.035987  149.033505  4.550302
  7073.289  7073.280  0.500  3.484806  154.458477  150.573848  4.616549
  7076.314  7076.300  0.500  3.480700  153.937975  150.220438  4.624664
