# XDI/1.0 BlueSky/1.10.0 BMM/2023-1.0-py310-tiled
# Beamline.name: BMM (06BM) -- Beamline for Materials Measurement (NIST)
# Beamline.xray_source: NSLS-II three-pole wiggler
# Beamline.collimation: paraboloid mirror, 5 nm Rh on 30 nm Pt
# Beamline.focusing: not in use
# Beamline.harmonic_rejection: flat mirror, Pt stripe, pitch = 7.0 mrad relative to beam
# Beamline.software: Bluesky 1.10.0, Ophyd 1.7.0, DataBroker 2.0.0b13, Python 3.10.8, 2023-1.0-py310-tiled
# Detector.I0: 10 cm N2
# Detector.I1: 25 cm N2
# Detector.I2: 25 cm N2
# Element.symbol: Cu
# Element.edge: K
# Element.reference: Cu
# Element.reference_material: Cu foil
# Facility.name: NSLS-II
# Facility.energy: 3.0
# Facility.current: 400.8
# Facility.mode: top-off
# Facility.GUP: 123456
# Facility.SAF: 301027
# Facility.cycle: 2023-2
# Mono.name: Si(111)
# Mono.d_spacing: 3.1351860
# Mono.encoder_resolution: 0.0000050 deg/ct
# Mono.angle_offset: 16.0754326 deg
# Mono.scan_mode: pseudo channel cut
# Mono.scan_type: step
# Mono.direction: forward in energy
# Sample.name: CuS
# Sample.prep: powder on tape
# Sample.x: 116.329 mm
# Sample.y: 114.126 mm
# Sample.SDD_position: 205.000 mm
# Scan.experimenters: Bruce Ravel
# Scan.edge_energy: 8978.9
# Scan.start_time: 2023-05-06T13:03:00
# Scan.end_time: 2023-05-06T13:11:03
# Scan.transient_id: 74808
# Scan.uid: d45fcbf6-b359-49b2-98eb-745a7a7f281d
# Scan.plot_hint: ln(I0/It)  --  ln($5/$6)
# Column.1: energy eV
# Column.2: requested_energy eV
# Column.3: measurement_time seconds
# Column.4: xmu 
# Column.5: I0 nA
# Column.6: It nA
# Column.7: Ir nA
# ///////////
# Welcome to BMM
# -----------
# energy  requested_energy  measurement_time  xmu  I0  It  Ir
  8778.910  8778.900  0.500  0.514488  122.983998  73.520652  38.116608
  8788.916  8788.900  0.500  0.510729  122.762938  73.664873  38.270654
  8798.923  8798.900  0.500  0.506861  122.554070  73.824540  38.437427
  8808.994  8808.900  0.500  0.503238  122.357345  73.973583  38.599775
  8819.017  8818.900  0.500  0.499466  122.157676  74.131937  38.765584
  8828.967  8828.900  0.500  0.495805  121.943048  74.273102  38.920636
  8839.054  8838.900  0.500  0.491824  121.750724  74.451771  39.097804
  8849.024  8848.900  0.500  0.488258  121.560338  74.600881  39.259139
  8858.929  8858.900  0.500  0.484529  121.350861  74.750606  39.419261
  8868.924  8868.900  0.500  0.480871  121.144245  74.896753  39.577105
  8878.929  8878.900  0.500  0.477339  120.944695  75.037949  39.733572
  8888.943  8888.900  0.500  0.473946  120.742185  75.166930  39.879757
  8898.950  8898.900  0.500  0.470414  120.512945  75.289697  40.019410
  8908.909  8908.900  0.500  0.466923  120.158037  75.330519  40.115229
  8918.911  8918.900  0.500  0.463753  120.189216  75.589299  40.318935
  8928.908  8928.900  0.500  0.460462  119.896094  75.653471  40.412285
  8938.908  8938.900  0.500  0.457496  119.770534  75.798757  40.539056
  8948.917  8948.900  0.500  0.454979  119.559209  75.855718  40.587795
  8950.899  8950.900  0.500  0.454676  119.447197  75.807573  40.561287
  8952.893  8952.900  0.500  0.454260  119.383814  75.798875  40.553259
  8954.888  8954.900  0.500  0.453908  119.414071  75.844825  40.569229
  8956.890  8956.900  0.500  0.453686  119.360335  75.827479  40.548965
  8958.887  8958.900  0.500  0.453517  119.322456  75.816271  40.528790
  8960.891  8960.900  0.500  0.453530  119.286317  75.792275  40.492213
  8962.889  8962.900  0.500  0.453628  119.240234  75.755587  40.440516
  8964.892  8964.900  0.500  0.453855  118.924364  75.537749  40.280479
  8966.882  8966.900  0.500  0.454490  119.133649  75.622629  40.266258
  8968.897  8968.900  0.500  0.455206  119.097379  75.545538  40.141802
  8969.174  8969.200  0.500  0.455336  119.089857  75.530903  40.115674
  8969.472  8969.500  0.500  0.455567  119.073446  75.503075  40.082801
  8969.769  8969.800  0.500  0.455835  119.063466  75.476561  40.052744
  8970.067  8970.100  0.500  0.456051  119.059654  75.457805  40.029541
  8970.372  8970.400  0.500  0.456096  119.043867  75.444396  40.001895
  8970.674  8970.700  0.500  0.456558  119.032754  75.402498  39.956480
  8970.968  8971.000  0.500  0.456573  119.028299  75.398602  39.933092
  8971.273  8971.300  0.500  0.456783  119.013069  75.373070  39.895402
  8971.567  8971.600  0.500  0.457107  119.010002  75.346729  39.858080
  8971.872  8971.900  0.500  0.457541  119.002743  75.309443  39.814147
  8972.177  8972.200  0.500  0.457758  118.994843  75.288077  39.766407
  8972.475  8972.500  0.500  0.458166  118.982403  75.249524  39.719407
  8972.777  8972.800  0.500  0.458620  118.979758  75.213692  39.670538
  8973.071  8973.100  0.500  0.459065  118.964805  75.170782  39.610617
  8973.380  8973.400  0.500  0.459420  118.961188  75.141785  39.554295
  8973.675  8973.700  0.500  0.459912  118.955300  75.101171  39.495989
  8973.990  8974.000  0.500  0.460424  118.940032  75.053103  39.424496
  8974.281  8974.300  0.500  0.460972  118.933053  75.007546  39.350936
  8974.593  8974.600  0.500  0.461630  118.925464  74.953395  39.266760
  8974.888  8974.900  0.500  0.462313  118.917478  74.897246  39.178901
  8975.190  8975.200  0.500  0.463110  118.903577  74.828780  39.075409
  8975.492  8975.500  0.500  0.463869  118.899810  74.769641  38.970524
  8975.790  8975.800  0.500  0.464740  118.891313  74.699210  38.853732
  8976.098  8976.100  0.500  0.465840  118.876758  74.607937  38.714896
  8976.390  8976.400  0.500  0.466967  118.876696  74.523894  38.568073
  8976.692  8976.700  0.500  0.468214  118.864276  74.423265  38.399769
  8976.990  8977.000  0.500  0.469688  118.852816  74.306480  38.211094
  8977.278  8977.300  0.500  0.471193  118.839301  74.186306  38.005048
  8977.587  8977.600  0.500  0.473118  118.831611  74.038836  37.745639
  8977.885  8977.900  0.500  0.475407  118.824338  73.864990  37.443216
  8978.187  8978.200  0.500  0.478235  118.814036  73.650059  37.071436
  8978.489  8978.500  0.500  0.481998  118.804368  73.367469  36.597349
  8978.791  8978.800  0.500  0.486623  118.800675  73.026607  36.013929
  8979.096  8979.100  0.500  0.492824  118.774851  72.559424  35.216942
  8979.398  8979.400  0.500  0.500542  118.772185  71.999922  34.217172
  8979.693  8979.700  0.500  0.509395  118.773491  71.366087  32.963435
  8979.995  8980.000  0.500  0.518928  118.755407  70.678288  31.347079
  8980.301  8980.300  0.500  0.527741  118.738351  70.048065  29.427021
  8980.603  8980.600  0.500  0.534859  118.728824  69.545598  27.262001
  8980.898  8980.900  0.500  0.540853  118.688614  69.106602  25.090194
  8981.204  8981.200  0.500  0.547452  118.588855  68.594362  22.989251
  8981.495  8981.500  0.500  0.556448  118.479565  67.917439  21.220182
  8981.791  8981.800  0.500  0.569682  118.413263  66.986982  19.775640
  8982.086  8982.100  0.500  0.587751  118.385797  65.772227  18.631007
  8982.385  8982.400  0.500  0.609603  118.401026  64.358878  17.745505
  8982.697  8982.700  0.500  0.634755  118.481881  62.803163  17.053620
  8982.999  8983.000  0.500  0.660829  118.567299  61.230873  16.532876
  8983.309  8983.300  0.500  0.688875  118.594849  59.551319  16.106527
  8983.607  8983.600  0.500  0.717238  118.602924  57.889890  15.763076
  8983.910  8983.900  0.500  0.745485  118.597072  56.274821  15.473541
  8984.202  8984.200  0.500  0.771969  118.593892  54.802504  15.221892
  8984.504  8984.500  0.500  0.796078  118.585433  53.493265  14.981124
  8984.792  8984.800  0.500  0.816496  118.584686  52.411782  14.742465
  8985.091  8985.100  0.500  0.834890  118.569909  51.450128  14.462308
  8985.390  8985.400  0.500  0.852531  118.568930  50.550049  14.109888
  8985.686  8985.700  0.500  0.870106  118.555179  49.663597  13.692800
  8985.995  8986.000  0.500  0.888348  118.546951  48.762469  13.221091
  8986.294  8986.300  0.500  0.906443  118.538009  47.884457  12.745098
  8986.607  8986.600  0.500  0.924522  118.529761  47.023256  12.283120
  8986.902  8986.900  0.500  0.941447  118.526281  46.232731  11.870081
  8987.205  8987.200  0.500  0.956940  118.515060  45.517657  11.493886
  8987.504  8987.500  0.500  0.968828  118.507235  44.976755  11.182696
  8987.807  8987.800  0.500  0.977097  118.493324  44.601146  10.917698
  8988.099  8988.100  0.500  0.981315  118.483004  44.409548  10.693729
  8988.394  8988.400  0.500  0.982247  118.472796  44.364368  10.495361
  8988.694  8988.700  0.500  0.981122  118.467237  44.412192  10.299217
  8988.996  8989.000  0.500  0.979997  118.458077  44.458778  10.087487
  8989.299  8989.300  0.500  0.980087  118.449142  44.451429  9.836620
  8989.598  8989.600  0.500  0.982590  118.441663  44.337501  9.552960
  8989.901  8989.900  0.500  0.987332  118.424216  44.121222  9.234398
  8990.210  8990.200  0.500  0.993725  118.414227  43.836374  8.894139
  8990.499  8990.500  0.500  1.001006  118.404189  43.514671  8.548908
  8990.799  8990.800  0.500  1.008257  118.399738  43.198670  8.198615
  8991.105  8991.100  0.500  1.015085  118.381105  42.897958  7.852345
  8991.408  8991.400  0.500  1.021210  118.362085  42.629164  7.507860
  8991.703  8991.700  0.500  1.026360  118.333786  42.400053  7.183712
  8992.003  8992.000  0.500  1.030671  118.299195  42.205319  6.878695
  8992.299  8992.300  0.500  1.034286  118.250895  42.035827  6.589116
  8992.588  8992.600  0.500  1.037306  118.172974  41.881456  6.325207
  8992.898  8992.900  0.500  1.040414  117.962522  41.677168  6.057311
  8993.190  8993.200  0.500  1.043322  117.359983  41.343851  5.809448
  8993.503  8993.500  0.500  1.046902  116.405758  40.861177  5.555830
  8993.803  8993.800  0.500  1.051561  115.935239  40.506846  5.351905
  8994.106  8994.100  0.500  1.056908  116.193263  40.380513  5.200849
  8994.399  8994.400  0.500  1.063107  116.803552  40.341733  5.089218
  8994.698  8994.700  0.500  1.069752  117.456098  40.298423  5.004117
  8995.012  8995.000  0.500  1.077128  117.993754  40.185381  4.936553
  8995.311  8995.300  0.500  1.084505  118.259162  39.979786  4.889538
  8995.604  8995.600  0.500  1.091886  118.321890  39.706820  4.859259
  8995.903  8995.900  0.500  1.098739  118.329386  39.438140  4.853910
  8996.196  8996.200  0.500  1.104908  118.326116  39.194502  4.868635
  8996.492  8996.500  0.500  1.109937  118.314632  38.994111  4.899509
  8996.792  8996.800  0.500  1.113837  118.302033  38.838178  4.948442
  8997.099  8997.100  0.500  1.116415  118.667191  38.857764  5.022969
  8997.398  8997.400  0.500  1.117964  118.640467  38.788896  5.089707
  8997.698  8997.700  0.500  1.118405  118.628557  38.767901  5.159718
  8998.002  8998.000  0.500  1.118508  118.619604  38.760956  5.230567
  8998.305  8998.300  0.500  1.117979  118.593550  38.772951  5.299780
  8998.598  8998.600  0.500  1.117229  118.582894  38.798569  5.368645
  8998.904  8998.900  0.500  1.116384  118.562735  38.824780  5.429370
  8999.208  8999.200  0.500  1.115809  118.545407  38.841411  5.480333
  8999.501  8999.500  0.500  1.115350  118.524079  38.852239  5.516938
  8999.804  8999.800  0.500  1.115090  118.508212  38.857141  5.541681
  9000.097  9000.100  0.500  1.115207  118.490900  38.846940  5.549400
  9000.397  9000.400  0.500  1.115202  118.458567  38.836534  5.541626
  9000.697  9000.700  0.500  1.115305  118.422112  38.820565  5.517699
  9000.986  9001.000  0.500  1.115304  118.393927  38.811383  5.480390
  9001.297  9001.300  0.500  1.114996  118.341138  38.806035  5.425579
  9001.597  9001.600  0.500  1.114520  118.251647  38.795158  5.356087
  9001.908  9001.900  0.500  1.113656  118.093216  38.776636  5.273217
  9002.204  9002.200  0.500  1.112730  117.704487  38.684808  5.172646
  9002.501  9002.500  0.500  1.111595  116.956354  38.482595  5.050885
  9002.804  9002.800  0.500  1.110224  116.233569  38.297252  4.930544
  9003.104  9003.100  0.500  1.108994  116.065259  38.288837  4.836508
  9003.412  9003.400  0.500  1.107538  116.547534  38.503961  4.777089
  9003.705  9003.700  0.500  1.106138  117.260223  38.793681  4.743908
  9003.890  9003.900  0.500  1.105275  117.678193  38.965578  4.731186
  9004.895  9004.890  0.500  1.100542  118.457312  39.409641  4.735418
  9005.904  9005.890  0.500  1.096389  118.435118  39.566237  4.903614
  9006.921  9006.910  0.500  1.093656  118.386177  39.658111  5.161688
  9007.969  9007.960  0.500  1.092771  118.316912  39.670011  5.393063
  9009.034  9009.020  0.500  1.092738  118.172834  39.623001  5.557022
  9010.125  9010.100  0.500  1.092229  116.748089  39.165221  5.653871
  9011.219  9011.200  0.500  1.091570  116.867929  39.231269  5.831058
  9012.338  9012.320  0.500  1.089478  118.317374  39.801038  6.021499
  9013.482  9013.460  0.500  1.086466  118.304973  39.916897  6.058082
  9014.629  9014.610  0.500  1.081733  118.263222  40.092105  6.048053
  9015.802  9015.790  0.500  1.074861  118.219722  40.353734  6.027807
  9016.996  9016.980  0.500  1.066576  118.165201  40.670704  5.979311
  9018.218  9018.200  0.500  1.058759  118.084462  40.961853  5.883709
  9019.454  9019.430  0.500  1.052574  117.743244  41.096872  5.738877
  9020.701  9020.680  0.500  1.047427  116.006354  40.699604  5.512955
  9021.980  9021.950  0.500  1.042372  118.067309  41.632558  5.479239
  9023.260  9023.240  0.500  1.038603  118.080579  41.794472  5.353675
  9024.561  9024.550  0.500  1.036627  118.050686  41.866530  5.219409
  9025.904  9025.880  0.500  1.036778  118.021836  41.849995  5.107861
  9027.245  9027.230  0.500  1.038637  117.986217  41.759649  5.055430
  9028.624  9028.600  0.500  1.041923  117.960336  41.613513  5.097603
  9029.990  9029.980  0.500  1.045505  117.923019  41.451623  5.216624
  9031.405  9031.390  0.500  1.049602  117.882323  41.267893  5.378486
  9032.831  9032.810  0.500  1.053044  117.849421  41.114631  5.548096
  9034.272  9034.250  0.500  1.055641  117.806684  40.993109  5.697657
  9035.745  9035.710  0.500  1.057504  117.752357  40.897922  5.797798
  9037.173  9037.190  0.500  1.058987  117.722180  40.826869  5.845579
  9038.819  9038.690  0.500  1.060554  117.668919  40.744518  5.847368
  9040.265  9040.210  0.500  1.062903  117.360470  40.542367  5.788148
  9041.783  9041.750  0.500  1.065391  116.402339  40.111430  5.669334
  9043.297  9043.310  0.500  1.068780  117.454056  40.336941  5.651923
  9044.868  9044.880  0.500  1.072693  117.479948  40.188238  5.622780
  9046.461  9046.480  0.500  1.077209  117.454215  39.998414  5.620201
  9048.072  9048.090  0.500  1.081610  117.429117  39.814237  5.600767
  9049.722  9049.730  0.500  1.085600  117.395046  39.644191  5.531704
  9051.377  9051.380  0.500  1.088835  117.361255  39.504774  5.445755
  9053.032  9053.050  0.500  1.090930  117.326489  39.410451  5.388841
  9054.730  9054.740  0.500  1.091516  117.292974  39.376074  5.380740
  9056.446  9056.450  0.500  1.090441  117.258250  39.406763  5.380800
  9058.178  9058.180  0.500  1.088721  117.218405  39.461211  5.349320
  9059.924  9059.930  0.500  1.086304  117.170523  39.540553  5.283223
  9061.681  9061.690  0.500  1.083911  117.069287  39.601035  5.210940
  9063.478  9063.480  0.500  1.081606  115.903779  39.297257  5.112035
  9065.279  9065.280  0.500  1.078929  117.001134  39.775625  5.129531
  9067.096  9067.110  0.500  1.075383  116.998353  39.916000  5.097374
  9068.941  9068.950  0.500  1.071191  116.966671  40.072812  5.051799
  9070.797  9070.810  0.500  1.066421  116.923448  40.249533  4.993520
  9072.683  9072.690  0.500  1.061804  116.889845  40.424192  4.954747
  9074.570  9074.590  0.500  1.057378  116.841825  40.586822  4.965236
  9076.503  9076.510  0.500  1.053351  116.794661  40.734114  5.039228
  9078.449  9078.450  0.500  1.049936  116.752707  40.858778  5.167903
  9080.405  9080.410  0.500  1.046831  115.994934  40.719860  5.294733
  9082.377  9082.380  0.500  1.044450  116.431730  40.970611  5.464020
  9084.388  9084.380  0.500  1.042022  116.588388  41.125463  5.606925
  9086.390  9086.390  0.500  1.040457  116.555741  41.178333  5.724607
  9088.418  9088.420  0.500  1.039367  116.500948  41.203861  5.805776
  9090.471  9090.480  0.500  1.038688  116.454983  41.215619  5.847618
  9092.561  9092.550  0.500  1.038784  116.413735  41.197062  5.914785
  9094.628  9094.640  0.500  1.039585  116.373765  41.149911  6.026630
  9096.745  9096.750  0.500  1.040796  116.315999  41.079718  6.147661
  9098.888  9098.880  0.500  1.042247  116.281555  41.008024  6.232193
  9101.010  9101.020  0.500  1.043763  116.233752  40.929067  6.239118
  9103.184  9103.190  0.500  1.045057  115.283134  40.541822  6.124691
  9105.380  9105.380  0.500  1.046413  115.986687  40.733974  6.046768
  9107.588  9107.580  0.500  1.047391  116.027517  40.708492  5.913232
  9109.793  9109.800  0.500  1.048305  115.992591  40.659056  5.788563
  9112.050  9112.050  0.500  1.048956  115.944137  40.615606  5.694809
  9114.307  9114.310  0.500  1.049527  115.887657  40.572660  5.636222
  9116.598  9116.590  0.500  1.049564  115.837084  40.553459  5.622423
  9118.887  9118.890  0.500  1.049138  115.791036  40.554580  5.630964
  9121.209  9121.210  0.500  1.048528  115.736904  40.560383  5.624886
  9123.551  9123.550  0.500  1.048013  115.679665  40.561193  5.559014
  9125.893  9125.900  0.500  1.047274  115.616270  40.568939  5.419322
  9128.291  9128.280  0.500  1.046497  115.560976  40.581048  5.230506
  9130.682  9130.670  0.500  1.045594  115.508754  40.599369  5.080134
  9133.093  9133.090  0.500  1.044618  115.442584  40.615717  5.019983
  9135.527  9135.520  0.500  1.043392  115.366617  40.638801  5.035776
  9137.980  9137.970  0.500  1.041836  115.291185  40.675471  5.092474
  9140.453  9140.450  0.500  1.040073  115.182320  40.708751  5.169817
  9142.959  9142.940  0.500  1.038213  114.578930  40.570895  5.255207
  9145.449  9145.450  0.500  1.036441  114.999700  40.792087  5.431898
  9147.987  9147.970  0.500  1.034289  115.167121  40.939489  5.632243
  9150.523  9150.520  0.500  1.032276  115.059625  40.983715  5.847813
  9153.100  9153.090  0.500  1.030073  114.935110  41.029633  6.083327
  9155.689  9155.670  0.500  1.028026  114.490352  40.954602  6.293346
  9158.280  9158.280  0.500  1.026523  114.093561  40.874049  6.459795
  9160.905  9160.900  0.500  1.024422  114.908653  41.252654  6.599563
  9163.563  9163.550  0.500  1.022774  114.761521  41.267793  6.558388
  9166.224  9166.210  0.500  1.021132  114.451849  41.224052  6.405356
  9168.904  9168.890  0.500  1.019728  112.853465  40.705448  6.135222
  9171.608  9171.590  0.500  1.017693  114.718881  41.462578  6.071538
  9174.327  9174.310  0.500  1.016155  114.621137  41.491032  5.958477
  9177.056  9177.050  0.500  1.014999  114.508301  41.498130  5.905655
  9179.819  9179.800  0.500  1.014222  114.266503  41.442684  5.893320
  9182.587  9182.580  0.500  1.014094  112.283315  40.728617  5.818167
  9185.394  9185.370  0.500  1.013500  114.434442  41.533557  5.962254
  9188.209  9188.190  0.500  1.013209  114.330294  41.507841  5.976450
  9191.041  9191.020  0.500  1.012768  114.230578  41.489956  5.986402
  9193.893  9193.870  0.500  1.012041  114.142476  41.488102  6.012941
  9196.765  9196.750  0.500  1.011328  114.057081  41.486605  6.054509
  9199.664  9199.640  0.500  1.010935  113.958386  41.467019  6.060642
  9202.561  9202.550  0.500  1.010268  113.881021  41.466519  5.998984
  9205.490  9205.470  0.500  1.009269  113.810245  41.482143  5.880475
  9208.427  9208.420  0.500  1.008488  113.737732  41.488140  5.770029
  9211.418  9211.390  0.500  1.007516  113.676749  41.506207  5.727151
  9214.382  9214.370  0.500  1.006279  113.906092  41.641407  5.749876
  9217.398  9217.380  0.500  1.004873  113.897652  41.696927  5.787780
  9220.414  9220.400  0.500  1.003411  113.825666  41.731536  5.851268
  9223.475  9223.450  0.500  1.001894  113.762187  41.771559  5.952311
  9226.534  9226.510  0.500  1.000241  113.669270  41.806524  6.087152
  9229.607  9229.590  0.500  0.998633  113.606058  41.850516  6.237769
