# XDI/1.0 BlueSky/1.10.0 BMM/2023-1.0-py310-tiled
# Beamline.name: BMM (06BM) -- Beamline for Materials Measurement (NIST)
# Beamline.xray_source: NSLS-II three-pole wiggler
# Beamline.collimation: paraboloid mirror, 5 nm Rh on 30 nm Pt
# Beamline.focusing: not in use
# Beamline.harmonic_rejection: flat mirror, Si stripe, pitch = 7.0 mrad relative to beam
# Beamline.software: Bluesky 1.10.0, Ophyd 1.7.0, DataBroker 2.0.0b13, Python 3.10.8, 2023-1.0-py310-tiled
# Detector.I0: 10 cm N2
# Detector.I1: 25 cm N2
# Detector.I2: 25 cm N2
# Element.symbol: Co
# Element.edge: K
# Element.reference: Co
# Element.reference_material: Co foil
# Facility.name: NSLS-II
# Facility.energy: 3.0
# Facility.current: 399.2
# Facility.mode: top-off
# Facility.GUP: 301027
# Facility.SAF: 310583
# Facility.cycle: 2023-2
# Mono.name: Si(111)
# Mono.d_spacing: 3.1351860
# Mono.encoder_resolution: 0.0000050 deg/ct
# Mono.angle_offset: 16.0754326 deg
# Mono.scan_mode: pseudo channel cut
# Mono.scan_type: step
# Mono.direction: forward in energy
# Sample.name: Co foil
# Sample.prep: reference foil
# Sample.x: 109.138 mm
# Sample.y: 153.150 mm
# Sample.SDD_position: 205.000 mm
# Scan.experimenters: Bruce Ravel
# Scan.edge_energy: 7708.9
# Scan.start_time: 2023-05-28T13:59:46
# Scan.end_time: 2023-05-28T14:07:54
# Scan.transient_id: 78742
# Scan.uid: be5c8c8e-dd20-4abb-873c-5684a41c70ff
# Scan.plot_hint: ln(It/Ir)  --  ln($6/$7)
# Column.1: energy eV
# Column.2: requested_energy eV
# Column.3: measurement_time seconds
# Column.4: xmu 
# Column.5: I0 nA
# Column.6: It nA
# Column.7: Ir nA
# ///////////
# standard reference foil
# -----------
# energy  requested_energy  measurement_time  xmu  I0  It  Ir
  7508.918  7508.900  0.500  1.097293  145.256066  158.952671  53.054188
  7518.909  7518.900  0.500  1.092971  145.169715  159.218222  53.372995
  7528.954  7528.900  0.500  1.088670  145.076667  159.490740  53.694765
  7538.985  7538.900  0.500  1.084454  144.972435  159.757714  54.011906
  7548.933  7548.900  0.500  1.080217  144.847447  159.959173  54.309638
  7558.927  7558.900  0.500  1.075894  144.771290  160.237733  54.639918
  7568.915  7568.900  0.500  1.071650  144.632972  160.450424  54.945105
  7578.918  7578.900  0.500  1.067455  144.537850  160.694396  55.259981
  7588.924  7588.900  0.500  1.063280  144.391708  160.906384  55.564415
  7598.920  7598.900  0.500  1.059117  144.152879  160.986555  55.824017
  7608.915  7608.900  0.500  1.054967  143.502475  160.603046  55.922606
  7618.916  7618.900  0.500  1.050954  143.526164  160.992761  56.283733
  7628.915  7628.900  0.500  1.046959  143.839565  161.698386  56.756692
  7638.917  7638.900  0.500  1.042998  143.752559  161.989493  57.084552
  7649.008  7648.900  0.500  1.039086  143.884874  162.498664  57.488456
  7658.871  7658.900  0.500  1.035373  143.986100  162.915267  57.850236
  7668.871  7668.900  0.500  1.031871  143.864552  163.159355  58.140153
  7678.881  7678.900  0.500  1.028599  143.716334  163.303246  58.382136
  7680.883  7680.900  0.500  1.027990  143.697259  163.365538  58.439955
  7682.879  7682.900  0.500  1.027398  143.662270  163.401058  58.487314
  7684.883  7684.900  0.500  1.026882  143.603746  163.398180  58.516449
  7686.879  7686.900  0.500  1.026427  143.411218  163.274266  58.498676
  7688.880  7688.900  0.500  1.025971  142.407803  162.180192  58.133192
  7690.880  7690.900  0.500  1.025624  143.641230  163.631762  58.673855
  7692.881  7692.900  0.500  1.025394  143.578946  163.630687  58.686994
  7694.883  7694.900  0.500  1.025225  143.536958  163.659973  58.707386
  7696.887  7696.900  0.500  1.025321  143.486696  163.686761  58.711390
  7698.889  7698.900  0.500  1.025638  143.450466  163.739415  58.711635
  7699.174  7699.200  0.500  1.025745  143.438675  163.763592  58.714051
  7699.478  7699.500  0.500  1.025890  143.956001  164.349283  58.915484
  7699.779  7699.800  0.500  1.025931  143.946050  164.330585  58.906348
  7700.077  7700.100  0.500  1.026124  143.935913  164.350950  58.902305
  7700.380  7700.400  0.500  1.026238  143.924403  164.297862  58.876560
  7700.681  7700.700  0.500  1.026376  143.913000  164.331569  58.880498
  7700.980  7701.000  0.500  1.026550  143.904731  164.333294  58.870857
  7701.281  7701.300  0.500  1.026749  143.899272  164.334224  58.859517
  7701.585  7701.600  0.500  1.026950  143.875672  164.332455  58.847017
  7701.886  7701.900  0.500  1.027175  143.862678  164.336304  58.835151
  7702.177  7702.200  0.500  1.027431  143.854911  164.323162  58.815388
  7702.483  7702.500  0.500  1.027675  143.819005  164.293096  58.790309
  7702.779  7702.800  0.500  1.028013  143.806546  164.299712  58.772814
  7703.080  7703.100  0.500  1.028316  143.785787  164.308096  58.758011
  7703.386  7703.400  0.500  1.028710  143.769589  164.264467  58.719281
  7703.685  7703.700  0.500  1.029090  143.751805  164.218418  58.680521
  7703.984  7704.000  0.500  1.029554  143.729373  164.192666  58.644060
  7704.293  7704.300  0.500  1.030086  143.690989  164.133743  58.591844
  7704.591  7704.600  0.500  1.030630  143.662726  164.160799  58.569644
  7704.893  7704.900  0.500  1.031309  143.610822  164.143306  58.523664
  7705.192  7705.200  0.500  1.032011  143.553614  164.105826  58.469202
  7705.498  7705.500  0.500  1.032794  143.461225  164.001679  58.386356
  7705.792  7705.800  0.500  1.033761  143.321728  163.856876  58.278423
  7706.088  7706.100  0.500  1.034874  142.944469  163.386204  58.046403
  7706.390  7706.400  0.500  1.036119  141.978998  162.321722  57.596489
  7706.689  7706.700  0.500  1.037586  140.577962  160.740971  56.951979
  7706.990  7707.000  0.500  1.039528  140.170027  160.299428  56.685339
  7707.292  7707.300  0.500  1.041884  141.170325  161.403392  56.941424
  7707.588  7707.600  0.500  1.044727  142.609778  163.072121  57.366769
  7707.892  7707.900  0.500  1.048358  143.640532  164.278275  57.581632
  7708.189  7708.200  0.500  1.053157  143.891067  164.573794  57.409043
  7708.490  7708.500  0.500  1.060216  143.888355  164.578592  57.006878
  7708.795  7708.800  0.500  1.070705  143.849202  164.543506  56.400064
  7709.096  7709.100  0.500  1.085334  143.823572  164.534086  55.577797
  7709.406  7709.400  0.500  1.105099  143.800961  164.488465  54.474979
  7709.697  7709.700  0.500  1.127619  143.787319  164.476559  53.258051
  7709.996  7710.000  0.500  1.151340  143.760516  164.463696  52.005543
  7710.298  7710.300  0.500  1.174929  143.743616  164.425348  50.781288
  7710.595  7710.600  0.500  1.197610  143.730216  164.418755  49.640455
  7710.899  7710.900  0.500  1.219709  143.715819  164.440021  48.561787
  7711.193  7711.200  0.500  1.240596  143.699389  164.419983  47.552194
  7711.490  7711.500  0.500  1.260121  143.681870  164.422235  46.633380
  7711.792  7711.800  0.500  1.278308  143.659865  164.424141  45.793456
  7712.094  7712.100  0.500  1.293912  143.654162  164.393400  45.076036
  7712.401  7712.400  0.500  1.306872  143.641784  164.379328  44.491802
  7712.700  7712.700  0.500  1.316844  143.631965  164.379346  44.050339
  7713.000  7713.000  0.500  1.324685  143.622691  164.384685  43.707684
  7713.302  7713.300  0.500  1.330674  143.617425  164.402301  43.451367
  7713.604  7713.600  0.500  1.334985  143.617267  164.387297  43.260502
  7713.901  7713.900  0.500  1.337981  143.595254  164.395055  43.133109
  7714.198  7714.200  0.500  1.340105  143.581755  164.448557  43.055623
  7714.500  7714.500  0.500  1.342291  143.575999  164.454784  42.963252
  7714.797  7714.800  0.500  1.344906  143.569504  164.432904  42.845311
  7715.094  7715.100  0.500  1.349146  143.558202  164.419848  42.660674
  7715.399  7715.400  0.500  1.354667  143.535996  164.398841  42.420346
  7715.693  7715.700  0.500  1.362220  143.527627  164.418775  42.106267
  7715.993  7716.000  0.500  1.371423  143.504934  164.410602  41.718457
  7716.301  7716.300  0.500  1.382269  143.490576  164.367309  41.257584
  7716.598  7716.600  0.500  1.393510  143.485826  164.364224  40.795626
  7716.900  7716.900  0.500  1.405166  143.465669  164.374392  40.325361
  7717.200  7717.200  0.500  1.416487  143.453539  164.370418  39.870465
  7717.497  7717.500  0.500  1.427415  143.429938  164.360345  39.434688
  7717.802  7717.800  0.500  1.438366  143.422576  164.352341  39.003292
  7718.102  7718.100  0.500  1.448874  143.412185  164.365724  38.598756
  7718.397  7718.400  0.500  1.459511  143.390040  164.340610  38.184519
  7718.697  7718.700  0.500  1.470479  143.367256  164.332988  37.766251
  7718.991  7719.000  0.500  1.481887  143.333937  164.277242  37.325198
  7719.296  7719.300  0.500  1.494315  143.294048  164.228606  36.853254
  7719.594  7719.600  0.500  1.506830  143.232027  164.181565  36.384504
  7719.891  7719.900  0.500  1.520098  143.142670  164.123694  35.892300
  7720.194  7720.200  0.500  1.533715  142.991445  163.964986  35.372599
  7720.497  7720.500  0.500  1.547981  142.595196  163.477130  34.767812
  7720.804  7720.800  0.500  1.563134  141.566222  162.337210  34.006157
  7721.104  7721.100  0.500  1.578938  140.126116  160.684280  33.132122
  7721.404  7721.400  0.500  1.596107  139.641523  160.162053  32.462291
  7721.702  7721.700  0.500  1.613912  140.523900  161.224233  32.100918
  7722.002  7722.000  0.500  1.632396  142.110310  163.027692  31.865514
  7722.308  7722.300  0.500  1.651017  143.218975  164.299924  31.521697
  7722.603  7722.600  0.500  1.669399  143.496737  164.621075  31.008062
  7722.900  7722.900  0.500  1.687792  143.511920  164.612899  30.441424
  7723.201  7723.200  0.500  1.706307  143.507525  164.705128  29.899730
  7723.496  7723.500  0.500  1.724913  143.491310  164.686510  29.345253
  7723.799  7723.800  0.500  1.743610  143.485958  164.609990  28.788293
  7724.099  7724.100  0.500  1.761258  143.461352  164.619917  28.286398
  7724.392  7724.400  0.500  1.777583  143.442861  164.615741  27.827681
  7724.697  7724.700  0.500  1.792096  143.422459  164.608482  27.425530
  7725.000  7725.000  0.500  1.804537  143.414811  164.612314  27.087071
  7725.311  7725.300  0.500  1.814456  143.399813  164.616179  26.820349
  7725.606  7725.600  0.500  1.821965  143.399157  164.628937  26.621766
  7725.897  7725.900  0.500  1.827310  143.387132  164.633950  26.480658
  7726.202  7726.200  0.500  1.831134  143.367255  164.619994  26.377362
  7726.505  7726.500  0.500  1.833505  143.350074  164.595563  26.310992
  7726.808  7726.800  0.500  1.834332  143.338239  164.580120  26.286765
  7727.101  7727.100  0.500  1.834141  143.336583  164.592700  26.293795
  7727.389  7727.400  0.500  1.833033  143.322307  164.603384  26.324654
  7727.702  7727.700  0.500  1.831332  143.311781  164.575699  26.365026
  7727.995  7728.000  0.500  1.829154  143.306662  164.572968  26.422081
  7728.296  7728.300  0.500  1.826658  143.302551  164.577601  26.488859
  7728.594  7728.600  0.500  1.823987  143.296740  164.606119  26.564301
  7728.898  7728.900  0.500  1.821268  143.296212  164.618851  26.638702
  7729.206  7729.200  0.500  1.818547  143.291300  164.619653  26.711415
  7729.507  7729.500  0.500  1.816326  143.276899  164.588783  26.765772
  7729.805  7729.800  0.500  1.814543  143.266022  164.619914  26.818613
  7730.103  7730.100  0.500  1.813551  143.256703  164.615814  26.844570
  7730.399  7730.400  0.500  1.813427  143.245525  164.624017  26.849228
  7730.708  7730.700  0.500  1.814273  143.230325  164.595974  26.821970
  7731.006  7731.000  0.500  1.816125  143.229813  164.586484  26.770785
  7731.302  7731.300  0.500  1.818981  143.221522  164.617172  26.699426
  7731.603  7731.600  0.500  1.823319  143.210649  164.621735  26.584587
  7731.901  7731.900  0.500  1.828534  143.209391  164.628908  26.447453
  7732.197  7732.200  0.500  1.834677  143.192956  164.606315  26.281871
  7732.493  7732.500  0.500  1.841390  143.179104  164.611631  26.106871
  7732.799  7732.800  0.500  1.848465  143.169023  164.613164  25.923080
  7733.105  7733.100  0.500  1.855365  143.167334  164.595737  25.742086
  7733.399  7733.400  0.500  1.861692  143.157687  164.592603  25.579256
  7733.700  7733.700  0.500  1.867338  143.144921  164.584591  25.433988
  7733.904  7733.900  0.500  1.870577  143.138017  164.590286  25.352628
  7734.899  7734.890  0.500  1.877556  143.119558  164.591594  25.176510
  7735.900  7735.890  0.500  1.869686  143.110191  164.586609  25.374658
  7736.924  7736.910  0.500  1.854644  143.071648  164.575042  25.757427
  7737.979  7737.960  0.500  1.841829  143.014260  164.581725  26.090670
  7739.037  7739.020  0.500  1.835093  142.924937  164.520964  26.257331
  7740.111  7740.100  0.500  1.829687  141.403283  162.790226  26.121940
  7741.210  7741.200  0.500  1.822187  141.354932  162.792689  26.318985
  7742.333  7742.320  0.500  1.813311  143.067878  164.814800  26.883463
  7743.474  7743.460  0.500  1.806884  143.034386  164.797072  27.053903
  7744.615  7744.610  0.500  1.803191  143.015147  164.807239  27.155652
  7745.810  7745.790  0.500  1.800631  142.973478  164.782942  27.221248
  7746.991  7746.980  0.500  1.799632  142.942945  164.784225  27.248688
  7748.210  7748.200  0.500  1.801914  142.926918  164.807351  27.190370
  7749.435  7749.430  0.500  1.808529  142.898365  164.791972  27.008582
  7750.688  7750.680  0.500  1.820163  142.848669  164.779246  26.694124
  7751.960  7751.950  0.500  1.835118  142.829812  164.827120  26.305536
  7753.245  7753.240  0.500  1.852908  142.791211  164.848532  25.845052
  7754.561  7754.550  0.500  1.872066  142.770543  164.898345  25.362288
  7755.893  7755.880  0.500  1.891175  142.753692  164.908435  24.883772
  7757.231  7757.230  0.500  1.906388  142.718069  164.906159  24.507741
  7758.615  7758.600  0.500  1.914241  142.691808  164.910294  24.316630
  7759.995  7759.980  0.500  1.913200  142.658721  164.934260  24.345499
  7761.399  7761.390  0.500  1.904009  142.631903  164.955036  24.573390
  7762.818  7762.810  0.500  1.887143  142.596508  164.977518  24.994759
  7764.261  7764.250  0.500  1.865645  142.565882  165.005304  25.542204
  7765.718  7765.710  0.500  1.843522  142.556194  165.016040  26.115270
  7767.203  7767.190  0.500  1.824047  142.519615  164.980788  26.623170
  7768.694  7768.690  0.500  1.806090  142.507129  164.990122  27.107100
  7770.214  7770.210  0.500  1.791209  142.476990  165.014935  27.517635
  7771.758  7771.750  0.500  1.781452  142.441564  165.068764  27.796490
  7773.321  7773.310  0.500  1.776756  142.405269  165.089750  27.930891
  7774.892  7774.880  0.500  1.774761  142.364720  165.056777  27.981066
  7776.487  7776.480  0.500  1.771915  142.340132  165.074332  28.063805
  7778.098  7778.090  0.500  1.767334  142.318718  165.127365  28.201716
  7779.740  7779.730  0.500  1.763241  142.287683  165.131295  28.318057
  7781.384  7781.380  0.500  1.761563  142.257492  165.167692  28.371873
  7783.054  7783.050  0.500  1.763625  142.227561  165.167016  28.313304
  7784.753  7784.740  0.500  1.768886  142.180531  165.158676  28.163321
  7786.458  7786.450  0.500  1.774331  142.146841  165.179282  28.013876
  7788.190  7788.180  0.500  1.778754  142.115394  165.227567  27.898420
  7789.933  7789.930  0.500  1.784839  142.099017  165.261128  27.734805
  7791.692  7791.690  0.500  1.793826  142.065436  165.280471  27.489878
  7793.479  7793.480  0.500  1.803797  142.043504  165.333179  27.225828
  7795.284  7795.280  0.500  1.812459  142.018525  165.324787  26.989633
  7797.118  7797.110  0.500  1.821339  142.454830  165.961130  26.853992
  7798.959  7798.950  0.500  1.832286  142.459674  166.020013  26.571044
  7800.821  7800.810  0.500  1.846541  142.449967  166.033396  26.197089
  7802.695  7802.690  0.500  1.862544  142.420355  166.098362  25.791280
  7804.606  7804.590  0.500  1.876921  142.395194  166.108911  25.424740
  7806.512  7806.510  0.500  1.886769  142.365086  166.090871  25.172845
  7808.462  7808.450  0.500  1.889855  142.336445  166.134050  25.101801
  7810.417  7810.410  0.500  1.885101  142.297297  166.187173  25.229496
  7812.397  7812.380  0.500  1.874461  142.261904  166.219116  25.504280
  7814.386  7814.380  0.500  1.860768  142.218792  166.236887  25.858675
  7816.402  7816.390  0.500  1.845465  142.191685  166.269039  26.262495
  7818.427  7818.420  0.500  1.828239  142.156744  166.303832  26.724406
  7820.492  7820.480  0.500  1.811417  142.115348  166.329809  27.182004
  7822.561  7822.550  0.500  1.798423  142.080144  166.354800  27.541657
  7824.657  7824.640  0.500  1.785852  142.026444  166.368704  27.892418
  7826.757  7826.750  0.500  1.769666  142.012416  166.411872  28.354910
  7828.903  7828.880  0.500  1.750473  141.980751  166.455465  28.911939
  7831.029  7831.020  0.500  1.733516  141.824082  166.362810  29.390026
  7833.221  7833.190  0.500  1.721304  141.741974  166.315741  29.742704
  7835.363  7835.380  0.500  1.716259  141.813094  166.456673  29.918461
  7837.571  7837.580  0.500  1.717123  141.789307  166.501312  29.900637
  7839.791  7839.800  0.500  1.722598  140.821310  165.438667  29.547594
  7842.044  7842.050  0.500  1.731347  141.666569  166.518497  29.481395
  7844.311  7844.310  0.500  1.741614  141.653556  166.575484  29.190247
  7846.595  7846.590  0.500  1.751525  140.594557  165.418429  28.701621
  7848.900  7848.890  0.500  1.758388  141.538049  166.591610  28.707462
  7851.224  7851.210  0.500  1.759950  141.514109  166.631715  28.669561
  7853.555  7853.550  0.500  1.756682  141.461729  166.650922  28.766736
  7855.910  7855.900  0.500  1.751926  141.214566  166.432603  28.865993
  7858.292  7858.280  0.500  1.750942  141.332111  166.648896  28.931955
  7860.682  7860.670  0.500  1.758742  141.296892  166.690468  28.714353
  7863.103  7863.090  0.500  1.776355  141.259748  166.740051  28.221425
  7865.531  7865.520  0.500  1.798156  141.222948  166.761860  27.616420
  7867.982  7867.970  0.500  1.817626  141.173540  166.773204  27.085791
  7870.460  7870.450  0.500  1.830994  141.125351  166.781151  26.727377
  7872.954  7872.940  0.500  1.839119  141.079216  166.783007  26.511399
  7875.460  7875.450  0.500  1.843994  141.031005  166.840224  26.391516
  7877.983  7877.970  0.500  1.844747  140.981106  166.863760  26.375378
  7880.529  7880.520  0.500  1.838635  140.925348  166.883895  26.540272
  7883.103  7883.090  0.500  1.825010  140.874734  166.921311  26.910391
  7885.682  7885.670  0.500  1.804584  140.832735  166.945389  27.469667
  7888.279  7888.280  0.500  1.777565  140.785855  166.975507  28.227098
  7890.909  7890.900  0.500  1.746287  140.722647  166.988937  29.126283
  7893.565  7893.550  0.500  1.714610  140.674041  167.026567  30.070460
  7896.218  7896.210  0.500  1.688909  140.621703  167.046629  30.857007
  7898.901  7898.890  0.500  1.673410  140.316143  166.750255  31.283392
  7901.606  7901.590  0.500  1.670287  140.387112  166.900329  31.409475
  7904.322  7904.310  0.500  1.677263  140.386874  167.006278  31.210943
  7907.063  7907.050  0.500  1.689626  140.345243  167.061213  30.837585
  7909.821  7909.800  0.500  1.702472  140.294412  167.101362  30.451309
  7912.594  7912.580  0.500  1.713540  140.247780  167.107784  30.117265
  7915.383  7915.370  0.500  1.721986  140.179310  167.109078  29.864209
  7918.209  7918.190  0.500  1.726463  140.121375  167.130890  29.734699
  7921.034  7921.020  0.500  1.727359  140.066403  167.152197  29.711831
  7923.899  7923.870  0.500  1.725537  140.002853  167.132836  29.762581
  7926.744  7926.750  0.500  1.722334  139.895375  167.099299  29.852072
  7929.640  7929.640  0.500  1.717704  139.563638  166.809666  29.938638
  7932.566  7932.550  0.500  1.710947  139.727606  167.096242  30.193392
  7935.479  7935.470  0.500  1.703726  139.620811  167.021228  30.398551
  7938.436  7938.420  0.500  1.700087  139.125348  166.533561  30.420284
  7941.403  7941.390  0.500  1.703975  139.736804  167.376611  30.455637
