# XDI/1.0 BlueSky/1.10.0 BMM/2023-1.0-py310-tiled
# Beamline.name: BMM (06BM) -- Beamline for Materials Measurement (NIST)
# Beamline.xray_source: NSLS-II three-pole wiggler
# Beamline.collimation: paraboloid mirror, 5 nm Rh on 30 nm Pt
# Beamline.focusing: not in use
# Beamline.harmonic_rejection: flat mirror, Si stripe, pitch = 7.0 mrad relative to beam
# Beamline.software: Bluesky 1.10.0, Ophyd 1.7.0, DataBroker 2.0.0b13, Python 3.10.8, 2023-1.0-py310-tiled
# Detector.I0: 10 cm N2
# Detector.I1: 25 cm N2
# Detector.I2: 25 cm N2
# Element.symbol: Co
# Element.edge: K
# Element.reference: Co
# Element.reference_material: Co foil
# Facility.name: NSLS-II
# Facility.energy: 3.0
# Facility.current: 400.8
# Facility.mode: top-off
# Facility.GUP: 301027
# Facility.SAF: 310583
# Facility.cycle: 2023-2
# Mono.name: Si(111)
# Mono.d_spacing: 3.1351860
# Mono.encoder_resolution: 0.0000050 deg/ct
# Mono.angle_offset: 16.0754326 deg
# Mono.scan_mode: pseudo channel cut
# Mono.scan_type: step
# Mono.direction: forward in energy
# Sample.name: CoO
# Sample.prep: powder on tape
# Sample.x: 117.785 mm
# Sample.y: 114.695 mm
# Sample.SDD_position: 205.000 mm
# Scan.experimenters: Bruce Ravel
# Scan.edge_energy: 7708.9
# Scan.start_time: 2023-06-23T14:53:53
# Scan.end_time: 2023-06-23T15:01:44
# Scan.transient_id: 84828
# Scan.uid: c9c436cf-da2a-4545-b064-bacc79489395
# Scan.plot_hint: ln(I0/It)  --  ln($5/$6)
# Column.1: energy eV
# Column.2: requested_energy eV
# Column.3: measurement_time seconds
# Column.4: xmu 
# Column.5: I0 nA
# Column.6: It nA
# Column.7: Ir nA
# ///////////
# BMM standards collection
# -----------
# energy  requested_energy  measurement_time  xmu  I0  It  Ir
  7508.911  7508.900  0.500  1.412910  148.110295  36.055075  13.777353
  7518.911  7518.900  0.500  1.404546  148.021171  36.336007  13.937713
  7528.987  7528.900  0.500  1.396302  147.923100  36.612546  14.096496
  7538.951  7538.900  0.500  1.388480  147.812633  36.872478  14.250294
  7548.933  7548.900  0.500  1.380411  147.667198  37.134650  14.403748
  7558.915  7558.900  0.500  1.372714  147.547958  37.391329  14.558374
  7568.920  7568.900  0.500  1.364869  147.437750  37.657703  14.717131
  7578.923  7578.900  0.500  1.357113  147.304862  37.916697  14.875021
  7588.917  7588.900  0.500  1.349336  147.111124  38.162470  15.024724
  7598.920  7598.900  0.500  1.341726  146.840827  38.383345  15.167653
  7608.915  7608.900  0.500  1.333827  145.888416  38.436786  15.242133
  7618.921  7618.900  0.500  1.326153  145.948621  38.748880  15.422690
  7628.920  7628.900  0.500  1.318631  146.204659  39.109928  15.619567
  7638.919  7638.900  0.500  1.311327  146.095129  39.367110  15.776768
  7648.918  7648.900  0.500  1.304163  145.919568  39.602501  15.925046
  7658.916  7658.900  0.500  1.297362  145.737875  39.823114  16.066729
  7668.922  7668.900  0.500  1.290947  145.584967  40.037363  16.202448
  7678.914  7678.900  0.500  1.285238  145.361463  40.204747  16.315983
  7680.906  7680.900  0.500  1.284347  145.305131  40.224996  16.332123
  7682.902  7682.900  0.500  1.283313  145.244288  40.249761  16.348490
  7684.899  7684.900  0.500  1.282449  145.134128  40.254005  16.359433
  7686.896  7686.900  0.500  1.281942  144.892533  40.207384  16.345630
  7688.893  7688.900  0.500  1.281233  144.090327  40.013133  16.271816
  7690.895  7690.900  0.500  1.280753  145.233389  40.349889  16.412839
  7692.891  7692.900  0.500  1.280492  145.153857  40.338324  16.410539
  7694.891  7694.900  0.500  1.280509  145.100006  40.322692  16.404859
  7696.892  7696.900  0.500  1.280806  145.046484  40.295835  16.390269
  7698.889  7698.900  0.500  1.281612  145.012273  40.253888  16.366399
  7699.179  7699.200  0.500  1.281647  144.987358  40.245540  16.359362
  7699.478  7699.500  0.500  1.281686  144.943161  40.231717  16.353358
  7699.776  7699.800  0.500  1.282042  144.966181  40.223776  16.348323
  7700.082  7700.100  0.500  1.282378  144.936219  40.201957  16.337587
  7700.378  7700.400  0.500  1.282475  144.927477  40.195649  16.332761
  7700.684  7700.700  0.500  1.282701  144.932410  40.187911  16.327338
  7700.977  7701.000  0.500  1.282989  144.912035  40.170717  16.317361
  7701.281  7701.300  0.500  1.283166  144.894803  40.158814  16.308969
  7701.585  7701.600  0.500  1.283554  144.886454  40.140941  16.298377
  7701.881  7701.900  0.500  1.283694  144.879868  40.133493  16.290354
  7702.187  7702.200  0.500  1.284061  144.873152  40.116908  16.280270
  7702.483  7702.500  0.500  1.284456  144.843425  40.092808  16.267306
  7702.779  7702.800  0.500  1.284759  144.844758  40.081065  16.255452
  7703.085  7703.100  0.500  1.285199  144.829534  40.059184  16.241293
  7703.381  7703.400  0.500  1.285619  144.808434  40.036529  16.226183
  7703.685  7703.700  0.500  1.286142  144.786716  40.009630  16.208648
  7703.989  7704.000  0.500  1.286632  144.760553  39.982791  16.190565
  7704.285  7704.300  0.500  1.287355  144.763708  39.954762  16.170402
  7704.591  7704.600  0.500  1.287982  144.701871  39.912680  16.144075
  7704.890  7704.900  0.500  1.288677  144.682062  39.879477  16.120088
  7705.194  7705.200  0.500  1.289418  144.631947  39.836120  16.090407
  7705.488  7705.500  0.500  1.290186  144.547795  39.782384  16.055474
  7705.797  7705.800  0.500  1.291062  144.408473  39.709221  16.009972
  7706.096  7706.100  0.500  1.291926  144.019758  39.568139  15.935266
  7706.390  7706.400  0.500  1.292982  142.905081  39.220453  15.774585
  7706.691  7706.700  0.500  1.294204  141.516961  38.792067  15.576683
  7706.993  7707.000  0.500  1.295616  141.319840  38.683382  15.501113
  7707.289  7707.300  0.500  1.297202  142.419840  38.922676  15.560424
  7707.586  7707.600  0.500  1.299310  143.830892  39.225550  15.635916
  7707.892  7707.900  0.500  1.301684  144.713599  39.372704  15.637746
  7708.189  7708.200  0.500  1.304913  144.863551  39.286427  15.522423
  7708.490  7708.500  0.500  1.309270  144.864330  39.115854  15.343267
  7708.790  7708.800  0.500  1.315250  144.843814  38.877138  15.089678
  7709.091  7709.100  0.500  1.321915  144.821265  38.612841  14.760936
  7709.393  7709.400  0.500  1.329276  144.810505  38.326830  14.355362
  7709.702  7709.700  0.500  1.335681  144.796560  38.078471  13.934043
  7710.004  7710.000  0.500  1.341278  144.766083  37.857952  13.521180
  7710.293  7710.300  0.500  1.345274  144.748050  37.702292  13.153685
  7710.600  7710.600  0.500  1.347221  144.724266  37.622779  12.827531
  7710.897  7710.900  0.500  1.346668  144.729313  37.644888  12.554265
  7711.201  7711.200  0.500  1.344738  144.723418  37.716085  12.317697
  7711.495  7711.500  0.500  1.343263  144.710604  37.768396  12.097987
  7711.797  7711.800  0.500  1.343223  144.692915  37.765308  11.884571
  7712.089  7712.100  0.500  1.345362  144.675617  37.680101  11.682691
  7712.393  7712.400  0.500  1.349146  144.669048  37.536093  11.490289
  7712.695  7712.700  0.500  1.354568  144.650069  37.328201  11.313204
  7713.002  7713.000  0.500  1.361887  144.644923  37.054681  11.146130
  7713.294  7713.300  0.500  1.371967  144.613239  36.675012  10.968272
  7713.599  7713.600  0.500  1.385598  144.609773  36.177633  10.774825
  7713.896  7713.900  0.500  1.402822  144.587438  35.554351  10.559528
  7714.200  7714.200  0.500  1.423926  144.589887  34.812464  10.316304
  7714.500  7714.500  0.500  1.448692  144.577714  33.958038  10.039331
  7714.802  7714.800  0.500  1.475863  144.552208  33.041941  9.741397
  7715.099  7715.100  0.500  1.505908  144.563768  32.066540  9.416158
  7715.399  7715.400  0.500  1.538040  144.556920  31.051061  9.066330
  7715.696  7715.700  0.500  1.573913  144.511340  29.947487  8.679644
  7715.998  7716.000  0.500  1.615447  144.533757  28.733582  8.250097
  7716.295  7716.300  0.500  1.662685  144.499540  27.401337  7.784212
  7716.595  7716.600  0.500  1.718183  144.484188  25.919276  7.279485
  7716.897  7716.900  0.500  1.781304  144.466969  24.330904  6.753801
  7717.197  7717.200  0.500  1.850266  144.471868  22.710299  6.229881
  7717.502  7717.500  0.500  1.920813  144.465515  21.162445  5.739493
  7717.799  7717.800  0.500  1.990291  144.448848  19.739746  5.296597
  7718.099  7718.100  0.500  2.058233  144.413941  18.438687  4.892841
  7718.399  7718.400  0.500  2.122966  144.401779  17.281440  4.535084
  7718.702  7718.700  0.500  2.186519  144.381222  16.215030  4.206437
  7719.002  7719.000  0.500  2.246493  144.357736  15.268652  3.913247
  7719.299  7719.300  0.500  2.303857  144.324489  14.414109  3.649807
  7719.596  7719.600  0.500  2.360003  144.288347  13.623692  3.405116
  7719.894  7719.900  0.500  2.416021  144.189359  12.872670  3.175431
  7720.191  7720.200  0.500  2.475486  144.059363  12.118581  2.948528
  7720.497  7720.500  0.500  2.541174  143.694411  11.319362  2.715843
  7720.797  7720.800  0.500  2.617429  142.560714  10.405552  2.458633
  7721.102  7721.100  0.500  2.707189  141.086924  9.413900  2.190365
  7721.407  7721.400  0.500  2.814639  140.663754  8.429461  1.928480
  7721.702  7721.700  0.500  2.932411  141.605477  7.543108  1.695426
  7722.007  7722.000  0.500  3.054494  143.228804  6.752749  1.489663
  7722.302  7722.300  0.500  3.166771  144.195155  6.076302  1.315776
  7722.598  7722.600  0.500  3.268980  144.432787  5.494974  1.167678
  7722.898  7722.900  0.500  3.354174  144.443945  5.046612  1.051923
  7723.201  7723.200  0.500  3.424993  144.435174  4.701294  0.960889
  7723.501  7723.500  0.500  3.484304  144.421331  4.430138  0.888649
  7723.794  7723.800  0.500  3.532718  144.408169  4.220384  0.830321
  7724.096  7724.100  0.500  3.576416  144.383455  4.039239  0.780717
  7724.394  7724.400  0.500  3.615522  144.352444  3.883495  0.738120
  7724.697  7724.700  0.500  3.657390  144.358197  3.724407  0.698016
  7725.005  7725.000  0.500  3.703819  144.334381  3.554854  0.657770
  7725.301  7725.300  0.500  3.756469  144.326772  3.372354  0.617922
  7725.609  7725.600  0.500  3.816533  144.301481  3.175203  0.577272
  7725.904  7725.900  0.500  3.880169  144.306821  2.979551  0.538369
  7726.205  7726.200  0.500  3.942120  144.298115  2.800398  0.504068
  7726.503  7726.500  0.500  3.993080  144.294374  2.661196  0.477568
  7726.798  7726.800  0.500  4.024328  144.250675  2.578542  0.462339
  7727.096  7727.100  0.500  4.029736  144.266138  2.564911  0.459446
  7727.394  7727.400  0.500  4.009202  144.253556  2.617896  0.469512
  7727.697  7727.700  0.500  3.966084  144.232358  2.732841  0.490978
  7728.001  7728.000  0.500  3.905313  144.240990  2.904243  0.523207
  7728.304  7728.300  0.500  3.832744  144.231804  3.122637  0.563926
  7728.594  7728.600  0.500  3.750412  144.210888  3.390117  0.614008
  7728.903  7728.900  0.500  3.660403  144.210619  3.709405  0.674180
  7729.201  7729.200  0.500  3.570611  144.222829  4.058238  0.738914
  7729.499  7729.500  0.500  3.482505  144.186107  4.430888  0.809025
  7729.805  7729.800  0.500  3.400621  144.194691  4.809263  0.879390
  7730.103  7730.100  0.500  3.329513  144.150411  5.162106  0.944604
  7730.402  7730.400  0.500  3.268405  144.161497  5.487811  1.004549
  7730.700  7730.700  0.500  3.217615  144.156685  5.773542  1.056481
  7730.991  7731.000  0.500  3.175911  144.150736  6.019165  1.098781
  7731.292  7731.300  0.500  3.141521  144.127995  6.228783  1.134397
  7731.595  7731.600  0.500  3.113977  144.124509  6.402576  1.160759
  7731.899  7731.900  0.500  3.091686  144.088788  6.545279  1.180439
  7732.202  7732.200  0.500  3.072008  144.075561  6.674741  1.196308
  7732.506  7732.500  0.500  3.051985  144.306395  6.820645  1.214128
  7732.804  7732.800  0.500  3.030119  144.320808  6.972122  1.233222
  7733.103  7733.100  0.500  3.004367  144.290365  7.152492  1.256097
  7733.406  7733.400  0.500  2.974228  144.300188  7.371841  1.287350
  7733.705  7733.700  0.500  2.940149  144.279954  7.626325  1.324497
  7733.901  7733.900  0.500  2.915224  144.283028  7.818969  1.354207
  7734.899  7734.890  0.500  2.796637  144.245133  8.801107  1.515437
  7735.908  7735.890  0.500  2.719276  144.215762  9.507059  1.651717
  7736.929  7736.910  0.500  2.690304  144.162651  9.782924  1.725170
  7737.974  7737.960  0.500  2.707498  144.092739  9.611493  1.715977
  7739.029  7739.020  0.500  2.767233  143.962064  9.045943  1.625884
  7740.121  7740.100  0.500  2.864951  142.171725  8.101790  1.463264
  7741.215  7741.200  0.500  2.952498  142.392983  7.434211  1.353288
  7742.333  7742.320  0.500  2.982886  144.181720  7.302297  1.340300
  7743.469  7743.460  0.500  2.951873  144.137490  7.529994  1.391034
  7744.618  7744.610  0.500  2.889444  144.123931  8.014313  1.485822
  7745.798  7745.790  0.500  2.829962  144.072109  8.502429  1.580338
  7746.991  7746.980  0.500  2.790566  144.047467  8.842564  1.645079
  7748.213  7748.200  0.500  2.760225  144.017697  9.113080  1.690542
  7749.443  7749.430  0.500  2.732221  143.998321  9.370636  1.726406
  7750.683  7750.680  0.500  2.709805  143.951735  9.579957  1.745007
  7751.960  7751.950  0.500  2.697761  143.916542  9.693664  1.738583
  7753.253  7753.240  0.500  2.696386  143.871148  9.703940  1.709502
  7754.554  7754.550  0.500  2.707642  143.859777  9.594571  1.658756
  7755.886  7755.880  0.500  2.733892  143.822887  9.343586  1.584163
  7757.239  7757.230  0.500  2.764607  143.788287  9.058782  1.513061
  7758.605  7758.600  0.500  2.793708  143.776642  8.798252  1.458256
  7759.995  7759.980  0.500  2.817460  143.735835  8.589295  1.425129
  7761.396  7761.390  0.500  2.834935  143.706326  8.438771  1.412610
  7762.826  7762.810  0.500  2.860040  143.666707  8.227289  1.401164
  7764.266  7764.250  0.500  2.912396  143.630920  7.805677  1.357365
  7765.720  7765.710  0.500  2.991616  143.608045  7.210017  1.281270
  7767.206  7767.190  0.500  3.072913  143.571009  6.645343  1.204537
  7768.705  7768.690  0.500  3.139865  143.548201  6.214009  1.146710
  7770.217  7770.210  0.500  3.182265  143.493941  5.953789  1.115333
  7771.769  7771.750  0.500  3.205518  143.491993  5.816865  1.099635
  7773.318  7773.310  0.500  3.222220  143.446626  5.718709  1.086142
  7774.897  7774.880  0.500  3.232011  143.391220  5.660800  1.077411
  7776.492  7776.480  0.500  3.212477  143.344503  5.770587  1.101402
  7778.095  7778.090  0.500  3.165499  143.317223  6.046997  1.159418
  7779.743  7779.730  0.500  3.106237  143.274098  6.414250  1.235220
  7781.386  7781.380  0.500  3.045777  143.240007  6.812400  1.314131
  7783.064  7783.050  0.500  2.985140  143.199377  7.236209  1.392405
  7784.756  7784.740  0.500  2.933903  143.174534  7.615313  1.457575
  7786.463  7786.450  0.500  2.897197  143.124895  7.897298  1.503357
  7788.200  7788.180  0.500  2.863543  143.081949  8.165148  1.546896
  7789.938  7789.930  0.500  2.828387  143.057508  8.455857  1.592481
  7791.713  7791.690  0.500  2.797849  143.003720  8.714789  1.625782
  7793.494  7793.480  0.500  2.776784  142.975187  8.898541  1.643728
  7795.299  7795.280  0.500  2.767243  142.894770  8.978792  1.644705
  7797.118  7797.110  0.500  2.773411  142.886295  8.923051  1.619999
  7798.969  7798.950  0.500  2.794989  142.848605  8.730273  1.567083
  7800.824  7800.810  0.500  2.824856  142.818459  8.471587  1.498857
  7802.702  7802.690  0.500  2.854108  142.769788  8.224569  1.431483
  7804.608  7804.590  0.500  2.871722  142.720482  8.078177  1.385813
  7806.520  7806.510  0.500  2.874525  142.667532  8.052579  1.367846
  7808.464  7808.450  0.500  2.871483  142.641434  8.075631  1.367783
  7810.428  7810.410  0.500  2.871023  142.588032  8.076326  1.374501
  7812.397  7812.380  0.500  2.873281  142.547678  8.055829  1.385779
  7814.396  7814.380  0.500  2.881560  142.507330  7.987148  1.392485
  7816.412  7816.390  0.500  2.902173  142.446960  7.820876  1.384970
  7818.430  7818.420  0.500  2.934351  142.394611  7.570437  1.363622
  7820.500  7820.480  0.500  2.967678  142.318791  7.318401  1.340500
  7822.564  7822.550  0.500  2.984928  142.294259  7.192001  1.333629
  7824.662  7824.640  0.500  2.980551  142.259853  7.221797  1.356801
  7826.760  7826.750  0.500  2.959574  142.222031  7.372934  1.408415
  7828.911  7828.880  0.500  2.926014  142.164797  7.621495  1.483699
  7831.029  7831.020  0.500  2.884579  141.918475  7.930163  1.570192
  7833.206  7833.190  0.500  2.838798  141.927948  8.302209  1.663665
  7835.394  7835.380  0.500  2.793500  141.998254  8.691234  1.750116
  7837.597  7837.580  0.500  2.758072  141.969470  9.002843  1.810605
  7839.809  7839.800  0.500  2.748513  140.997382  9.027076  1.805880
  7842.065  7842.050  0.500  2.771899  141.801797  8.868726  1.758438
  7844.332  7844.310  0.500  2.819958  141.804261  8.452733  1.658535
  7846.611  7846.590  0.500  2.874057  140.684479  7.944362  1.543866
  7848.908  7848.890  0.500  2.913786  141.659732  7.687856  1.483847
  7851.224  7851.210  0.500  2.927680  141.617864  7.579536  1.460219
  7853.565  7853.550  0.500  2.915286  141.520511  7.668788  1.481734
  7855.916  7855.900  0.500  2.888788  141.363247  7.865963  1.526184
  7858.299  7858.280  0.500  2.863565  141.450819  8.071882  1.567181
  7860.682  7860.670  0.500  2.850185  141.395211  8.177395  1.574302
  7863.106  7863.090  0.500  2.853772  141.327622  8.144220  1.540659
  7865.536  7865.520  0.500  2.866956  141.283257  8.035027  1.485977
  7867.990  7867.970  0.500  2.880769  141.214965  7.920972  1.437330
  7870.466  7870.450  0.500  2.894595  141.169657  7.809707  1.397973
  7872.959  7872.940  0.500  2.906519  141.117416  7.714279  1.370435
  7875.468  7875.450  0.500  2.910493  141.058789  7.680492  1.357211
  7877.988  7877.970  0.500  2.904632  141.007431  7.722831  1.363881
  7880.540  7880.520  0.500  2.888985  140.909471  7.839165  1.393149
  7883.106  7883.090  0.500  2.863597  140.884802  8.039331  1.448887
  7885.688  7885.670  0.500  2.829719  140.796029  8.311110  1.528837
  7888.303  7888.280  0.500  2.788563  140.755589  8.657814  1.637317
  7890.920  7890.900  0.500  2.744877  140.676478  9.039336  1.763262
  7893.573  7893.550  0.500  2.704835  140.611504  9.404292  1.892616
  7896.226  7896.210  0.500  2.676278  140.554827  9.672822  1.997180
  7898.912  7898.890  0.500  2.663956  140.095934  9.760771  2.046328
  7901.606  7901.590  0.500  2.671282  140.340414  9.706431  2.040366
  7904.333  7904.310  0.500  2.696836  140.303577  9.459057  1.973514
  7907.068  7907.050  0.500  2.732206  140.244778  9.126511  1.880783
  7909.815  7909.800  0.500  2.766251  140.170220  8.816339  1.793392
  7912.602  7912.580  0.500  2.794093  140.107479  8.570421  1.724562
  7915.383  7915.370  0.500  2.812980  140.028128  8.405304  1.676945
  7918.201  7918.190  0.500  2.822850  139.964733  8.318984  1.652397
  7921.045  7921.020  0.500  2.824145  139.886487  8.303576  1.647521
  7923.894  7923.870  0.500  2.818934  139.822883  8.343167  1.658080
  7926.771  7926.750  0.500  2.811120  139.745389  8.403951  1.675469
  7929.659  7929.640  0.500  2.802854  139.392881  8.452333  1.692678
  7932.571  7932.550  0.500  2.793296  139.541855  8.542630  1.721437
  7935.490  7935.470  0.500  2.782942  139.429052  8.624560  1.750203
  7938.441  7938.420  0.500  2.775257  138.902044  8.658248  1.763051
  7941.400  7941.390  0.500  2.769022  139.506057  8.750284  1.774530
  7944.388  7944.370  0.500  2.760262  139.354968  8.817712  1.769063
  7947.389  7947.380  0.500  2.748146  139.221914  8.916674  1.768114
  7950.414  7950.400  0.500  2.736094  138.578946  8.983106  1.764294
  7953.471  7953.450  0.500  2.726143  138.985721  9.099577  1.774084
  7956.520  7956.510  0.500  2.721731  138.945864  9.137196  1.773551
  7959.609  7959.590  0.500  2.721299  138.827043  9.133327  1.771959
  7962.704  7962.690  0.500  2.719298  138.756611  9.146973  1.784377
  7965.822  7965.810  0.500  2.710370  138.658310  9.222467  1.817783
