# XDI/1.0 BlueSky/1.10.0 BMM/2023-1.0-py310-tiled
# Beamline.name: BMM (06BM) -- Beamline for Materials Measurement (NIST)
# Beamline.xray_source: NSLS-II three-pole wiggler
# Beamline.collimation: paraboloid mirror, 5 nm Rh on 30 nm Pt
# Beamline.focusing: not in use
# Beamline.harmonic_rejection: flat mirror, Si stripe, pitch = 7.0 mrad relative to beam
# Beamline.software: Bluesky 1.10.0, Ophyd 1.7.0, DataBroker 2.0.0b13, Python 3.10.8, 2023-1.0-py310-tiled
# Detector.I0: 10 cm N2
# Detector.I1: 25 cm N2
# Detector.I2: 25 cm N2
# Element.symbol: Co
# Element.edge: K
# Element.reference: Co
# Element.reference_material: Co foil
# Facility.name: NSLS-II
# Facility.energy: 3.0
# Facility.current: 399.9
# Facility.mode: top-off
# Facility.GUP: 301027
# Facility.SAF: 310583
# Facility.cycle: 2023-2
# Mono.name: Si(111)
# Mono.d_spacing: 3.1351860
# Mono.encoder_resolution: 0.0000050 deg/ct
# Mono.angle_offset: 16.0754326 deg
# Mono.scan_mode: pseudo channel cut
# Mono.scan_type: step
# Mono.direction: forward in energy
# Sample.name: Co3O4
# Sample.prep: powder on tape
# Sample.x: 117.785 mm
# Sample.y: 114.695 mm
# Sample.SDD_position: 205.000 mm
# Scan.experimenters: Bruce Ravel
# Scan.edge_energy: 7708.9
# Scan.start_time: 2023-06-23T15:02:25
# Scan.end_time: 2023-06-23T15:11:04
# Scan.transient_id: 84833
# Scan.uid: 5330c073-0a46-423d-ad58-076c11cb520a
# Scan.plot_hint: ln(I0/It)  --  ln($5/$6)
# Column.1: energy eV
# Column.2: requested_energy eV
# Column.3: measurement_time seconds
# Column.4: xmu 
# Column.5: I0 nA
# Column.6: It nA
# Column.7: Ir nA
# ///////////
# BMM standards collection
# -----------
# energy  requested_energy  measurement_time  xmu  I0  It  Ir
  7508.901  7508.900  0.500  1.239818  147.663461  42.739271  16.326386
  7518.916  7518.900  0.500  1.232438  147.534886  43.018328  16.497927
  7528.917  7528.900  0.500  1.224999  147.440379  43.311807  16.670729
  7538.927  7538.900  0.500  1.217530  147.298643  43.594527  16.844163
  7548.938  7548.900  0.500  1.210235  147.150576  43.869609  17.013642
  7558.889  7558.900  0.500  1.202769  146.999023  44.152807  17.186793
  7568.879  7568.900  0.500  1.195635  146.862117  44.427537  17.360851
  7578.891  7578.900  0.500  1.188293  146.731594  44.715113  17.537284
  7588.907  7588.900  0.500  1.181055  146.518551  44.974551  17.703439
  7598.918  7598.900  0.500  1.173789  146.244938  45.217920  17.865396
  7608.910  7608.900  0.500  1.166578  145.564299  45.333211  17.974062
  7618.919  7618.900  0.500  1.159542  145.548194  45.648237  18.163395
  7628.918  7628.900  0.500  1.152511  145.785467  46.045269  18.384556
  7638.909  7638.900  0.500  1.145694  145.652065  46.317814  18.558867
  7648.913  7648.900  0.500  1.138898  145.480713  46.578788  18.727935
  7658.906  7658.900  0.500  1.132110  145.306120  46.839774  18.892553
  7668.912  7668.900  0.500  1.125549  145.127360  47.090074  19.053927
  7678.906  7678.900  0.500  1.119291  144.916862  47.316989  19.198982
  7680.903  7680.900  0.500  1.118158  144.850925  47.349064  19.221102
  7682.897  7682.900  0.500  1.117033  144.790968  47.382755  19.244173
  7684.899  7684.900  0.500  1.115864  144.714540  47.413123  19.262663
  7686.901  7686.900  0.500  1.114801  144.455293  47.378520  19.258820
  7688.898  7688.900  0.500  1.113806  143.629992  47.154722  19.172614
  7690.893  7690.900  0.500  1.112812  144.796005  47.584847  19.352866
  7692.891  7692.900  0.500  1.111909  144.722263  47.603546  19.361571
  7694.896  7694.900  0.500  1.111055  144.656065  47.622422  19.369903
  7696.894  7696.900  0.500  1.110350  144.611226  47.641261  19.375371
  7698.896  7698.900  0.500  1.109733  144.538640  47.646746  19.367631
  7699.179  7699.200  0.500  1.109607  144.531144  47.650238  19.368128
  7699.478  7699.500  0.500  1.109614  144.516108  47.644961  19.363892
  7699.779  7699.800  0.500  1.109496  144.483262  47.639777  19.359825
  7700.085  7700.100  0.500  1.109475  144.478749  47.639261  19.357051
  7700.380  7700.400  0.500  1.109489  144.458970  47.632094  19.350704
  7700.676  7700.700  0.500  1.109534  144.463943  47.631571  19.348152
  7700.980  7701.000  0.500  1.109462  144.451234  47.630805  19.343815
  7701.281  7701.300  0.500  1.109466  144.432206  47.624359  19.339105
  7701.585  7701.600  0.500  1.109380  144.433986  47.629036  19.334130
  7701.881  7701.900  0.500  1.109345  144.424775  47.627663  19.329914
  7702.179  7702.200  0.500  1.109364  145.004134  47.817812  19.402022
  7702.480  7702.500  0.500  1.109362  145.009676  47.819757  19.395868
  7702.781  7702.800  0.500  1.109307  144.997699  47.818421  19.390792
  7703.080  7703.100  0.500  1.109567  144.991467  47.803932  19.379744
  7703.384  7703.400  0.500  1.109564  144.958890  47.793315  19.368478
  7703.685  7703.700  0.500  1.109643  144.934681  47.781564  19.354045
  7703.984  7704.000  0.500  1.109829  144.938243  47.773849  19.341130
  7704.285  7704.300  0.500  1.109808  144.909864  47.765530  19.328275
  7704.591  7704.600  0.500  1.109841  144.876077  47.752802  19.307918
  7704.888  7704.900  0.500  1.110058  144.836887  47.729503  19.289491
  7705.192  7705.200  0.500  1.110234  144.781704  47.702964  19.264388
  7705.498  7705.500  0.500  1.110436  144.707803  47.668974  19.234969
  7705.792  7705.800  0.500  1.110614  144.580484  47.618559  19.193744
  7706.091  7706.100  0.500  1.110956  144.224213  47.484943  19.119495
  7706.397  7706.400  0.500  1.111403  143.143704  47.108141  18.942735
  7706.694  7706.700  0.500  1.111810  141.717046  46.619658  18.715748
  7706.990  7707.000  0.500  1.112394  141.415036  46.493177  18.630122
  7707.287  7707.300  0.500  1.113071  142.472960  46.809251  18.711654
  7707.593  7707.600  0.500  1.114030  143.933881  47.243906  18.830300
  7707.887  7707.900  0.500  1.115365  144.840760  47.478163  18.856409
  7708.186  7708.200  0.500  1.116930  145.035898  47.467792  18.757099
  7708.488  7708.500  0.500  1.119392  145.014151  47.343968  18.571697
  7708.795  7708.800  0.500  1.123429  145.011029  47.152215  18.297364
  7709.101  7709.100  0.500  1.129471  144.986601  46.860265  17.907865
  7709.398  7709.400  0.500  1.137893  144.969535  46.461789  17.413119
  7709.697  7709.700  0.500  1.147308  144.932939  46.014822  16.853064
  7710.004  7710.000  0.500  1.155260  144.901794  45.640523  16.311367
  7710.298  7710.300  0.500  1.158756  144.905903  45.482553  15.875786
  7710.592  7710.600  0.500  1.157293  144.882299  45.541718  15.535067
  7710.897  7710.900  0.500  1.153083  144.888841  45.735918  15.259987
  7711.196  7711.200  0.500  1.149385  144.891434  45.906193  14.998272
  7711.495  7711.500  0.500  1.148055  144.874519  45.961898  14.730324
  7711.797  7711.800  0.500  1.148619  144.876069  45.936470  14.459517
  7712.097  7712.100  0.500  1.150282  144.836540  45.847652  14.211600
  7712.393  7712.400  0.500  1.151893  144.840262  45.775004  14.012128
  7712.700  7712.700  0.500  1.153065  144.832542  45.718978  13.854652
  7712.997  7713.000  0.500  1.153998  144.802566  45.666889  13.736168
  7713.299  7713.300  0.500  1.154771  144.796772  45.629760  13.644305
  7713.599  7713.600  0.500  1.155722  144.784297  45.582481  13.573800
  7713.896  7713.900  0.500  1.157014  144.781344  45.522699  13.516194
  7714.188  7714.200  0.500  1.158606  144.764691  45.445031  13.465693
  7714.495  7714.500  0.500  1.160608  144.753241  45.350581  13.406863
  7714.792  7714.800  0.500  1.163291  144.744287  45.226267  13.336465
  7715.094  7715.100  0.500  1.166867  144.712999  45.055085  13.228593
  7715.399  7715.400  0.500  1.172004  144.711047  44.823627  13.083426
  7715.701  7715.700  0.500  1.178329  144.701451  44.538041  12.902000
  7716.006  7716.000  0.500  1.186397  144.697007  44.178797  12.674735
  7716.303  7716.300  0.500  1.196628  144.682730  43.724777  12.410666
  7716.603  7716.600  0.500  1.208567  144.665624  43.200766  12.124045
  7716.895  7716.900  0.500  1.223190  144.641923  42.566663  11.809976
  7717.197  7717.200  0.500  1.240671  144.649387  41.831191  11.472858
  7717.492  7717.500  0.500  1.260431  144.613509  41.002526  11.121746
  7717.792  7717.800  0.500  1.283095  144.612579  40.083427  10.755584
  7718.097  7718.100  0.500  1.308232  144.610277  39.087797  10.374458
  7718.397  7718.400  0.500  1.335978  144.569818  38.007553  9.976822
  7718.699  7718.700  0.500  1.364763  144.548599  36.923659  9.580225
  7719.002  7719.000  0.500  1.393156  144.516629  35.882098  9.197980
  7719.302  7719.300  0.500  1.418778  144.493207  34.968733  8.855227
  7719.604  7719.600  0.500  1.441637  144.441913  34.166313  8.539192
  7719.904  7719.900  0.500  1.462299  144.357067  33.447947  8.247959
  7720.199  7720.200  0.500  1.481277  144.239102  32.792342  7.977593
  7720.499  7720.500  0.500  1.500708  143.850970  32.074782  7.693816
  7720.797  7720.800  0.500  1.520900  142.738947  31.190608  7.371715
  7721.097  7721.100  0.500  1.542537  141.239024  30.202245  7.026752
  7721.397  7721.400  0.500  1.566209  140.814018  29.406946  6.727869
  7721.700  7721.700  0.500  1.591886  141.773140  28.856695  6.483695
  7722.005  7722.000  0.500  1.620023  143.397772  28.377594  6.260045
  7722.300  7722.300  0.500  1.649892  144.384871  27.732086  6.008201
  7722.605  7722.600  0.500  1.682558  144.601053  26.881027  5.716738
  7722.898  7722.900  0.500  1.716153  144.614561  25.995383  5.429472
  7723.201  7723.200  0.500  1.750971  144.602411  25.103731  5.145497
  7723.501  7723.500  0.500  1.784002  144.577621  24.283926  4.884635
  7723.796  7723.800  0.500  1.813540  144.567296  23.575442  4.655317
  7724.094  7724.100  0.500  1.838031  144.564576  23.004628  4.461799
  7724.402  7724.400  0.500  1.858079  144.565198  22.548124  4.302502
  7724.700  7724.700  0.500  1.875060  144.551513  22.166354  4.168986
  7724.998  7725.000  0.500  1.890656  144.517512  21.818209  4.054739
  7725.301  7725.300  0.500  1.906202  144.512481  21.480888  3.953060
  7725.601  7725.600  0.500  1.922143  144.507163  21.140407  3.860170
  7725.899  7725.900  0.500  1.938081  144.499663  20.805066  3.777894
  7726.200  7726.200  0.500  1.954500  144.493300  20.465355  3.702468
  7726.495  7726.500  0.500  1.970752  144.458574  20.130589  3.631999
  7726.793  7726.800  0.500  1.988415  144.462586  19.778707  3.565390
  7727.099  7727.100  0.500  2.008548  144.456857  19.383702  3.493445
  7727.397  7727.400  0.500  2.031780  144.429205  18.934957  3.415894
  7727.700  7727.700  0.500  2.059333  144.428157  18.420230  3.327285
  7728.003  7728.000  0.500  2.091895  144.416680  17.828670  3.227211
  7728.301  7728.300  0.500  2.128709  144.408821  17.183325  3.117058
  7728.594  7728.600  0.500  2.169587  144.424455  16.496850  2.999266
  7728.895  7728.900  0.500  2.213693  144.416091  15.784145  2.876307
  7729.191  7729.200  0.500  2.256499  144.397068  15.120755  2.762463
  7729.486  7729.500  0.500  2.294219  144.392239  14.560531  2.665435
  7729.787  7729.800  0.500  2.323885  144.380604  14.133788  2.590815
  7730.091  7730.100  0.500  2.341430  144.364623  13.886429  2.547947
  7730.391  7730.400  0.500  2.346952  144.370851  13.810562  2.534262
  7730.705  7730.700  0.500  2.340587  144.345847  13.896330  2.547247
  7730.998  7731.000  0.500  2.324712  144.346529  14.118761  2.583433
  7731.297  7731.300  0.500  2.299914  144.339724  14.472584  2.639384
  7731.598  7731.600  0.500  2.268696  144.312608  14.928708  2.711233
  7731.904  7731.900  0.500  2.232415  144.312442  15.480257  2.795243
  7732.279  7732.200  0.500  2.191675  144.278072  16.120113  2.892071
  7732.478  7732.500  0.500  2.162865  144.252043  16.588283  2.959574
  7732.776  7732.800  0.500  2.128698  144.249053  17.164504  3.041381
  7733.100  7733.100  0.500  2.097180  144.221365  17.710713  3.117957
  7733.396  7733.400  0.500  2.070899  144.205419  18.180317  3.180820
  7733.679  7733.700  0.500  2.048605  144.181345  18.587075  3.234874
  7733.871  7733.900  0.500  2.036008  144.153342  18.819043  3.266002
  7734.912  7734.890  0.500  1.992441  144.075416  19.646427  3.386450
  7735.877  7735.890  0.500  1.973663  144.022777  20.011531  3.476961
  7736.894  7736.910  0.500  1.963516  144.011438  20.214025  3.564768
  7737.941  7737.960  0.500  1.960914  143.952266  20.258373  3.619209
  7739.006  7739.020  0.500  1.955199  143.842892  20.358992  3.662134
  7740.088  7740.100  0.500  1.941072  142.302509  20.427525  3.693045
  7741.192  7741.200  0.500  1.926842  142.023784  20.679701  3.767581
  7742.307  7742.320  0.500  1.924582  144.063859  21.024200  3.864346
  7743.456  7743.460  0.500  1.932418  143.984716  20.848651  3.855828
  7744.602  7744.610  0.500  1.934521  143.979291  20.804057  3.861769
  7745.790  7745.790  0.500  1.923604  143.933691  21.025763  3.912512
  7746.978  7746.980  0.500  1.906271  143.894684  21.387583  3.982401
  7748.195  7748.200  0.500  1.884866  143.869233  21.846447  4.057569
  7749.435  7749.430  0.500  1.861180  143.824835  22.363187  4.124906
  7750.686  7750.680  0.500  1.839511  143.797332  22.848684  4.165576
  7751.950  7751.950  0.500  1.823667  143.787283  23.211974  4.167873
  7753.240  7753.240  0.500  1.810253  143.745426  23.518583  4.149262
  7754.554  7754.550  0.500  1.796518  143.717892  23.839274  4.125439
  7755.886  7755.880  0.500  1.783109  143.698457  24.157810  4.101662
  7757.226  7757.230  0.500  1.771391  143.641912  24.432946  4.086266
  7758.597  7758.600  0.500  1.760613  143.620783  24.694079  4.098084
  7759.982  7759.980  0.500  1.753302  143.581872  24.868525  4.130997
  7761.391  7761.390  0.500  1.751642  143.535480  24.901796  4.174453
  7762.808  7762.810  0.500  1.756126  143.506449  24.785379  4.225266
  7764.246  7764.250  0.500  1.762716  143.478381  24.617767  4.287008
  7765.715  7765.710  0.500  1.768662  143.715879  24.512333  4.364599
  7767.193  7767.190  0.500  1.775270  143.676525  24.344224  4.420075
  7768.686  7768.690  0.500  1.785211  143.636051  24.096616  4.455220
  7770.214  7770.210  0.500  1.798535  143.580540  23.768494  4.460225
  7771.758  7771.750  0.500  1.814066  143.552702  23.397667  4.433814
  7773.310  7773.310  0.500  1.829962  143.528411  23.024780  4.382914
  7774.887  7774.880  0.500  1.843536  143.472824  22.705548  4.331526
  7776.489  7776.480  0.500  1.852515  143.427166  22.495437  4.303728
  7778.093  7778.090  0.500  1.861162  143.393830  22.296566  4.284543
  7779.740  7779.730  0.500  1.874507  143.342343  21.993099  4.242897
  7781.386  7781.380  0.500  1.894324  143.305730  21.556038  4.164786
  7783.051  7783.050  0.500  1.915815  143.271755  21.092735  4.066030
  7784.753  7784.740  0.500  1.930265  143.233096  20.784523  3.984645
  7786.456  7786.450  0.500  1.934604  143.192591  20.688667  3.944522
  7788.185  7788.180  0.500  1.931686  143.154272  20.743591  3.935949
  7789.943  7789.930  0.500  1.925509  143.120368  20.867164  3.934410
  7791.705  7791.690  0.500  1.918657  143.073591  21.003776  3.924230
  7793.479  7793.480  0.500  1.913994  143.044011  21.097587  3.902945
  7795.289  7795.280  0.500  1.909325  142.997568  21.189443  3.885790
  7797.110  7797.110  0.500  1.900116  142.946164  21.377790  3.885077
  7798.959  7798.950  0.500  1.886790  142.903326  21.658073  3.891821
  7800.816  7800.810  0.500  1.872018  142.862535  21.974103  3.893112
  7802.705  7802.690  0.500  1.855969  142.816936  22.322497  3.890845
  7804.595  7804.590  0.500  1.840249  142.736941  22.663462  3.893161
  7806.520  7806.510  0.500  1.827471  142.721242  22.952408  3.904331
  7808.449  7808.450  0.500  1.817954  142.684991  23.165993  3.929662
  7810.412  7810.410  0.500  1.811137  142.639369  23.317007  3.974038
  7812.395  7812.380  0.500  1.808172  142.583025  23.377000  4.027496
  7814.383  7814.380  0.500  1.809653  142.522422  23.332480  4.073808
  7816.402  7816.390  0.500  1.813008  142.509727  23.252247  4.122506
  7818.422  7818.420  0.500  1.814005  142.442905  23.218194  4.187310
  7820.492  7820.480  0.500  1.812360  142.394804  23.248578  4.263872
  7822.556  7822.550  0.500  1.809975  142.350021  23.296744  4.328666
  7824.655  7824.640  0.500  1.809348  142.283080  23.300408  4.385194
  7826.757  7826.750  0.500  1.810522  142.259347  23.269181  4.450732
  7828.892  7828.880  0.500  1.812989  142.209162  23.203648  4.524052
  7831.031  7831.020  0.500  1.816887  141.962644  23.073327  4.575045
  7833.198  7833.190  0.500  1.820058  141.991224  23.004895  4.615864
  7835.389  7835.380  0.500  1.820308  142.049083  23.008531  4.639023
  7837.587  7837.580  0.500  1.817504  142.010115  23.066800  4.645824
  7839.815  7839.800  0.500  1.813221  140.994112  23.000075  4.606144
  7842.062  7842.050  0.500  1.808839  141.797799  23.232757  4.613207
  7844.322  7844.310  0.500  1.802872  141.820317  23.375509  4.593995
  7846.603  7846.590  0.500  1.791724  140.710790  23.452639  4.563391
  7848.900  7848.890  0.500  1.774863  141.644072  24.009624  4.641636
  7851.213  7851.210  0.500  1.755172  141.631387  24.484869  4.724882
  7853.568  7853.550  0.500  1.738992  141.516421  24.864073  4.811961
  7855.910  7855.900  0.500  1.731441  141.386641  25.029550  4.864889
  7858.299  7858.280  0.500  1.732432  141.439918  25.014177  4.863815
  7860.672  7860.670  0.500  1.740388  141.415254  24.811642  4.785628
  7863.108  7863.090  0.500  1.752705  141.343204  24.495423  4.640754
  7865.531  7865.520  0.500  1.766550  141.292578  24.149949  4.475792
  7867.982  7867.970  0.500  1.780542  141.242885  23.806031  4.327755
  7870.460  7870.450  0.500  1.794166  141.178413  23.473177  4.210757
  7872.959  7872.940  0.500  1.805275  141.095927  23.200293  4.128405
  7875.462  7875.450  0.500  1.810524  141.045991  23.070672  4.084383
  7877.983  7877.970  0.500  1.811025  140.992814  23.050411  4.077644
  7880.529  7880.520  0.500  1.808942  140.920934  23.086702  4.109349
  7883.103  7883.090  0.500  1.805692  140.879274  23.155016  4.178929
  7885.690  7885.670  0.500  1.802284  140.821499  23.224541  4.278862
  7888.287  7888.280  0.500  1.799140  140.742183  23.284531  4.407317
  7890.920  7890.900  0.500  1.795797  140.679113  23.352034  4.560897
  7893.562  7893.550  0.500  1.790686  140.612378  23.460571  4.727288
  7896.234  7896.210  0.500  1.781950  140.554459  23.656673  4.890965
  7898.904  7898.890  0.500  1.769940  140.102243  23.865463  5.007828
  7901.611  7901.590  0.500  1.758411  140.351258  24.185123  5.090606
  7904.322  7904.310  0.500  1.749634  140.335103  24.395501  5.097220
  7907.068  7907.050  0.500  1.743194  140.259079  24.539834  5.064921
  7909.810  7909.800  0.500  1.737283  140.189536  24.673061  5.027253
  7912.602  7912.580  0.500  1.730716  140.117452  24.822859  5.001780
  7915.386  7915.370  0.500  1.722599  140.016344  25.007112  4.996694
  7918.201  7918.190  0.500  1.713596  139.974515  25.225721  5.018095
  7921.039  7921.020  0.500  1.704986  139.895583  25.429505  5.053629
  7923.891  7923.870  0.500  1.699455  139.821627  25.557042  5.087064
  7926.769  7926.750  0.500  1.698502  139.746004  25.567554  5.105483
  7929.665  7929.640  0.500  1.701305  139.350293  25.423811  5.099144
  7932.566  7932.550  0.500  1.705883  139.535618  25.341343  5.116356
  7935.493  7935.470  0.500  1.711698  139.421619  25.173826  5.116805
  7938.436  7938.420  0.500  1.717533  138.943665  24.941559  5.085728
  7941.411  7941.390  0.500  1.721710  139.546278  24.945313  5.065418
  7944.388  7944.370  0.500  1.721961  139.368755  24.907330  5.004523
  7947.389  7947.380  0.500  1.717811  139.276749  24.994395  4.963261
  7950.422  7950.400  0.500  1.710980  138.629550  25.048774  4.926009
  7953.466  7953.450  0.500  1.704588  139.005751  25.277824  4.934821
  7956.528  7956.510  0.500  1.699382  138.947762  25.399159  4.936587
  7959.607  7959.590  0.500  1.694741  138.850105  25.499378  4.954490
