# XDI/1.0 BlueSky/1.10.0 BMM/2023-1.0-py310-tiled
# Beamline.name: BMM (06BM) -- Beamline for Materials Measurement (NIST)
# Beamline.xray_source: NSLS-II three-pole wiggler
# Beamline.collimation: paraboloid mirror, 5 nm Rh on 30 nm Pt
# Beamline.focusing: not in use
# Beamline.harmonic_rejection: flat mirror, Si stripe, pitch = 7.0 mrad relative to beam
# Beamline.software: Bluesky 1.10.0, Ophyd 1.7.0, DataBroker 2.0.0b13, Python 3.10.8, 2023-1.0-py310-tiled
# Detector.I0: 10 cm N2
# Detector.I1: 25 cm N2
# Detector.I2: 25 cm N2
# Element.symbol: Sm
# Element.edge: L1
# Element.reference: Sm
# Element.reference_material: Sm2O3
# Facility.name: NSLS-II
# Facility.energy: 3.0
# Facility.current: 399.9
# Facility.mode: top-off
# Facility.GUP: 123456
# Facility.SAF: 301027
# Facility.cycle: 2023-2
# Mono.name: Si(111)
# Mono.d_spacing: 3.1351860
# Mono.encoder_resolution: 0.0000050 deg/ct
# Mono.angle_offset: 16.0754326 deg
# Mono.scan_mode: pseudo channel cut
# Mono.scan_type: step
# Mono.direction: forward in energy
# Sample.name: Sm2Ti2O7
# Sample.prep: Powder in PEG pellet
# Sample.x: 149.848 mm
# Sample.y: 114.690 mm
# Sample.SDD_position: 205.000 mm
# Scan.experimenters: Bruce Ravel
# Scan.edge_energy: 7736.8
# Scan.start_time: 2023-05-08T20:52:51
# Scan.end_time: 2023-05-08T20:58:44
# Scan.transient_id: 75603
# Scan.uid: 9830b31c-9ff8-461c-b996-9876594648e7
# Scan.plot_hint: ln(I0/It)  --  ln($5/$6)
# Column.1: energy eV
# Column.2: requested_energy eV
# Column.3: measurement_time seconds
# Column.4: xmu 
# Column.5: I0 nA
# Column.6: It nA
# Column.7: Ir nA
# ///////////
# sample courtesy Martin Stennett, University of Sheffield
# -----------
# energy  requested_energy  measurement_time  xmu  I0  It  Ir
  7536.805  7536.800  0.500  0.754188  147.675734  69.465571  4.185599
  7546.812  7546.800  0.500  0.749027  147.477787  69.731375  4.221504
  7556.820  7556.800  0.500  0.744297  147.308733  69.981663  4.261759
  7566.876  7566.800  0.500  0.739424  147.126852  70.236697  4.310246
  7576.927  7576.800  0.500  0.734362  146.950875  70.508691  4.360351
  7586.814  7586.800  0.500  0.729029  146.695818  70.762726  4.407421
  7596.820  7596.800  0.500  0.724100  146.381109  70.959821  4.441930
  7606.818  7606.800  0.500  0.719302  145.695698  70.967224  4.470924
  7616.826  7616.800  0.500  0.714657  145.520799  71.212032  4.519515
  7626.822  7626.800  0.500  0.709885  145.750113  71.665448  4.578678
  7636.818  7636.800  0.500  0.704808  145.604358  71.958165  4.633267
  7646.821  7646.800  0.500  0.699930  145.422640  72.219772  4.682119
  7656.813  7656.800  0.500  0.695029  145.245310  72.486114  4.727635
  7666.818  7666.800  0.500  0.690437  145.047448  72.720576  4.769114
  7676.810  7676.800  0.500  0.685808  144.815910  72.941317  4.811155
  7686.813  7686.800  0.500  0.681102  144.206961  72.977231  4.845231
  7696.776  7696.800  0.500  0.676572  144.448505  73.431370  4.902028
  7706.775  7706.800  0.500  0.672176  140.589311  71.784406  4.822981
  7708.774  7708.800  0.500  0.670907  144.253923  73.749055  4.960406
  7710.775  7710.800  0.500  0.670235  144.163771  73.752487  4.966333
  7712.787  7712.800  0.500  0.669298  144.100514  73.789257  4.972819
  7714.779  7714.800  0.500  0.668322  144.024985  73.822579  4.981385
  7716.786  7716.800  0.500  0.667316  143.952782  73.859851  4.987368
  7718.786  7718.800  0.500  0.666373  143.824058  73.863416  4.990866
  7720.784  7720.800  0.500  0.665075  140.958037  72.485553  4.913206
  7722.793  7722.800  0.500  0.664411  143.905091  74.050180  5.011920
  7724.786  7724.800  0.500  0.663603  143.830372  74.071591  5.014748
  7726.790  7726.800  0.500  0.662705  143.763722  74.103724  5.019151
  7727.282  7727.300  0.500  0.662592  143.735200  74.097429  5.017769
  7727.779  7727.800  0.500  0.662464  143.721952  74.100043  5.018437
  7728.273  7728.300  0.500  0.662485  143.708675  74.091678  5.016947
  7728.780  7728.800  0.500  0.662262  143.680954  74.093873  5.016692
  7729.277  7729.300  0.500  0.661682  143.665859  74.129073  5.018541
  7729.774  7729.800  0.500  0.661490  143.651593  74.136003  5.018779
  7730.277  7730.300  0.500  0.661622  143.634883  74.117585  5.016229
  7730.776  7730.800  0.500  0.661356  143.621217  74.130212  5.015935
  7731.281  7731.300  0.500  0.661248  143.606235  74.130483  5.016163
  7731.781  7731.800  0.500  0.660941  143.593662  74.146759  5.015225
  7732.286  7732.300  0.500  0.660646  143.575053  74.159046  5.014391
  7732.791  7732.800  0.500  0.660384  143.557496  74.169362  5.012519
  7733.286  7733.300  0.500  0.660186  143.536640  74.173311  5.010507
  7733.784  7733.800  0.500  0.660083  143.522780  74.173792  5.007095
  7734.284  7734.300  0.500  0.659907  143.501226  74.175668  5.002925
  7734.782  7734.800  0.500  0.659693  143.469425  74.175122  4.999226
  7735.280  7735.300  0.500  0.659598  143.460166  74.177367  4.993581
  7735.783  7735.800  0.500  0.659544  143.441896  74.171921  4.986430
  7736.288  7736.300  0.500  0.659249  143.421467  74.183240  4.977596
  7736.791  7736.800  0.500  0.659204  143.386326  74.168431  4.966746
  7737.290  7737.300  0.500  0.659090  143.352537  74.159427  4.952240
  7737.795  7737.800  0.500  0.659042  143.324588  74.148518  4.935788
  7738.291  7738.300  0.500  0.659021  143.275166  74.124502  4.917619
  7738.789  7738.800  0.500  0.658940  143.195590  74.089300  4.897434
  7739.288  7739.300  0.500  0.658954  143.016784  73.995776  4.870594
  7739.786  7739.800  0.500  0.658674  142.667647  73.835834  4.843555
  7740.290  7740.300  0.500  0.658880  140.253585  72.571511  4.746658
  7740.791  7740.800  0.500  0.659400  141.010286  72.925086  4.734060
  7741.294  7741.300  0.500  0.659369  143.364476  74.144897  4.790946
  7741.796  7741.800  0.500  0.659194  143.966564  74.469336  4.805850
  7742.299  7742.300  0.500  0.659526  143.945478  74.433656  4.788411
  7742.796  7742.800  0.500  0.659515  143.924796  74.423812  4.772639
  7743.300  7743.300  0.500  0.659215  143.892351  74.429394  4.758939
  7743.794  7743.800  0.500  0.659416  143.865372  74.400438  4.742619
  7744.293  7744.300  0.500  0.659580  143.849277  74.379898  4.726008
  7744.794  7744.800  0.500  0.659761  143.827515  74.355197  4.706946
  7745.293  7745.300  0.500  0.659645  143.801499  74.350418  4.688389
  7745.790  7745.800  0.500  0.659931  143.782194  74.319169  4.664514
  7746.297  7746.300  0.500  0.660161  143.760554  74.290836  4.639983
  7746.799  7746.800  0.500  0.660279  143.744236  74.273672  4.611366
  7747.298  7747.300  0.500  0.660218  143.709808  74.260408  4.582219
  7747.803  7747.800  0.500  0.660470  143.700254  74.236735  4.547675
  7748.300  7748.300  0.500  0.660724  143.681828  74.208367  4.514160
  7748.799  7748.800  0.500  0.660807  143.660140  74.191031  4.480183
  7749.297  7749.300  0.500  0.661205  143.648123  74.155297  4.443860
  7749.789  7749.800  0.500  0.661364  143.627246  74.132751  4.409340
  7750.296  7750.300  0.500  0.661424  143.609327  74.119073  4.375570
  7750.796  7750.800  0.500  0.661670  143.601137  74.096629  4.344576
  7751.301  7751.300  0.500  0.661816  143.583278  74.076583  4.318013
  7751.798  7751.800  0.500  0.662147  143.565060  74.042616  4.293577
  7752.304  7752.300  0.500  0.662369  143.549851  74.018382  4.274478
  7752.801  7752.800  0.500  0.662669  143.532892  73.987412  4.260890
  7753.304  7753.300  0.500  0.662544  143.518635  73.989336  4.253628
  7753.799  7753.800  0.500  0.662582  143.498980  73.976375  4.250815
  7754.299  7754.300  0.500  0.662467  143.485202  73.977755  4.251105
  7754.797  7754.800  0.500  0.662419  143.466956  73.971957  4.253651
  7755.298  7755.300  0.500  0.661992  143.451083  73.995339  4.260515
  7755.803  7755.800  0.500  0.661754  143.443442  74.009045  4.269426
  7756.304  7756.300  0.500  0.661447  143.417625  74.018382  4.278570
  7756.805  7756.800  0.500  0.661039  143.402945  74.041070  4.288770
  7757.305  7757.300  0.500  0.660484  143.383835  74.072253  4.298769
  7757.804  7757.800  0.500  0.659982  143.366457  74.100462  4.309316
  7758.305  7758.300  0.500  0.659638  143.352314  74.118628  4.317731
  7758.803  7758.800  0.500  0.659107  143.330339  74.146653  4.324410
  7759.299  7759.300  0.500  0.658654  143.319123  74.174455  4.330665
  7759.797  7759.800  0.500  0.658115  143.303004  74.206087  4.337117
  7760.293  7760.300  0.500  0.657735  143.283841  74.224396  4.342854
  7760.797  7760.800  0.500  0.657517  143.268355  74.232550  4.345946
  7761.298  7761.300  0.500  0.657068  143.252784  74.257809  4.350355
  7761.802  7761.800  0.500  0.656408  143.233736  74.296945  4.355601
  7762.792  7762.790  0.500  0.655912  143.205104  74.318977  4.362434
  7763.796  7763.790  0.500  0.655381  143.176709  74.343654  4.371689
  7764.812  7764.810  0.500  0.654867  143.152203  74.369131  4.383234
  7765.875  7765.860  0.500  0.654330  143.125590  74.395291  4.397501
  7766.930  7766.920  0.500  0.654222  143.097240  74.388603  4.413536
  7768.001  7768.000  0.500  0.653738  143.066019  74.408352  4.433386
  7769.106  7769.100  0.500  0.653467  143.037653  74.413753  4.454725
  7770.227  7770.220  0.500  0.652900  143.007742  74.440385  4.478278
  7771.369  7771.360  0.500  0.651951  142.973394  74.493193  4.503031
  7772.514  7772.510  0.500  0.651267  142.946054  74.529860  4.523383
  7773.705  7773.690  0.500  0.650371  142.908125  74.576912  4.545661
  7774.892  7774.880  0.500  0.649506  142.869657  74.621337  4.562434
  7776.112  7776.100  0.500  0.648671  142.840779  74.668597  4.581069
  7777.341  7777.330  0.500  0.647875  142.813001  74.713527  4.596024
  7778.596  7778.580  0.500  0.647101  142.786752  74.757660  4.607826
  7779.867  7779.850  0.500  0.646323  142.743436  74.793136  4.616250
  7781.149  7781.140  0.500  0.645765  142.719540  74.822347  4.619859
  7782.459  7782.450  0.500  0.645233  142.682257  74.842597  4.621848
  7783.793  7783.780  0.500  0.644822  142.648541  74.855677  4.618114
  7785.141  7785.130  0.500  0.644524  142.608032  74.856752  4.613067
  7786.507  7786.500  0.500  0.644163  142.571910  74.864755  4.605978
  7787.892  7787.880  0.500  0.643883  142.529991  74.863758  4.599953
  7789.304  7789.290  0.500  0.643354  142.499142  74.887111  4.594276
  7790.721  7790.710  0.500  0.642951  142.463814  74.898734  4.587552
  7792.162  7792.150  0.500  0.642619  142.427279  74.904426  4.580729
  7793.621  7793.610  0.500  0.642361  142.406808  74.912956  4.575974
  7795.094  7795.090  0.500  0.642164  142.357749  74.901933  4.571135
  7796.602  7796.590  0.500  0.641299  142.313349  74.943363  4.573011
  7798.115  7798.110  0.500  0.640419  142.267418  74.985109  4.575700
  7799.657  7799.650  0.500  0.639585  142.230326  75.028131  4.580639
  7801.219  7801.210  0.500  0.638457  142.182996  75.087755  4.584925
  7802.778  7802.780  0.500  0.637899  142.138402  75.106103  4.588070
  7804.387  7804.380  0.500  0.636934  142.089040  75.152529  4.593135
  7806.000  7805.990  0.500  0.636050  142.046397  75.196394  4.600867
  7807.634  7807.630  0.500  0.635234  142.007883  75.237378  4.609157
  7809.290  7809.280  0.500  0.634457  141.956323  75.268518  4.616283
  7810.956  7810.950  0.500  0.633570  141.896693  75.303701  4.626898
  7812.642  7812.640  0.500  0.632845  141.858479  75.338057  4.638743
  7814.368  7814.350  0.500  0.631936  141.804026  75.377622  4.652937
  7816.084  7816.080  0.500  0.631404  141.758914  75.393682  4.666810
  7817.840  7817.830  0.500  0.630724  141.714019  75.421075  4.679319
  7819.599  7819.590  0.500  0.629936  141.654662  75.448916  4.691711
  7821.378  7821.380  0.500  0.629231  141.609292  75.477990  4.703016
  7823.196  7823.180  0.500  0.628359  141.549944  75.512170  4.711498
  7825.010  7825.010  0.500  0.627549  141.500942  75.547172  4.719025
  7826.859  7826.850  0.500  0.626770  141.454453  75.581214  4.726674
  7828.714  7828.710  0.500  0.626235  141.394388  75.589544  4.732898
  7830.597  7830.590  0.500  0.625325  141.281388  75.597895  4.739335
  7832.501  7832.490  0.500  0.624547  140.871249  75.437080  4.732422
  7834.414  7834.410  0.500  0.623558  141.206002  75.691224  4.759146
  7836.359  7836.350  0.500  0.622728  141.177893  75.738928  4.770888
  7838.313  7838.310  0.500  0.621710  141.123317  75.786798  4.782822
  7840.290  7840.280  0.500  0.620915  140.192586  75.346854  4.760774
  7842.293  7842.280  0.500  0.619866  140.951736  75.834352  4.801202
  7844.301  7844.290  0.500  0.618956  140.919181  75.885875  4.812881
  7846.333  7846.320  0.500  0.618153  139.768783  75.326849  4.786409
  7848.389  7848.380  0.500  0.617342  140.721632  75.901918  4.829252
  7850.463  7850.450  0.500  0.616507  140.696971  75.952024  4.839751
  7852.543  7852.540  0.500  0.615354  140.646166  76.012120  4.850407
  7854.666  7854.650  0.500  0.614485  139.524564  75.471562  4.823613
  7856.780  7856.780  0.500  0.613578  140.483704  76.059317  4.865934
  7858.938  7858.920  0.500  0.612573  140.451985  76.118631  4.874673
  7861.096  7861.090  0.500  0.611814  140.398534  76.147376  4.879766
  7863.301  7863.280  0.500  0.611009  140.337049  76.175350  4.883666
  7865.486  7865.480  0.500  0.610104  140.274477  76.210338  4.888770
  7867.717  7867.700  0.500  0.609171  140.206850  76.244661  4.895145
  7869.955  7869.950  0.500  0.608057  140.135620  76.290891  4.903214
  7872.226  7872.210  0.500  0.606946  140.072830  76.341462  4.913147
  7874.498  7874.490  0.500  0.605909  140.009290  76.385990  4.922942
  7876.808  7876.790  0.500  0.605013  139.947068  76.420547  4.931915
  7879.115  7879.110  0.500  0.604026  139.876106  76.457193  4.943818
  7881.466  7881.450  0.500  0.602912  139.811586  76.507104  4.957027
  7883.802  7883.800  0.500  0.601885  139.736367  76.544518  4.970340
  7886.203  7886.180  0.500  0.600816  139.668431  76.589147  4.983869
  7888.577  7888.570  0.500  0.599783  139.603107  76.632403  4.998512
  7891.005  7890.990  0.500  0.598921  139.535803  76.661550  5.009945
  7893.432  7893.420  0.500  0.597905  139.464290  76.700178  5.023930
  7895.885  7895.870  0.500  0.596934  139.401379  76.740010  5.034172
  7898.360  7898.350  0.500  0.595916  139.193919  76.703895  5.038185
  7900.851  7900.840  0.500  0.595015  139.110504  76.727002  5.046628
  7903.364  7903.350  0.500  0.593792  139.114177  76.822895  5.059471
  7905.882  7905.870  0.500  0.592622  139.052330  76.878665  5.067661
  7908.439  7908.420  0.500  0.591553  138.978523  76.920054  5.076262
  7911.008  7910.990  0.500  0.590522  138.900159  76.956001  5.084400
  7913.582  7913.570  0.500  0.589585  138.814415  76.980527  5.092963
  7916.195  7916.180  0.500  0.588457  138.726580  77.018659  5.104915
  7918.815  7918.800  0.500  0.587428  138.651210  77.056073  5.115851
  7921.474  7921.450  0.500  0.586356  138.575636  77.096700  5.127427
  7924.119  7924.110  0.500  0.585252  138.497466  77.138308  5.140706
  7926.809  7926.790  0.500  0.584054  138.399728  77.176245  5.152460
  7929.506  7929.490  0.500  0.582895  138.037739  77.063691  5.154675
  7932.229  7932.210  0.500  0.581793  138.161834  77.217994  5.178937
  7934.968  7934.950  0.500  0.580559  138.046945  77.249102  5.192137
  7937.711  7937.700  0.500  0.579339  137.742673  77.172879  5.197899
  7940.494  7940.480  0.500  0.578222  137.744170  77.259978  5.202963
  7943.290  7943.270  0.500  0.576837  137.952431  77.484026  5.236577
  7946.109  7946.090  0.500  0.575641  137.840665  77.513875  5.248085
  7948.942  7948.920  0.500  0.574450  137.722253  77.539643  5.259263
  7951.787  7951.770  0.500  0.573346  137.223925  77.344409  5.249894
  7954.667  7954.650  0.500  0.572181  137.476461  77.577073  5.277202
  7957.559  7957.540  0.500  0.571047  137.389115  77.615762  5.287441
  7960.463  7960.450  0.500  0.569981  137.264076  77.627784  5.295631
  7963.384  7963.370  0.500  0.568685  137.157403  77.668070  5.307840
  7966.338  7966.320  0.500  0.567499  137.044606  77.696268  5.319680
  7969.310  7969.290  0.500  0.566127  136.923145  77.733984  5.333196
  7972.279  7972.270  0.500  0.565016  136.755367  77.725080  5.342821
  7975.302  7975.280  0.500  0.563792  136.543707  77.699778  5.352292
  7978.319  7978.300  0.500  0.562491  136.338931  77.684257  5.362898
  7981.365  7981.350  0.500  0.561432  135.826860  77.474486  5.355431
  7984.425  7984.410  0.500  0.560136  136.102736  77.732566  5.390822
  7987.512  7987.490  0.500  0.558792  135.999604  77.778086  5.404177
  7990.602  7990.590  0.500  0.557502  135.896610  77.819548  5.418806
  7993.732  7993.710  0.500  0.556143  135.790351  77.864449  5.434050
  7996.879  7996.850  0.500  0.554813  135.670154  77.899000  5.447493
  8000.006  8000.000  0.500  0.553556  135.549750  77.927799  5.458952
  8003.190  8003.180  0.500  0.552416  135.468571  77.969952  5.472168
  8006.388  8006.370  0.500  0.551211  135.390324  78.018896  5.485253
  8009.605  8009.590  0.500  0.549911  135.421328  78.138248  5.503096
  8012.841  8012.820  0.500  0.548407  135.386809  78.235956  5.519858
  8016.088  8016.070  0.500  0.547461  135.332202  78.278404  5.534945
  8019.374  8019.350  0.500  0.546067  135.252323  78.341293  5.549671
  8022.654  8022.640  0.500  0.544614  135.140134  78.390171  5.566719
  8025.970  8025.950  0.500  0.543410  135.021973  78.415976  5.580691
  8029.292  8029.270  0.500  0.541922  134.912572  78.469077  5.598011
  8032.636  8032.620  0.500  0.540528  134.799408  78.512636  5.614269
  8036.002  8035.990  0.500  0.539170  134.672699  78.545447  5.628789
  8039.387  8039.370  0.500  0.537888  134.545489  78.571912  5.645299
  8042.803  8042.780  0.500  0.536440  134.409721  78.606352  5.658671
  8046.217  8046.200  0.500  0.535142  134.271127  78.627309  5.672475
  8049.661  8049.650  0.500  0.533826  134.130150  78.648162  5.686371
  8053.128  8053.110  0.500  0.532421  133.948473  78.652095  5.698911
  8056.614  8056.590  0.500  0.530851  133.464935  78.491313  5.700685
  8060.109  8060.090  0.500  0.529502  133.921575  78.866140  5.740590
  8063.630  8063.610  0.500  0.528126  133.746485  78.871477  5.752668
  8067.167  8067.150  0.500  0.527210  133.915263  79.043419  5.777259
  8070.716  8070.700  0.500  0.526322  130.469989  77.078240  5.629009
  8074.294  8074.280  0.500  0.524232  133.757485  79.185764  5.811332
  8077.897  8077.880  0.500  0.522666  133.180500  78.967734  5.809293
  8081.506  8081.490  0.500  0.521295  133.570835  79.307821  5.843639
  8085.136  8085.120  0.500  0.519925  133.375529  79.300446  5.855752
  8088.794  8088.780  0.500  0.518602  133.033231  79.201598  5.861923
  8092.469  8092.450  0.500  0.517602  131.867795  78.586323  5.811462
  8096.156  8096.140  0.500  0.515795  133.103208  79.466014  5.910815
  8099.867  8099.850  0.500  0.514231  132.934666  79.489634  5.925947
  8103.589  8103.580  0.500  0.512805  132.776759  79.508485  5.942488
  8107.337  8107.320  0.500  0.511565  132.618040  79.511994  5.956449
  8111.100  8111.090  0.500  0.510248  132.483693  79.536180  5.974375
  8114.893  8114.880  0.500  0.508734  132.344072  79.572680  5.991184
  8118.688  8118.680  0.500  0.507073  132.187147  79.610495  6.009360
  8122.522  8122.510  0.500  0.505460  132.044745  79.653114  6.028062
  8126.350  8126.350  0.500  0.504130  131.898663  79.670896  6.043296
  8130.217  8130.210  0.500  0.502576  131.757694  79.709486  6.060631
  8134.104  8134.090  0.500  0.501226  131.606387  79.725516  6.076821
  8138.000  8137.990  0.500  0.499606  131.454388  79.762506  6.092352
  8141.918  8141.910  0.500  0.498171  131.283825  79.773398  6.108730
  8145.856  8145.850  0.500  0.496624  131.141692  79.810431  6.125892
  8149.818  8149.810  0.500  0.495142  130.964144  79.820628  6.141277
  8153.790  8153.780  0.500  0.493668  130.796370  79.835960  6.156551
  8157.792  8157.780  0.500  0.492153  130.638530  79.860482  6.172975
