# XDI/1.0 BlueSky/1.10.0 BMM/2023-1.0-py310-tiled
# Beamline.name: BMM (06BM) -- Beamline for Materials Measurement (NIST)
# Beamline.xray_source: NSLS-II three-pole wiggler
# Beamline.collimation: paraboloid mirror, 5 nm Rh on 30 nm Pt
# Beamline.focusing: not in use
# Beamline.harmonic_rejection: flat mirror, Si stripe, pitch = 7.0 mrad relative to beam
# Beamline.software: Bluesky 1.10.0, Ophyd 1.7.0, DataBroker 2.0.0b13, Python 3.10.8, 2023-1.0-py310-tiled
# Detector.I0: 10 cm N2
# Detector.I1: 25 cm N2
# Detector.I2: 25 cm N2
# Element.symbol: Sm
# Element.edge: L1
# Element.reference: Sm
# Element.reference_material: Sm2O3
# Facility.name: NSLS-II
# Facility.energy: 3.0
# Facility.current: 400.6
# Facility.mode: top-off
# Facility.GUP: 301027
# Facility.SAF: 310583
# Facility.cycle: 2023-2
# Mono.name: Si(111)
# Mono.d_spacing: 3.1351860
# Mono.encoder_resolution: 0.0000050 deg/ct
# Mono.angle_offset: 16.0754326 deg
# Mono.scan_mode: pseudo channel cut
# Mono.scan_type: step
# Mono.direction: forward in energy
# Sample.name: Sm2O3
# Sample.prep: PEG pellet
# Sample.x: 109.138 mm
# Sample.y: 153.150 mm
# Sample.SDD_position: 205.000 mm
# Scan.experimenters: Bruce Ravel
# Scan.edge_energy: 7736.8
# Scan.start_time: 2023-05-28T14:10:33
# Scan.end_time: 2023-05-28T14:19:20
# Scan.transient_id: 78749
# Scan.uid: f40b2d96-b019-4ede-9ea4-2faa1af8b936
# Scan.plot_hint: ln(It/Ir)  --  ln($6/$7)
# Column.1: energy eV
# Column.2: requested_energy eV
# Column.3: measurement_time seconds
# Column.4: xmu 
# Column.5: I0 nA
# Column.6: It nA
# Column.7: Ir nA
# ///////////
# sample courtesy Martin Stennett, University of Sheffield
# -----------
# energy  requested_energy  measurement_time  xmu  I0  It  Ir
  7536.798  7536.800  0.500  3.339194  145.446277  160.207658  5.681852
  7546.817  7546.800  0.500  3.332410  145.320722  160.379980  5.726680
  7556.820  7556.800  0.500  3.324219  145.228639  160.695506  5.785136
  7566.812  7566.800  0.500  3.313818  145.135130  160.924499  5.853952
  7576.812  7576.800  0.500  3.302198  145.023821  161.140610  5.930327
  7586.898  7586.800  0.500  3.292306  144.890123  161.385034  5.998365
  7596.815  7596.800  0.500  3.284618  144.676646  161.518597  6.049661
  7606.810  7606.800  0.500  3.275938  144.072848  161.212550  6.090837
  7616.821  7616.800  0.500  3.265699  143.985162  161.464198  6.163126
  7626.829  7626.800  0.500  3.255732  144.333755  162.189425  6.252821
  7636.818  7636.800  0.500  3.245170  144.283529  162.506316  6.331560
  7646.818  7646.800  0.500  3.235472  144.156124  162.719313  6.401646
  7656.818  7656.800  0.500  3.226860  144.061347  162.988783  6.467708
  7666.816  7666.800  0.500  3.218778  143.940891  163.188777  6.528187
  7676.820  7676.800  0.500  3.210275  143.809192  163.383576  6.591792
  7686.823  7686.800  0.500  3.201170  143.461611  163.335155  6.650118
  7696.811  7696.800  0.500  3.192073  143.552655  163.817157  6.730692
  7706.818  7706.800  0.500  3.183457  139.869318  159.940474  6.628274
  7708.805  7708.800  0.500  3.181892  143.550251  164.226953  6.816573
  7710.798  7710.800  0.500  3.180213  143.449214  164.173958  6.825825
  7712.799  7712.800  0.500  3.178816  143.376742  164.093053  6.832000
  7714.795  7714.800  0.500  3.177523  143.315450  164.122860  6.842087
  7716.793  7716.800  0.500  3.176197  143.256468  164.170950  6.853172
  7718.796  7718.800  0.500  3.175045  143.139220  164.097094  6.857983
  7720.789  7720.800  0.500  3.174246  141.443009  162.222806  6.785069
  7722.799  7722.800  0.500  3.173130  143.351561  164.478208  6.887084
  7724.797  7724.800  0.500  3.172258  143.267704  164.448308  6.891840
  7726.801  7726.800  0.500  3.171855  143.210211  164.448862  6.894640
  7727.081  7727.100  0.500  3.171737  143.210259  164.403299  6.893549
  7727.381  7727.400  0.500  3.171767  143.192516  164.437453  6.894768
  7727.680  7727.700  0.500  3.171676  143.181680  164.420442  6.894684
  7727.980  7728.000  0.500  3.171723  143.181145  164.443723  6.895334
  7728.281  7728.300  0.500  3.171753  143.170351  164.457361  6.895700
  7728.576  7728.600  0.500  3.171656  143.147822  164.434972  6.895434
  7728.877  7728.900  0.500  3.171859  143.148863  164.428890  6.893779
  7729.178  7729.200  0.500  3.172070  143.142198  164.395004  6.890906
  7729.476  7729.500  0.500  3.172000  143.140239  164.446040  6.893528
  7729.782  7729.800  0.500  3.172062  143.122751  164.451190  6.893314
  7730.080  7730.100  0.500  3.172200  143.123521  164.433079  6.891603
  7730.384  7730.400  0.500  3.172489  143.126630  164.453740  6.890476
  7730.687  7730.700  0.500  3.172510  143.096889  164.428719  6.889285
  7730.988  7731.000  0.500  3.172479  143.090147  164.458977  6.890764
  7731.284  7731.300  0.500  3.172683  143.088039  164.428854  6.888098
  7731.593  7731.600  0.500  3.172939  143.076604  164.404371  6.885313
  7731.891  7731.900  0.500  3.173247  143.056233  164.392926  6.882712
  7732.192  7732.200  0.500  3.173520  143.054357  164.417980  6.881881
  7732.490  7732.500  0.500  3.173647  143.046363  164.441684  6.881996
  7732.789  7732.800  0.500  3.174058  143.039633  164.454315  6.879699
  7733.090  7733.100  0.500  3.174428  143.036448  164.461007  6.877435
  7733.391  7733.400  0.500  3.174930  143.024230  164.462957  6.874065
  7733.687  7733.700  0.500  3.175393  143.018593  164.499681  6.872414
  7733.983  7734.000  0.500  3.175904  143.008880  164.490707  6.868533
  7734.292  7734.300  0.500  3.176756  143.001058  164.437108  6.860446
  7734.593  7734.600  0.500  3.177199  142.980739  164.417344  6.856579
  7734.894  7734.900  0.500  3.178060  142.968409  164.412759  6.850490
  7735.196  7735.200  0.500  3.178896  142.961610  164.455196  6.846531
  7735.497  7735.500  0.500  3.179780  142.955979  164.441246  6.839902
  7735.806  7735.800  0.500  3.180900  142.937351  164.400610  6.830557
  7736.097  7736.100  0.500  3.182277  142.938195  164.424482  6.822150
  7736.396  7736.400  0.500  3.183703  142.920063  164.416581  6.812099
  7736.700  7736.700  0.500  3.185426  142.900747  164.430622  6.800954
  7737.001  7737.000  0.500  3.187139  142.874170  164.379803  6.787213
  7737.292  7737.300  0.500  3.189419  142.862182  164.389426  6.772151
  7737.594  7737.600  0.500  3.191867  142.847105  164.335551  6.753383
  7737.887  7737.900  0.500  3.194180  142.839342  164.353152  6.738499
  7738.189  7738.200  0.500  3.196930  142.814102  164.345447  6.719681
  7738.490  7738.500  0.500  3.200034  142.807242  164.371507  6.699918
  7738.797  7738.800  0.500  3.203370  142.768362  164.327036  6.675796
  7739.101  7739.100  0.500  3.206741  142.722100  164.316321  6.652894
  7739.405  7739.400  0.500  3.210329  142.646353  164.211244  6.624829
  7739.699  7739.700  0.500  3.214085  142.479508  163.988871  6.591054
  7740.006  7740.000  0.500  3.217843  141.865908  163.294840  6.538546
  7740.300  7740.300  0.500  3.221699  140.193903  161.397192  6.437690
  7740.601  7740.600  0.500  3.224789  139.079771  160.152184  6.368318
  7740.896  7740.900  0.500  3.228143  139.611723  160.800474  6.372686
  7741.197  7741.200  0.500  3.231216  140.997912  162.376185  6.415389
  7741.489  7741.500  0.500  3.234462  142.237746  163.794804  6.450467
  7741.796  7741.800  0.500  3.237685  142.796273  164.438192  6.454963
  7742.095  7742.100  0.500  3.240690  142.856862  164.524123  6.438959
  7742.402  7742.400  0.500  3.243606  142.850581  164.565511  6.421827
  7742.701  7742.700  0.500  3.246262  142.832274  164.563843  6.404726
  7743.000  7743.000  0.500  3.248828  142.824163  164.550926  6.387813
  7743.300  7743.300  0.500  3.251365  142.821205  164.570512  6.372385
  7743.604  7743.600  0.500  3.253955  142.804667  164.560274  6.355508
  7743.898  7743.900  0.500  3.256776  142.790561  164.549472  6.337192
  7744.198  7744.200  0.500  3.259392  142.781220  164.547904  6.320574
  7744.495  7744.500  0.500  3.262342  142.776019  164.525911  6.301110
  7744.794  7744.800  0.500  3.265316  142.763153  164.528615  6.282500
  7745.096  7745.100  0.500  3.268718  142.746948  164.540669  6.261628
  7745.398  7745.400  0.500  3.272127  142.748626  164.532476  6.240008
  7745.698  7745.700  0.500  3.275905  142.752079  164.553899  6.217283
  7745.997  7746.000  0.500  3.279828  142.732696  164.524559  6.191835
  7746.299  7746.300  0.500  3.284119  142.740605  164.529015  6.165489
  7746.604  7746.600  0.500  3.288849  142.725023  164.519525  6.136046
  7746.904  7746.900  0.500  3.293799  142.700376  164.530668  6.106156
  7747.196  7747.200  0.500  3.299015  142.694047  164.539995  6.074738
  7747.495  7747.500  0.500  3.304824  142.685138  164.548138  6.039852
  7747.798  7747.800  0.500  3.311080  142.672830  164.557703  6.002530
  7748.095  7748.100  0.500  3.316853  142.675649  164.567347  5.968328
  7748.397  7748.400  0.500  3.323159  142.671281  164.579630  5.931253
  7748.702  7748.700  0.500  3.329682  142.669900  164.579979  5.892701
  7749.007  7749.000  0.500  3.336473  142.666488  164.590853  5.853208
  7749.304  7749.300  0.500  3.343359  142.653060  164.586204  5.812875
  7749.599  7749.600  0.500  3.350282  142.645371  164.590493  5.772925
  7749.912  7749.900  0.500  3.357375  142.652611  164.603651  5.732581
  7750.209  7750.200  0.500  3.364156  142.622937  164.604598  5.693870
  7750.499  7750.500  0.500  3.370701  142.625143  164.639457  5.657922
  7750.796  7750.800  0.500  3.376826  142.614689  164.552952  5.620420
  7751.096  7751.100  0.500  3.382911  142.605001  164.580856  5.587269
  7751.393  7751.400  0.500  3.388292  142.974998  165.032420  5.572535
  7751.698  7751.700  0.500  3.393395  142.994193  165.075066  5.545604
  7752.004  7752.000  0.500  3.398035  143.015314  165.105685  5.520955
  7752.296  7752.300  0.500  3.401950  143.013129  165.123479  5.499974
  7752.599  7752.600  0.500  3.405293  143.006324  165.116810  5.481399
  7752.901  7752.900  0.500  3.408215  143.009109  165.102482  5.464928
  7753.201  7753.200  0.500  3.410165  142.998469  165.109675  5.454520
  7753.499  7753.500  0.500  3.411734  142.995883  165.109920  5.445979
  7753.802  7753.800  0.500  3.412691  142.986477  165.087842  5.440041
  7754.094  7754.100  0.500  3.413212  142.978712  165.109709  5.437930
  7754.394  7754.400  0.500  3.413171  142.979335  165.144011  5.439278
  7754.700  7754.700  0.500  3.412616  142.975449  165.131972  5.441901
  7755.000  7755.000  0.500  3.411889  142.963032  165.127342  5.445707
  7755.303  7755.300  0.500  3.410597  142.959430  165.116971  5.452405
  7755.603  7755.600  0.500  3.409143  142.946886  165.125558  5.460625
  7755.906  7755.900  0.500  3.407676  142.936347  165.119987  5.468458
  7756.207  7756.200  0.500  3.406051  142.937340  165.122238  5.477424
  7756.497  7756.500  0.500  3.404107  142.917662  165.110734  5.487701
  7756.792  7756.800  0.500  3.402253  142.910017  165.115023  5.498027
  7757.095  7757.100  0.500  3.400387  142.896909  165.082333  5.507207
  7757.395  7757.400  0.500  3.398515  142.891842  165.104742  5.518271
  7757.688  7757.700  0.500  3.396687  142.887974  165.116039  5.528747
  7757.991  7758.000  0.500  3.395033  142.873178  165.103017  5.537462
  7758.292  7758.300  0.500  3.393222  142.870285  165.119241  5.548048
  7758.597  7758.600  0.500  3.391948  142.863289  165.101903  5.554535
  7758.893  7758.900  0.500  3.390542  142.853714  165.124939  5.563127
  7759.304  7759.200  0.500  3.389308  142.847631  165.107817  5.569420
  7759.474  7759.500  0.500  3.388316  142.794050  165.030961  5.572353
  7759.777  7759.800  0.500  3.387337  142.759167  164.995773  5.576621
  7760.075  7760.100  0.500  3.386189  142.740961  165.005626  5.583357
  7760.476  7760.400  0.500  3.385347  142.724763  164.968187  5.586796
  7760.671  7760.700  0.500  3.384706  142.704539  165.009649  5.591780
  7760.980  7761.000  0.500  3.384147  142.703219  164.989197  5.594212
  7761.309  7761.300  0.500  3.383361  142.683246  165.020371  5.599672
  7761.669  7761.600  0.500  3.382562  142.656241  164.975374  5.602617
  7761.774  7761.800  0.500  3.382389  142.628664  164.919101  5.601676
  7762.816  7762.790  0.500  3.380368  142.578224  164.941211  5.613760
  7763.775  7763.790  0.500  3.377914  142.571759  164.987071  5.629121
  7764.799  7764.810  0.500  3.374692  142.548622  164.969736  5.646691
  7765.844  7765.860  0.500  3.370459  142.529147  164.993301  5.671458
  7766.904  7766.920  0.500  3.365436  142.501038  165.010588  5.700615
  7767.988  7768.000  0.500  3.359023  142.483099  164.996409  5.736798
  7769.091  7769.100  0.500  3.352086  142.467358  165.037794  5.778177
  7770.209  7770.220  0.500  3.345201  142.459518  165.093951  5.820076
  7771.359  7771.360  0.500  3.338084  142.432051  165.091637  5.861563
  7772.503  7772.510  0.500  3.331648  142.413103  165.085885  5.899209
  7773.682  7773.690  0.500  3.325384  142.387202  165.068309  5.935640
  7774.881  7774.880  0.500  3.319977  142.371319  165.074798  5.968057
  7776.102  7776.100  0.500  3.315140  142.354187  165.087620  5.997461
  7777.326  7777.330  0.500  3.310971  142.322299  165.102010  6.023044
  7778.583  7778.580  0.500  3.307845  142.295377  165.097508  6.041735
  7779.851  7779.850  0.500  3.305665  142.277886  165.110910  6.055415
  7781.141  7781.140  0.500  3.304491  142.254468  165.141040  6.063631
  7782.439  7782.450  0.500  3.304530  142.234582  165.182565  6.064917
  7783.781  7783.780  0.500  3.305619  142.225022  165.200555  6.058979
  7785.131  7785.130  0.500  3.307243  142.193884  165.193492  6.048888
  7786.500  7786.500  0.500  3.309468  142.176617  165.231736  6.036844
  7787.877  7787.880  0.500  3.311767  142.136963  165.225834  6.022763
  7789.293  7789.290  0.500  3.314240  142.118295  165.246387  6.008638
  7790.708  7790.710  0.500  3.316453  142.102828  165.306971  5.997548
  7792.143  7792.150  0.500  3.318470  142.079701  165.344752  5.986832
  7793.608  7793.610  0.500  3.320748  142.048657  165.351670  5.973462
  7795.094  7795.090  0.500  3.322023  142.017130  165.374136  5.966661
  7796.591  7796.590  0.500  3.322556  141.994494  165.383522  5.963818
  7798.107  7798.110  0.500  3.322464  141.957617  165.377325  5.964146
  7799.655  7799.650  0.500  3.322033  141.936618  165.400258  5.967543
  7801.211  7801.210  0.500  3.321405  141.911687  165.423175  5.972121
  7802.778  7802.780  0.500  3.320812  141.883151  165.438573  5.976219
  7804.387  7804.380  0.500  3.319702  141.851594  165.477188  5.984249
  7805.995  7805.990  0.500  3.318339  141.823412  165.536411  5.994557
  7807.631  7807.630  0.500  3.316896  141.798195  165.507324  6.002159
  7809.290  7809.280  0.500  3.314841  141.756424  165.519494  6.014951
  7810.959  7810.950  0.500  3.312393  141.720585  165.528612  6.030025
  7812.642  7812.640  0.500  3.309255  141.689648  165.554603  6.049924
  7814.365  7814.350  0.500  3.305680  141.663467  165.578465  6.072469
  7816.079  7816.080  0.500  3.301909  141.612473  165.586293  6.095700
  7817.840  7817.830  0.500  3.298155  141.589821  165.635405  6.120442
  7819.599  7819.590  0.500  3.294647  141.574119  165.639219  6.142088
  7821.388  7821.380  0.500  3.291849  141.545639  165.642196  6.159413
  7823.193  7823.180  0.500  3.289746  141.508230  165.655758  6.172880
  7825.013  7825.010  0.500  3.287923  141.478788  165.692258  6.185508
  7826.864  7826.850  0.500  3.286440  141.452541  165.725985  6.195952
  7828.706  7828.710  0.500  3.284805  141.439326  165.776740  6.207987
  7830.597  7830.590  0.500  3.282764  141.388979  165.796715  6.221421
  7832.490  7832.490  0.500  3.280462  140.399897  164.682645  6.193857
  7834.411  7834.410  0.500  3.278272  141.242149  165.719566  6.246526
  7836.351  7836.350  0.500  3.275885  141.250216  165.801101  6.264529
  7838.306  7838.310  0.500  3.273215  141.200433  165.831572  6.282435
  7840.290  7840.280  0.500  3.270925  140.166000  164.666456  6.252598
  7842.280  7842.280  0.500  3.268448  141.117538  165.820964  6.312052
  7844.303  7844.290  0.500  3.266101  141.098566  165.893038  6.329635
  7846.322  7846.320  0.500  3.263808  140.044920  164.737505  6.299975
  7848.384  7848.380  0.500  3.261350  140.996985  165.929862  6.361186
  7850.455  7850.450  0.500  3.259242  140.987810  166.006208  6.377545
  7852.548  7852.540  0.500  3.256917  140.967089  165.997817  6.392069
  7854.656  7854.650  0.500  3.255034  139.987415  164.921716  6.362602
  7856.788  7856.780  0.500  3.253190  140.780496  165.940838  6.413734
  7858.927  7858.920  0.500  3.251743  140.775952  166.025164  6.426286
  7861.096  7861.090  0.500  3.250889  140.745142  166.065455  6.433333
  7863.285  7863.280  0.500  3.250095  140.700282  166.053119  6.437968
  7865.483  7865.480  0.500  3.249247  140.658639  166.039032  6.442881
  7867.712  7867.700  0.500  3.248090  140.626510  166.089880  6.452313
  7869.950  7869.950  0.500  3.246692  140.585474  166.127278  6.462794
  7872.215  7872.210  0.500  3.244695  140.545249  166.162415  6.477087
  7874.495  7874.490  0.500  3.242728  140.504271  166.204784  6.491493
  7876.808  7876.790  0.500  3.240640  140.472753  166.227984  6.505973
  7879.115  7879.110  0.500  3.237968  140.428063  166.246876  6.524119
  7881.458  7881.450  0.500  3.235065  140.390015  166.299824  6.545170
  7883.802  7883.800  0.500  3.232091  140.353346  166.312287  6.565157
  7886.192  7886.180  0.500  3.228720  140.492412  166.568946  6.597487
  7888.579  7888.570  0.500  3.225725  140.652497  166.834352  6.627825
  7891.002  7890.990  0.500  3.222604  140.628384  166.866403  6.649818
  7893.427  7893.420  0.500  3.219541  140.598204  166.916344  6.672211
  7895.885  7895.870  0.500  3.217277  140.563982  166.972340  6.689583
  7898.355  7898.350  0.500  3.215184  140.489278  166.956099  6.702942
  7900.851  7900.840  0.500  3.213521  140.129729  166.606609  6.700049
  7903.353  7903.350  0.500  3.211663  140.331897  166.889859  6.723916
  7905.890  7905.870  0.500  3.209972  140.296988  166.937235  6.737208
  7908.431  7908.420  0.500  3.208403  140.256464  166.975553  6.749336
  7911.003  7910.990  0.500  3.206613  140.208617  166.998694  6.762364
  7913.571  7913.570  0.500  3.204478  140.158588  166.978850  6.776012
  7916.195  7916.180  0.500  3.202406  140.100185  166.988225  6.790452
  7918.812  7918.800  0.500  3.199805  140.042911  167.021645  6.809498
  7921.463  7921.450  0.500  3.197146  139.982170  167.049796  6.828780
  7924.122  7924.110  0.500  3.194424  139.920615  167.058541  6.847748
  7926.798  7926.790  0.500  3.191383  139.840920  167.041076  6.867887
  7929.511  7929.490  0.500  3.188271  139.387777  166.564047  6.869624
  7932.229  7932.210  0.500  3.185289  139.691218  167.025935  6.909246
  7934.971  7934.950  0.500  3.182175  139.606749  167.018295  6.930473
  7937.711  7937.700  0.500  3.179635  139.369412  166.822357  6.939946
  7940.494  7940.480  0.500  3.176453  138.351914  165.659846  6.913550
  7943.287  7943.270  0.500  3.174565  139.612163  167.272321  6.994039
  7946.104  7946.090  0.500  3.171971  139.518917  167.252863  7.011392
  7948.942  7948.920  0.500  3.169704  139.429829  167.249915  7.027178
  7951.787  7951.770  0.500  3.167459  138.672261  166.487163  7.010853
  7954.664  7954.650  0.500  3.165489  139.275333  167.270424  7.057728
  7957.559  7957.540  0.500  3.163467  139.209609  167.229941  7.070299
  7960.468  7960.450  0.500  3.160963  139.125111  167.239800  7.088445
  7963.395  7963.370  0.500  3.158757  139.038874  167.245187  7.104328
  7966.335  7966.320  0.500  3.156008  138.948100  167.240914  7.123697
  7969.304  7969.290  0.500  3.153232  138.846218  167.194620  7.141528
  7972.281  7972.270  0.500  3.150463  138.716277  167.136613  7.158845
  7975.296  7975.280  0.500  3.147529  138.543101  167.032259  7.175393
  7978.319  7978.300  0.500  3.144438  138.365691  166.899282  7.191880
