# XDI/1.0 BlueSky/1.10.0 BMM/2023-1.0-py310-tiled
# Beamline.name: BMM (06BM) -- Beamline for Materials Measurement (NIST)
# Beamline.xray_source: NSLS-II three-pole wiggler
# Beamline.collimation: paraboloid mirror, 5 nm Rh on 30 nm Pt
# Beamline.focusing: not in use
# Beamline.harmonic_rejection: flat mirror, Pt stripe, pitch = 7.0 mrad relative to beam
# Beamline.software: Bluesky 1.10.0, Ophyd 1.7.0, DataBroker 2.0.0b13, Python 3.10.8, 2023-1.0-py310-tiled
# Detector.I0: 10 cm N2
# Detector.I1: 25 cm N2
# Detector.I2: 25 cm N2
# Element.symbol: Eu
# Element.edge: L1
# Element.reference: Eu
# Element.reference_material: Eu2O3
# Facility.name: NSLS-II
# Facility.energy: 3.0
# Facility.current: 400.2
# Facility.mode: top-off
# Facility.GUP: 301027
# Facility.SAF: 310583
# Facility.cycle: 2023-2
# Mono.name: Si(111)
# Mono.d_spacing: 3.1351860
# Mono.encoder_resolution: 0.0000050 deg/ct
# Mono.angle_offset: 16.0754326 deg
# Mono.scan_mode: pseudo channel cut
# Mono.scan_type: step
# Mono.direction: forward in energy
# Sample.name: Eu2O3
# Sample.prep: PEG pellet
# Sample.x: 109.138 mm
# Sample.y: 153.150 mm
# Sample.SDD_position: 205.000 mm
# Scan.experimenters: Bruce Ravel
# Scan.edge_energy: 8052.0
# Scan.start_time: 2023-05-28T14:34:35
# Scan.end_time: 2023-05-28T14:42:42
# Scan.transient_id: 78763
# Scan.uid: 97f92405-185c-420c-af31-0743c30560e7
# Scan.plot_hint: ln(It/Ir)  --  ln($6/$7)
# Column.1: energy eV
# Column.2: requested_energy eV
# Column.3: measurement_time seconds
# Column.4: xmu 
# Column.5: I0 nA
# Column.6: It nA
# Column.7: Ir nA
# ///////////
# sample courtesy Martin Stennett, University of Sheffield
# -----------
# energy  requested_energy  measurement_time  xmu  I0  It  Ir
  7852.001  7852.000  0.500  1.518279  140.881082  165.912950  36.349639
  7862.010  7862.000  0.500  1.514488  140.748500  166.118860  36.532976
  7872.040  7872.000  0.500  1.509829  140.675706  166.359964  36.756879
  7882.068  7882.000  0.500  1.504526  140.570949  166.555123  36.995634
  7892.027  7892.000  0.500  1.499030  140.465837  166.739654  37.240751
  7902.046  7902.000  0.500  1.493645  140.264061  166.820511  37.459974
  7912.011  7912.000  0.500  1.488954  140.185941  167.030560  37.683507
  7922.029  7922.000  0.500  1.484403  140.073305  167.186305  37.890689
  7932.022  7932.000  0.500  1.479511  139.906119  167.298716  38.102109
  7942.025  7942.000  0.500  1.474221  139.974249  167.735085  38.404121
  7952.014  7952.000  0.500  1.469216  139.383198  167.326074  38.502686
  7962.012  7962.000  0.500  1.464557  139.632612  167.924250  38.820780
  7972.023  7972.000  0.500  1.460200  139.511980  168.096812  39.030361
  7982.016  7982.000  0.500  1.455778  139.173489  167.974328  39.174772
  7992.022  7992.000  0.500  1.451220  139.238619  168.379252  39.448597
  8002.415  8002.000  0.500  1.446364  139.156173  168.596504  39.691795
  8011.965  8012.000  0.500  1.441720  139.003037  168.678345  39.895900
  8021.974  8022.000  0.500  1.436924  138.867524  168.836080  40.125187
  8023.979  8024.000  0.500  1.436122  138.819643  168.825189  40.154778
  8025.976  8026.000  0.500  1.435174  138.781651  168.825564  40.192974
  8027.977  8028.000  0.500  1.434421  138.747579  168.849944  40.229059
  8029.984  8030.000  0.500  1.433584  138.702768  168.890371  40.272363
  8031.981  8032.000  0.500  1.432745  138.675361  168.933080  40.316371
  8033.977  8034.000  0.500  1.432039  138.637120  168.943053  40.347245
  8035.974  8036.000  0.500  1.431253  138.603754  168.948070  40.380139
  8037.974  8038.000  0.500  1.430591  138.571118  168.977963  40.414045
  8039.979  8040.000  0.500  1.430007  138.524164  168.971225  40.436020
  8041.976  8042.000  0.500  1.429407  138.486669  168.984532  40.463487
  8042.275  8042.300  0.500  1.429363  138.463058  168.970829  40.461997
  8042.573  8042.600  0.500  1.429293  138.449523  168.984070  40.468006
  8042.875  8042.900  0.500  1.429185  138.436942  168.948005  40.463720
  8043.177  8043.200  0.500  1.429098  138.436493  168.961964  40.470609
  8043.484  8043.500  0.500  1.429111  138.425318  168.969294  40.471825
  8043.783  8043.800  0.500  1.429055  138.424167  168.971002  40.474515
  8044.079  8044.100  0.500  1.428964  138.413540  168.968816  40.477665
  8044.386  8044.400  0.500  1.428946  138.409376  169.004769  40.487001
  8044.685  8044.700  0.500  1.428891  138.395818  168.944246  40.474720
  8044.981  8045.000  0.500  1.428835  138.390658  168.927110  40.472873
  8045.286  8045.300  0.500  1.428770  138.383471  168.970096  40.485822
  8045.585  8045.600  0.500  1.428696  138.379613  168.958482  40.486017
  8045.893  8045.900  0.500  1.428631  138.370491  168.927640  40.481271
  8046.192  8046.200  0.500  1.428674  138.356946  168.954121  40.485897
  8046.485  8046.500  0.500  1.428613  138.350143  168.982501  40.495156
  8046.787  8046.800  0.500  1.428576  138.348779  168.960929  40.491470
  8047.081  8047.100  0.500  1.428636  138.328215  168.915743  40.478203
  8047.388  8047.400  0.500  1.428597  138.319163  168.911929  40.478888
  8047.685  8047.700  0.500  1.428661  138.314653  168.916598  40.477417
  8047.981  8048.000  0.500  1.428719  138.320148  168.935036  40.479494
  8048.289  8048.300  0.500  1.428765  138.300265  168.922005  40.474500
  8048.591  8048.600  0.500  1.428788  138.295715  168.912519  40.471298
  8048.887  8048.900  0.500  1.428856  138.289728  168.926913  40.472005
  8049.198  8049.200  0.500  1.429012  138.273510  168.922680  40.464646
  8049.492  8049.500  0.500  1.429068  138.273917  168.927258  40.463489
  8049.797  8049.800  0.500  1.429185  138.260719  168.936157  40.460910
  8050.091  8050.100  0.500  1.429305  138.257627  168.938753  40.456658
  8050.398  8050.400  0.500  1.429423  138.241808  168.935448  40.451081
  8050.698  8050.700  0.500  1.429533  138.216139  168.911407  40.440870
  8051.003  8051.000  0.500  1.429763  138.220906  168.911970  40.431740
  8051.300  8051.300  0.500  1.430022  138.213059  168.912502  40.421367
  8051.593  8051.600  0.500  1.430314  138.198441  168.903044  40.407305
  8051.893  8051.900  0.500  1.430691  138.179556  168.884947  40.387776
  8052.201  8052.200  0.500  1.430986  138.171592  168.875423  40.373580
  8052.489  8052.500  0.500  1.431363  138.168127  168.903522  40.365067
  8052.795  8052.800  0.500  1.431764  138.152887  168.871124  40.341131
  8053.091  8053.100  0.500  1.432392  138.129297  168.851892  40.311211
  8053.394  8053.400  0.500  1.432931  138.124212  168.875712  40.295174
  8053.699  8053.700  0.500  1.433638  138.104099  168.878499  40.267391
  8053.988  8054.000  0.500  1.434488  138.108555  168.902162  40.238788
  8054.296  8054.300  0.500  1.435302  138.082074  168.883796  40.201685
  8054.598  8054.600  0.500  1.436241  138.064377  168.869716  40.160587
  8054.898  8054.900  0.500  1.437269  138.048758  168.843641  40.113151
  8055.201  8055.200  0.500  1.438310  138.025897  168.814817  40.064585
  8055.503  8055.500  0.500  1.439295  137.999838  168.795210  40.020479
  8055.800  8055.800  0.500  1.440213  137.964120  168.791811  39.982967
  8056.103  8056.100  0.500  1.441220  137.931007  168.748564  39.932477
  8056.400  8056.400  0.500  1.442232  137.884713  168.715666  39.884314
  8056.697  8056.700  0.500  1.443166  137.812454  168.619513  39.824343
  8056.997  8057.000  0.500  1.443951  137.725401  168.509244  39.767088
  8057.300  8057.300  0.500  1.444813  137.579247  168.343291  39.693677
  8057.600  8057.600  0.500  1.445627  137.344434  168.075044  39.598198
  8057.894  8057.900  0.500  1.446455  136.809079  167.431387  39.413891
  8058.200  8058.200  0.500  1.447167  135.317446  165.592874  38.953374
  8058.495  8058.500  0.500  1.447935  133.036796  162.802996  38.267690
  8058.789  8058.800  0.500  1.448654  131.981810  161.528127  37.940745
  8059.098  8059.100  0.500  1.449488  132.777196  162.495765  38.136209
  8059.398  8059.400  0.500  1.450436  134.494465  164.641115  38.603075
  8059.695  8059.700  0.500  1.451360  136.421642  166.993544  39.118472
  8060.006  8060.000  0.500  1.452375  137.659851  168.527894  39.437851
  8060.301  8060.300  0.500  1.453275  138.008565  168.971761  39.506168
  8060.596  8060.600  0.500  1.454221  138.070036  169.024187  39.481040
  8060.910  8060.900  0.500  1.455235  138.088156  169.042943  39.445425
  8061.196  8061.200  0.500  1.456320  138.085177  169.079040  39.411053
  8061.505  8061.500  0.500  1.457528  138.064434  169.064092  39.359973
  8061.805  8061.800  0.500  1.458799  138.053293  169.063877  39.309962
  8062.100  8062.100  0.500  1.460070  138.032791  169.063278  39.259885
  8062.400  8062.400  0.500  1.461548  138.023928  169.055523  39.200097
  8062.703  8062.700  0.500  1.463037  138.003329  169.035945  39.137230
  8062.993  8063.000  0.500  1.464482  138.003011  169.043938  39.082571
  8063.293  8063.300  0.500  1.466130  137.992498  169.045959  39.018695
  8063.596  8063.600  0.500  1.467768  137.969636  169.002493  38.944794
  8063.891  8063.900  0.500  1.469562  138.262484  169.354284  38.955918
  8064.194  8064.200  0.500  1.471320  138.427744  169.577321  38.938713
  8064.492  8064.500  0.500  1.473331  138.442161  169.609065  38.867746
  8064.796  8064.800  0.500  1.475168  138.416148  169.582258  38.790303
  8065.102  8065.100  0.500  1.477173  138.394451  169.553835  38.706114
  8065.405  8065.400  0.500  1.479120  138.392525  169.578215  38.636376
  8065.708  8065.700  0.500  1.481040  138.366221  169.584988  38.563800
  8066.003  8066.000  0.500  1.482795  138.345984  169.570737  38.492970
  8066.301  8066.300  0.500  1.484510  138.317213  169.525875  38.416810
  8066.602  8066.600  0.500  1.486115  138.301566  169.465243  38.341485
  8066.900  8066.900  0.500  1.487693  138.265838  169.465937  38.281185
  8067.203  8067.200  0.500  1.489067  138.236490  169.424832  38.219374
  8067.499  8067.500  0.500  1.490311  138.199486  169.396593  38.165499
  8067.791  8067.800  0.500  1.491448  138.156674  169.371908  38.116549
  8068.095  8068.100  0.500  1.492503  138.100474  169.340350  38.069262
  8068.398  8068.400  0.500  1.493416  138.011026  169.238839  38.011733
  8068.705  8068.700  0.500  1.494057  137.907765  169.081942  37.952180
  8069.003  8069.000  0.500  1.494730  137.724124  168.823827  37.868746
  8069.304  8069.300  0.500  1.495252  137.395505  168.436442  37.762118
  8069.607  8069.600  0.500  1.495614  136.574354  167.431881  37.523306
  8069.903  8069.900  0.500  1.495948  134.809462  165.275859  37.027757
  8070.204  8070.200  0.500  1.495939  132.743208  162.768577  36.466364
  8070.507  8070.500  0.500  1.496041  132.225290  162.180525  36.330904
  8070.800  8070.800  0.500  1.496122  133.452373  163.710456  36.670688
  8071.096  8071.100  0.500  1.495968  135.392044  166.085012  37.208304
  8071.402  8071.400  0.500  1.495872  137.160483  168.242600  37.695285
  8071.698  8071.700  0.500  1.495787  138.103853  169.401735  37.958213
  8071.996  8072.000  0.500  1.495555  138.315671  169.661396  38.025232
  8072.297  8072.300  0.500  1.495371  138.349864  169.707977  38.042667
  8072.601  8072.600  0.500  1.495068  138.361343  169.762453  38.066417
  8072.891  8072.900  0.500  1.494786  138.355720  169.756203  38.075744
  8073.198  8073.200  0.500  1.494507  138.334105  169.740306  38.082808
  8073.505  8073.500  0.500  1.494141  138.316892  169.734752  38.095490
  8073.803  8073.800  0.500  1.493807  138.301966  169.740541  38.109506
  8074.096  8074.100  0.500  1.493440  138.281019  169.721581  38.119235
  8074.406  8074.400  0.500  1.493099  138.252203  169.696932  38.126704
  8074.707  8074.700  0.500  1.492756  138.240954  169.698216  38.140078
  8074.997  8075.000  0.500  1.492487  138.225192  169.665303  38.142945
  8075.298  8075.300  0.500  1.492085  138.199468  169.642572  38.153155
  8075.605  8075.600  0.500  1.491677  138.181070  169.661936  38.173089
  8075.896  8075.900  0.500  1.491396  138.147133  169.594692  38.168679
  8076.189  8076.200  0.500  1.490941  138.115804  169.525084  38.170380
  8076.496  8076.500  0.500  1.490633  138.090035  169.513354  38.179512
  8076.794  8076.800  0.500  1.490186  138.050278  169.472075  38.187251
  8076.993  8077.000  0.500  1.490038  138.016855  169.431675  38.183832
  8078.000  8077.990  0.500  1.488714  137.713888  169.080795  38.155236
  8079.009  8078.990  0.500  1.487426  135.327330  166.173567  37.547512
  8080.025  8080.010  0.500  1.485740  133.311426  163.771308  37.067129
  8081.070  8081.060  0.500  1.483999  138.130196  169.703791  38.476789
  8082.132  8082.120  0.500  1.481898  138.261599  169.915639  38.605864
  8083.217  8083.200  0.500  1.479565  138.212721  169.886380  38.689373
  8084.325  8084.300  0.500  1.477149  138.161070  169.874506  38.780237
  8085.429  8085.420  0.500  1.474641  138.120452  169.843970  38.870648
  8086.568  8086.560  0.500  1.472086  138.065143  169.799402  38.959847
  8087.730  8087.710  0.500  1.469711  137.996008  169.767409  39.045149
  8088.903  8088.890  0.500  1.467600  137.911113  169.691449  39.110149
  8090.087  8090.080  0.500  1.465756  137.664165  169.395967  39.114087
  8091.309  8091.300  0.500  1.464267  134.324912  165.332732  38.232787
  8092.539  8092.530  0.500  1.462737  135.289252  166.594045  38.583439
  8093.798  8093.780  0.500  1.461461  138.065053  170.046430  39.433281
  8095.054  8095.050  0.500  1.460376  138.065417  170.066600  39.480788
  8096.355  8096.340  0.500  1.459441  138.019026  170.006787  39.503816
  8097.663  8097.650  0.500  1.458956  137.980323  170.004321  39.522395
  8098.991  8098.980  0.500  1.458551  137.944296  170.008275  39.539345
  8100.338  8100.330  0.500  1.458546  137.932762  170.039987  39.546898
  8101.709  8101.700  0.500  1.458684  137.911934  170.059822  39.546074
  8103.091  8103.080  0.500  1.458810  137.868433  170.038208  39.536069
  8104.500  8104.490  0.500  1.459215  137.834452  170.051345  39.523101
  8105.922  8105.910  0.500  1.459673  137.794546  170.055096  39.505886
  8107.363  8107.350  0.500  1.460040  137.764740  170.072089  39.495341
  8108.814  8108.810  0.500  1.460489  137.751185  170.090201  39.481819
  8110.301  8110.290  0.500  1.460806  137.723566  170.092841  39.469886
  8111.804  8111.790  0.500  1.461181  137.682018  170.081051  39.452382
  8113.320  8113.310  0.500  1.461503  137.676989  170.127029  39.450333
  8114.861  8114.850  0.500  1.461666  137.648660  170.114102  39.440890
  8116.426  8116.410  0.500  1.461845  137.621763  170.160292  39.444544
  8117.986  8117.980  0.500  1.461803  137.599097  170.153327  39.444576
  8119.600  8119.580  0.500  1.461472  137.566949  170.149681  39.456794
  8121.197  8121.190  0.500  1.460983  137.546577  170.179406  39.483005
  8122.838  8122.830  0.500  1.460302  137.527474  170.189582  39.512248
  8124.499  8124.480  0.500  1.459425  137.478432  170.185031  39.545865
  8126.164  8126.150  0.500  1.458268  137.450483  170.203469  39.595928
  8127.854  8127.840  0.500  1.456919  137.418596  170.220771  39.653432
  8129.569  8129.550  0.500  1.455388  137.387419  170.226441  39.715499
  8131.281  8131.280  0.500  1.453767  137.351571  170.237047  39.782391
  8133.044  8133.030  0.500  1.452114  137.316876  170.228559  39.846236
  8134.800  8134.790  0.500  1.450558  137.293687  170.249992  39.913312
  8136.591  8136.580  0.500  1.449167  137.251453  170.246045  39.967943
  8138.392  8138.380  0.500  1.447867  137.226797  170.285718  40.029278
  8140.218  8140.210  0.500  1.446641  137.190530  170.337267  40.090482
  8142.062  8142.050  0.500  1.445520  137.152872  170.335813  40.135108
  8143.922  8143.910  0.500  1.444597  137.115516  170.319039  40.168239
  8145.796  8145.790  0.500  1.443672  137.081963  170.334206  40.208983
  8147.700  8147.690  0.500  1.442848  137.047755  170.328392  40.240761
  8149.622  8149.610  0.500  1.442062  137.011454  170.345642  40.276456
  8151.568  8151.550  0.500  1.441152  136.977278  170.357735  40.316023
  8153.526  8153.510  0.500  1.440052  136.936314  170.368728  40.362976
  8155.501  8155.480  0.500  1.439059  136.898844  170.368553  40.403026
  8157.490  8157.480  0.500  1.438052  136.873167  170.392816  40.449524
  8159.505  8159.490  0.500  1.436809  136.838166  170.406666  40.503112
  8161.532  8161.520  0.500  1.435737  136.783588  170.406275  40.546440
  8163.592  8163.580  0.500  1.434590  136.749509  170.423120  40.597023
  8165.661  8165.650  0.500  1.433437  136.726789  170.462133  40.653163
  8167.746  8167.740  0.500  1.432414  136.674649  170.468115  40.696163
  8169.864  8169.850  0.500  1.431401  136.636108  170.467846  40.737356
  8171.985  8171.980  0.500  1.430541  136.602724  170.476030  40.774377
  8174.139  8174.120  0.500  1.429685  136.558472  170.486564  40.811799
  8176.306  8176.290  0.500  1.428857  136.511971  170.493348  40.847228
  8178.491  8178.480  0.500  1.428080  136.468231  170.495648  40.879562
  8180.697  8180.680  0.500  1.427350  136.421333  170.485984  40.907068
  8182.910  8182.900  0.500  1.426703  136.377713  170.514495  40.940382
  8185.165  8185.150  0.500  1.426170  136.350210  170.524455  40.964630
  8187.426  8187.410  0.500  1.425458  136.292249  170.479975  40.983094
  8189.706  8189.690  0.500  1.424647  136.268686  170.540723  41.030986
  8192.008  8191.990  0.500  1.423671  136.235315  170.576809  41.079720
  8194.322  8194.310  0.500  1.422601  136.174040  170.539466  41.114712
  8196.664  8196.650  0.500  1.421371  136.144227  170.577224  41.174421
  8199.013  8199.000  0.500  1.420144  136.093413  170.607063  41.232172
  8201.389  8201.380  0.500  1.418930  136.048766  170.570715  41.273474
  8203.787  8203.770  0.500  1.417580  136.007453  170.597524  41.335734
  8206.200  8206.190  0.500  1.416201  135.959308  170.621059  41.398491
  8208.636  8208.620  0.500  1.414880  135.915177  170.643887  41.458765
  8211.081  8211.070  0.500  1.413408  135.863702  170.666777  41.525369
  8213.571  8213.550  0.500  1.411972  135.823016  170.656786  41.582608
  8216.054  8216.040  0.500  1.410642  135.765587  170.647148  41.635596
  8218.568  8218.550  0.500  1.409478  135.704275  170.646255  41.683911
  8221.092  8221.070  0.500  1.408415  135.652696  170.661718  41.732002
  8223.638  8223.620  0.500  1.407398  135.612452  170.651853  41.772060
  8226.211  8226.190  0.500  1.406383  135.567114  170.666995  41.818167
  8228.778  8228.770  0.500  1.405407  135.509756  170.647102  41.854145
  8231.407  8231.380  0.500  1.404445  135.464390  170.685514  41.903862
  8234.011  8234.000  0.500  1.403413  135.399540  170.699090  41.950459
  8236.679  8236.650  0.500  1.402254  135.339341  170.677333  41.993745
  8239.299  8239.310  0.500  1.401121  135.262125  170.670647  42.039690
  8241.981  8241.990  0.500  1.400063  135.208654  170.675762  42.085477
  8244.698  8244.690  0.500  1.398689  135.168098  170.696250  42.148414
  8247.416  8247.410  0.500  1.397355  135.111471  170.657450  42.195062
  8250.159  8250.150  0.500  1.396166  135.034879  170.663353  42.246710
  8252.922  8252.900  0.500  1.394812  134.976109  170.698505  42.312663
  8255.699  8255.680  0.500  1.393393  134.913777  170.675280  42.366993
  8258.486  8258.470  0.500  1.392039  134.846567  170.685399  42.426921
  8261.292  8261.290  0.500  1.390645  134.783264  170.661822  42.480235
  8264.139  8264.120  0.500  1.389385  134.714472  170.655648  42.532243
  8266.984  8266.970  0.500  1.388106  134.655063  170.628312  42.579875
  8269.859  8269.850  0.500  1.386890  134.580796  170.581464  42.619991
  8272.752  8272.740  0.500  1.385715  134.511621  170.596851  42.673942
  8275.666  8275.650  0.500  1.384612  134.458251  170.627056  42.728591
  8278.590  8278.570  0.500  1.383419  133.230245  169.114513  42.400353
  8281.537  8281.520  0.500  1.382244  134.227551  170.448009  42.784957
  8284.501  8284.490  0.500  1.381069  134.211446  170.510653  42.850977
