# XDI/1.0 BlueSky/1.10.0 BMM/2023-1.0-py310-tiled
# Beamline.name: BMM (06BM) -- Beamline for Materials Measurement (NIST)
# Beamline.xray_source: NSLS-II three-pole wiggler
# Beamline.collimation: paraboloid mirror, 5 nm Rh on 30 nm Pt
# Beamline.focusing: not in use
# Beamline.harmonic_rejection: flat mirror, Pt stripe, pitch = 7.0 mrad relative to beam
# Beamline.software: Bluesky 1.10.0, Ophyd 1.7.0, DataBroker 2.0.0b13, Python 3.10.8, 2023-1.0-py310-tiled
# Detector.I0: 10 cm N2
# Detector.I1: 25 cm N2
# Detector.I2: 25 cm N2
# Element.symbol: Y
# Element.edge: K
# Element.reference: Y
# Element.reference_material: Y2O3
# Facility.name: NSLS-II
# Facility.energy: 3.0
# Facility.current: 400.7
# Facility.mode: top-off
# Facility.GUP: 301027
# Facility.SAF: 310583
# Facility.cycle: 2023-2
# Mono.name: Si(111)
# Mono.d_spacing: 3.1351860
# Mono.encoder_resolution: 0.0000050 deg/ct
# Mono.angle_offset: 16.0754326 deg
# Mono.scan_mode: pseudo channel cut
# Mono.scan_type: step
# Mono.direction: forward in energy
# Sample.name: Y2O3
# Sample.prep: PEG pellet
# Sample.x: 109.138 mm
# Sample.y: 153.150 mm
# Sample.SDD_position: 205.000 mm
# Scan.experimenters: Bruce Ravel
# Scan.edge_energy: 17038.4
# Scan.start_time: 2023-05-28T22:07:49
# Scan.end_time: 2023-05-28T22:15:23
# Scan.transient_id: 79057
# Scan.uid: 97cdf0a0-fd3d-4ca7-806e-3b001e02e95a
# Scan.plot_hint: ln(It/Ir)  --  ln($6/$7)
# Column.1: energy eV
# Column.2: requested_energy eV
# Column.3: measurement_time seconds
# Column.4: xmu 
# Column.5: I0 nA
# Column.6: It nA
# Column.7: Ir nA
# ///////////
# sample courtesy Martin Stennett, University of Sheffield
# -----------
# energy  requested_energy  measurement_time  xmu  I0  It  Ir
  16838.342  16838.400  0.500  0.280476  15.803123  29.288501  22.125248
  16848.327  16848.400  0.500  0.279952  17.644971  32.704785  24.718941
  16858.523  16858.400  0.500  0.279658  17.552096  32.541642  24.602853
  16868.282  16868.400  0.500  0.279163  17.479854  32.408540  24.514364
  16878.290  16878.400  0.500  0.278838  17.464851  32.384529  24.504169
  16888.297  16888.400  0.500  0.278377  17.411296  32.286449  24.441215
  16898.317  16898.400  0.500  0.278192  17.368504  32.208853  24.386983
  16908.335  16908.400  0.500  0.277765  17.313191  32.108962  24.321731
  16918.316  16918.400  0.500  0.277589  17.242827  31.985047  24.232136
  16928.321  16928.400  0.500  0.277270  17.212738  31.927553  24.196289
  16938.326  16938.400  0.500  0.277144  17.113625  31.743616  24.059922
  16948.354  16948.400  0.500  0.276895  16.288057  30.219171  22.910195
  16958.332  16958.400  0.500  0.276803  17.249487  32.004623  24.266024
  16968.385  16968.400  0.500  0.277069  17.177601  31.873382  24.160086
  16978.336  16978.400  0.500  0.277196  17.102116  31.735141  24.052253
  16988.349  16988.400  0.500  0.277936  17.051654  31.642386  23.964223
  16998.349  16998.400  0.500  0.278965  17.012226  31.572109  23.886389
  17008.336  17008.400  0.500  0.280825  16.964474  31.489548  23.779672
  17010.314  17010.400  0.500  0.281393  16.958516  31.479529  23.758590
  17012.306  17012.400  0.500  0.281892  16.949587  31.459031  23.731277
  17014.311  17014.400  0.500  0.282760  16.940157  31.445640  23.700603
  17016.278  17016.400  0.500  0.283514  16.929135  31.427826  23.669318
  17018.334  17018.400  0.500  0.284627  16.920826  31.412274  23.631300
  17020.328  17020.400  0.500  0.285978  16.910748  31.393505  23.585278
  17022.360  17022.400  0.500  0.287255  16.901590  31.379142  23.544409
  17024.341  17024.400  0.500  0.288905  16.886093  31.349295  23.483236
  17026.362  17026.400  0.500  0.291021  16.883011  31.344273  23.429836
  17028.332  17028.400  0.500  0.293755  16.873432  31.328459  23.354097
  17028.599  17028.700  0.500  0.294099  16.871194  31.319790  23.339594
  17028.916  17029.000  0.500  0.294642  16.865025  31.315021  23.323370
  17029.221  17029.300  0.500  0.295045  16.865742  31.312818  23.312326
  17029.552  17029.600  0.500  0.295527  16.867019  31.311800  23.300334
  17029.857  17029.900  0.500  0.296213  16.860366  31.309244  23.282463
  17030.137  17030.200  0.500  0.296833  16.861005  31.301297  23.262125
  17030.455  17030.500  0.500  0.297329  16.858196  31.297924  23.248076
  17030.734  17030.800  0.500  0.297924  16.859698  31.302994  23.238017
  17031.001  17031.100  0.500  0.298516  16.855273  31.298105  23.220630
  17031.332  17031.400  0.500  0.299326  16.856237  31.295205  23.199679
  17031.637  17031.700  0.500  0.300098  16.855729  31.297437  23.183436
  17031.955  17032.000  0.500  0.300874  16.850258  31.287375  23.158011
  17032.235  17032.300  0.500  0.301506  16.846381  31.279546  23.137581
  17032.527  17032.600  0.500  0.302332  16.844372  31.280759  23.119389
  17032.820  17032.900  0.500  0.303176  16.846190  31.275653  23.096103
  17033.125  17033.200  0.500  0.304105  16.842706  31.272104  23.072048
  17033.443  17033.500  0.500  0.305041  16.849961  31.281593  23.057448
  17033.761  17033.800  0.500  0.306301  16.841438  31.268935  23.019093
  17034.092  17034.100  0.500  0.307516  16.836282  31.263013  22.986795
  17034.371  17034.400  0.500  0.308254  16.833974  31.251636  22.961478
  17034.664  17034.700  0.500  0.309519  16.839000  31.259467  22.938192
  17034.944  17035.000  0.500  0.310836  16.831236  31.253093  22.903322
  17035.249  17035.300  0.500  0.312209  16.830367  31.248294  22.868403
  17035.554  17035.600  0.500  0.313656  16.830142  31.249021  22.835856
  17035.860  17035.900  0.500  0.315393  16.824624  31.236411  22.787017
  17036.152  17036.200  0.500  0.317200  16.827754  31.241585  22.749663
  17036.458  17036.500  0.500  0.318789  16.822920  31.236650  22.709944
  17036.738  17036.800  0.500  0.321048  16.819826  31.232811  22.655910
  17037.043  17037.100  0.500  0.323208  16.823865  31.237061  22.610120
  17037.361  17037.400  0.500  0.325719  16.821298  31.238090  22.554159
  17037.666  17037.700  0.500  0.328363  16.817713  31.223161  22.483851
  17037.985  17038.000  0.500  0.331851  16.811681  31.217309  22.401370
  17038.290  17038.300  0.500  0.335221  16.807712  31.206460  22.318244
  17038.595  17038.600  0.500  0.338953  16.807252  31.209968  22.237604
  17038.875  17038.900  0.500  0.343186  16.808027  31.210761  22.144226
  17039.181  17039.200  0.500  0.348163  16.804235  31.203421  22.029109
  17039.461  17039.500  0.500  0.353559  16.801671  31.201425  21.909154
  17039.792  17039.800  0.500  0.360123  16.799018  31.193998  21.760647
  17040.072  17040.100  0.500  0.366932  16.797170  31.192436  21.611888
  17040.403  17040.400  0.500  0.374851  16.800826  31.196618  21.444287
  17040.683  17040.700  0.500  0.382924  16.802990  31.199120  21.273582
  17040.976  17041.000  0.500  0.391440  16.793607  31.186530  21.084677
  17041.294  17041.300  0.500  0.401618  16.794139  31.182248  20.868297
  17041.587  17041.600  0.500  0.411676  16.797000  31.182998  20.659953
  17041.918  17041.900  0.500  0.423365  16.788068  31.175921  20.415231
  17042.236  17042.200  0.500  0.434655  16.787456  31.177341  20.186954
  17042.516  17042.500  0.500  0.445717  16.790988  31.180484  19.966885
  17042.822  17042.800  0.500  0.456763  16.785849  31.167964  19.739613
  17043.102  17043.100  0.500  0.467662  16.784944  31.166585  19.524791
  17043.407  17043.400  0.500  0.479102  16.778189  31.159123  19.298071
  17043.700  17043.700  0.500  0.491008  16.775912  31.153801  19.066412
  17044.006  17044.000  0.500  0.502801  16.775820  31.152512  18.842099
  17044.324  17044.300  0.500  0.515306  16.774127  31.146158  18.604156
  17044.592  17044.600  0.500  0.526945  16.771565  31.145271  18.388348
  17044.884  17044.900  0.500  0.539177  16.774684  31.151749  18.168567
  17045.190  17045.200  0.500  0.552649  16.770360  31.141313  17.919450
  17045.509  17045.500  0.500  0.567318  16.771897  31.147558  17.662041
  17045.802  17045.800  0.500  0.582014  16.765286  31.143219  17.401953
  17046.133  17046.100  0.500  0.598154  16.758381  31.123167  17.112318
  17046.426  17046.400  0.500  0.613007  16.761424  31.129623  16.863519
  17046.693  17046.700  0.500  0.627984  16.757603  31.127405  16.611656
  17046.999  17047.000  0.500  0.643819  16.757101  31.118246  16.345867
  17047.317  17047.300  0.500  0.660603  16.760946  31.125586  16.077602
  17047.610  17047.600  0.500  0.677367  16.755198  31.118744  15.806848
  17047.903  17047.900  0.500  0.694969  16.742410  31.098378  15.520889
  17048.209  17048.200  0.500  0.712273  16.745339  31.101051  15.255931
  17048.489  17048.500  0.500  0.729059  16.745963  31.097732  15.000391
  17048.782  17048.800  0.500  0.745911  16.746348  31.100387  14.750979
  17049.101  17049.100  0.500  0.762950  16.742868  31.095638  14.499542
  17049.381  17049.400  0.500  0.780681  16.746381  31.103679  14.248409
  17049.700  17049.700  0.500  0.799678  16.736407  31.086710  13.972651
  17050.031  17050.000  0.500  0.819009  16.733427  31.081836  13.702993
  17050.299  17050.300  0.500  0.837764  16.730537  31.079142  13.447224
  17050.605  17050.600  0.500  0.857624  16.731181  31.082012  13.184016
  17050.898  17050.900  0.500  0.877341  16.729870  31.079812  12.925698
  17051.178  17051.200  0.500  0.899265  16.726456  31.072113  12.642261
  17051.522  17051.500  0.500  0.923244  16.725407  31.064574  12.339735
  17051.790  17051.800  0.500  0.946525  16.724253  31.067974  12.057087
  17052.121  17052.100  0.500  0.972206  16.722998  31.065763  11.750548
  17052.389  17052.400  0.500  0.995862  16.719559  31.057493  11.472790
  17052.670  17052.700  0.500  1.020319  16.712721  31.050301  11.193007
  17052.988  17053.000  0.500  1.045942  16.713363  31.050389  10.909885
  17053.281  17053.300  0.500  1.070282  16.713937  31.051663  10.647980
  17053.600  17053.600  0.500  1.094876  16.715588  31.053389  10.389879
  17053.906  17053.900  0.500  1.118247  16.713394  31.046516  10.147627
  17054.199  17054.200  0.500  1.138437  16.703849  31.033687  9.940685
  17054.505  17054.500  0.500  1.156171  16.705244  31.035714  9.766595
  17054.760  17054.800  0.500  1.170217  16.702940  31.033088  9.629552
  17055.066  17055.100  0.500  1.183242  16.698394  31.018475  9.500465
  17055.372  17055.400  0.500  1.192358  16.696664  31.014615  9.413082
  17055.678  17055.700  0.500  1.198782  16.694884  31.015839  9.353174
  17055.972  17056.000  0.500  1.202253  16.695503  31.019052  9.321737
  17056.265  17056.300  0.500  1.203305  16.689747  31.008639  9.308807
  17056.571  17056.600  0.500  1.202505  16.686000  31.001179  9.314017
  17056.864  17056.900  0.500  1.200263  16.684055  30.996579  9.333533
  17057.183  17057.200  0.500  1.196773  16.686804  31.000481  9.367345
  17057.502  17057.500  0.500  1.192290  16.679864  30.985213  9.404801
  17057.808  17057.800  0.500  1.187865  16.677635  30.978978  9.444611
  17058.089  17058.100  0.500  1.183971  16.677068  30.980787  9.482013
  17058.370  17058.400  0.500  1.180543  16.669239  30.968694  9.510856
  17058.663  17058.700  0.500  1.177118  16.667431  30.962564  9.541598
  17058.982  17059.000  0.500  1.174993  16.663632  30.962547  9.561888
  17059.275  17059.300  0.500  1.173299  16.666106  30.963063  9.578257
  17059.594  17059.600  0.500  1.172696  16.658488  30.944863  9.578407
  17059.862  17059.900  0.500  1.172647  16.661561  30.956098  9.582349
  17060.194  17060.200  0.500  1.173050  16.652968  30.935804  9.572213
  17060.449  17060.500  0.500  1.174534  16.651942  30.934655  9.557662
  17060.793  17060.800  0.500  1.176282  16.650477  30.930401  9.539657
  17061.112  17061.100  0.500  1.178380  16.644689  30.924349  9.517803
  17061.406  17061.400  0.500  1.180516  16.693271  31.013568  9.524892
  17061.712  17061.700  0.500  1.182787  16.694959  31.016473  9.504180
  17062.006  17062.000  0.500  1.184747  16.698155  31.022829  9.487508
  17062.274  17062.300  0.500  1.186610  16.696412  31.019914  9.468961
  17062.593  17062.600  0.500  1.188580  16.692668  31.009973  9.447303
  17062.899  17062.900  0.500  1.190717  16.690527  31.008985  9.426828
  17063.231  17063.200  0.500  1.191995  16.684817  30.998461  9.411596
  17063.410  17063.400  0.500  1.193027  16.685602  31.000982  9.402650
  17064.405  17064.390  0.500  1.195123  16.668562  30.960101  9.370590
  17065.426  17065.390  0.500  1.192395  16.652903  30.940672  9.390298
  17066.435  17066.410  0.500  1.181963  16.626467  30.890592  9.473412
  17067.469  17067.460  0.500  1.162769  16.605495  30.853238  9.645314
  17068.568  17068.520  0.500  1.134999  16.571521  30.791703  9.897142
  17069.628  17069.600  0.500  1.106414  16.523099  30.701037  10.154148
  17070.726  17070.700  0.500  1.076902  16.443301  30.551349  10.407295
  17071.863  17071.820  0.500  1.049421  16.269052  30.228252  10.584136
  17072.962  17072.960  0.500  1.025592  15.854543  29.454602  10.561949
  17074.125  17074.110  0.500  1.003458  14.968729  27.809421  10.195198
  17075.314  17075.290  0.500  0.981890  14.099808  26.192294  9.811693
  17076.464  17076.480  0.500  0.961688  14.252469  26.477829  10.121073
  17077.678  17077.700  0.500  0.944139  15.321275  28.466478  11.073871
  17078.931  17078.930  0.500  0.931914  16.287486  30.261240  11.916859
  17080.185  17080.180  0.500  0.923208  16.641953  30.921159  12.283207
  17081.464  17081.450  0.500  0.918241  16.715320  31.056856  12.398544
  17082.768  17082.740  0.500  0.916831  16.728386  31.082151  12.426147
  17084.112  17084.050  0.500  0.919470  16.722303  31.071537  12.389163
  17085.417  17085.380  0.500  0.925907  16.710262  31.052461  12.302117
  17086.773  17086.730  0.500  0.935650  16.706945  31.045945  12.180285
  17088.130  17088.100  0.500  0.945932  16.702805  31.038469  12.052785
  17089.526  17089.480  0.500  0.955420  16.694693  31.023133  11.933068
  17090.921  17090.890  0.500  0.961643  16.683062  30.999139  11.849867
  17092.317  17092.310  0.500  0.965515  16.675505  30.988054  11.799853
  17093.752  17093.750  0.500  0.967874  16.668319  30.973175  11.766394
  17095.199  17095.210  0.500  0.970622  16.658853  30.955045  11.727232
  17096.673  17096.690  0.500  0.975478  16.649885  30.941813  11.665435
  17098.172  17098.190  0.500  0.983098  16.638834  30.922333  11.569602
  17099.736  17099.710  0.500  0.993267  16.634524  30.916072  11.450227
  17101.261  17101.250  0.500  1.004317  16.623725  30.890589  11.315054
  17102.864  17102.810  0.500  1.015427  16.615723  30.879983  11.186199
  17104.403  17104.380  0.500  1.025804  16.604732  30.862510  11.064460
  17106.019  17105.980  0.500  1.036700  16.599908  30.850491  10.940291
  17107.597  17107.590  0.500  1.046455  16.593077  30.836208  10.829077
  17109.252  17109.230  0.500  1.054898  16.587433  30.832497  10.736736
  17110.882  17110.880  0.500  1.060023  16.579545  30.817789  10.676757
  17112.551  17112.550  0.500  1.061991  16.572402  30.798054  10.648940
  17114.220  17114.240  0.500  1.060916  16.565156  30.787830  10.656852
  17115.941  17115.950  0.500  1.055877  16.559491  30.781319  10.708424
  17117.662  17117.680  0.500  1.047185  16.551061  30.760575  10.794633
  17119.447  17119.430  0.500  1.036493  16.542764  30.744252  10.904881
  17121.221  17121.190  0.500  1.025341  16.538206  30.742284  11.026457
  17123.020  17122.980  0.500  1.015685  16.523394  30.713730  11.123107
  17124.820  17124.780  0.500  1.008121  16.516010  30.699695  11.202442
  17126.645  17126.610  0.500  1.002111  16.512999  30.694205  11.267960
  17128.484  17128.450  0.500  0.995790  16.504628  30.679853  11.334102
  17130.324  17130.310  0.500  0.988532  16.497234  30.659713  11.409175
  17132.215  17132.190  0.500  0.980641  16.481823  30.639489  11.491975
  17134.107  17134.090  0.500  0.972255  16.478054  30.632808  11.586220
  17136.012  17136.010  0.500  0.964845  16.469001  30.614173  11.665298
  17137.969  17137.950  0.500  0.959016  16.466180  30.606101  11.730397
  17139.939  17139.910  0.500  0.955559  16.452220  30.586758  11.763581
  17141.884  17141.880  0.500  0.954440  16.437591  30.558464  11.765860
  17143.881  17143.880  0.500  0.955389  16.431655  30.544910  11.749476
  17145.917  17145.890  0.500  0.958238  16.423310  30.531762  11.711008
  17147.954  17147.920  0.500  0.962084  16.415488  30.517096  11.660453
  17150.016  17149.980  0.500  0.965543  16.405434  30.495004  11.611780
  17152.054  17152.050  0.500  0.968403  16.389327  30.470278  11.569227
  17154.131  17154.140  0.500  0.971400  16.387606  30.469230  11.534206
  17156.247  17156.250  0.500  0.974790  16.382654  30.459505  11.491507
  17158.402  17158.380  0.500  0.977154  16.373179  30.440699  11.457289
  17160.570  17160.520  0.500  0.978330  16.366325  30.430365  11.439945
  17162.740  17162.690  0.500  0.978122  16.350132  30.402166  11.431716
  17164.935  17164.880  0.500  0.977375  16.339567  30.384229  11.433507
  17167.131  17167.080  0.500  0.976787  16.342069  30.386780  11.441195
  17169.341  17169.300  0.500  0.976497  16.326569  30.357318  11.433420
  17171.512  17171.550  0.500  0.976530  16.317051  30.339579  11.426364
  17173.801  17173.810  0.500  0.976159  16.307158  30.325280  11.425217
  17176.142  17176.090  0.500  0.975859  16.300261  30.312285  11.423741
  17178.418  17178.390  0.500  0.976145  16.297480  30.304523  11.417550
  17180.721  17180.710  0.500  0.976810  16.281267  30.271704  11.397603
  17183.116  17183.050  0.500  0.978057  16.277449  30.267127  11.381681
  17185.420  17185.400  0.500  0.979811  16.262945  30.242359  11.352440
  17187.790  17187.780  0.500  0.982111  16.250118  30.218978  11.317603
  17190.186  17190.170  0.500  0.984948  16.248111  30.212792  11.283230
  17192.596  17192.590  0.500  0.987842  16.237522  30.200529  11.246060
  17195.033  17195.020  0.500  0.990016  16.225949  30.175162  11.212202
  17197.509  17197.470  0.500  0.990268  16.216053  30.158640  11.203242
  17199.986  17199.950  0.500  0.988283  16.203789  30.135239  11.216799
  17202.464  17202.440  0.500  0.984183  16.194953  30.123761  11.258592
  17204.981  17204.950  0.500  0.977926  16.185020  30.101168  11.320754
  17207.525  17207.470  0.500  0.969941  16.173344  30.081880  11.404203
  17210.005  17210.020  0.500  0.960659  16.162745  30.060469  11.502352
  17212.589  17212.590  0.500  0.951363  16.148085  30.038312  11.601225
  17215.149  17215.170  0.500  0.943885  16.144732  30.033634  11.686484
  17217.826  17217.780  0.500  0.938989  16.130256  30.006167  11.733106
  17220.412  17220.400  0.500  0.936190  16.125645  29.997149  11.762456
  17223.091  17223.050  0.500  0.935033  16.114604  29.977067  11.768188
  17225.718  17225.710  0.500  0.935849  16.104339  29.956171  11.750390
  17228.412  17228.390  0.500  0.939904  16.091754  29.936280  11.695065
  17231.067  17231.090  0.500  0.945781  16.080365  29.917877  11.619393
  17233.814  17233.810  0.500  0.952030  16.064411  29.884459  11.534104
  17236.588  17236.550  0.500  0.958145  16.041661  29.839135  11.446400
  17239.337  17239.300  0.500  0.964000  16.044136  29.849788  11.383645
  17242.139  17242.080  0.500  0.969018  16.036520  29.834771  11.320970
  17244.889  17244.870  0.500  0.972641  16.025675  29.814249  11.272271
  17247.667  17247.690  0.500  0.974698  16.014782  29.799260  11.243453
  17250.550  17250.520  0.500  0.974304  16.001594  29.778636  11.240093
  17253.368  17253.370  0.500  0.971697  15.995324  29.760959  11.262741
  17256.292  17256.250  0.500  0.966976  15.983210  29.738356  11.307448
  17259.204  17259.140  0.500  0.961739  15.974521  29.722913  11.360923
  17262.104  17262.050  0.500  0.956500  15.963704  29.704436  11.413497
  17264.966  17264.970  0.500  0.951985  15.928961  29.638990  11.439884
  17267.920  17267.920  0.500  0.948927  15.927415  29.639487  11.475107
  17270.901  17270.890  0.500  0.947232  15.918867  29.625664  11.489213
