# XDI/1.0 BlueSky/1.13.0a3 BMM/2024-2.0-py310-tiled
# Beamline.name: BMM (06BM) -- Beamline for Materials Measurement (NIST)
# Beamline.collimation: paraboloid mirror, 5 nm Rh on 30 nm Pt
# Beamline.xray_source: NSLS-II three-pole wiggler
# Beamline.focusing: not in use
# Beamline.harmonic_rejection: flat mirror, Pt stripe, pitch = 7.0 mrad relative to beam
# Beamline.software: Bluesky 1.13.0a4, Ophyd 1.9.0, DataBroker 2.0.0b45, Python 3.11.6, 2024-2.3-py311-tiled
# Detector.I0: 25 cm N2, NSLS2 IC
# Detector.It: 25 cm N2, NSLS2 IC
# Detector.Ir: 25 cm N2, NSLS2 IC
# Element.edge: K
# Element.symbol: Y
# Element.reference: Y
# Element.reference_material: Y foil
# Facility.name: NSLS-II
# Facility.energy: 3.0
# Facility.GUP: 316837
# Facility.SAF: 314472
# Facility.cycle: 2024-3
# Facility.current: 400.1
# Facility.mode: top-off
# Mono.name: Si(111)
# Mono.d_spacing: 3.1354865
# Mono.encoder_resolution: 5e-06
# Mono.angle_offset: 16.0940429
# Mono.direction: forward
# Mono.scan_type: step
# Mono.scan_mode: pseudo channel cut
# Sample.name: Y foil
# Sample.prep: foil on reference wheel
# Sample.SDD_position: 205.00005625
# Sample.x: 99.58832000000001
# Sample.y: 168.8347525
# Sample.wheel_slot: 5
# Sample.wheel_ring: inner
# Scan.edge_energy: 17038.4
# Scan.experimenters: Bruce Ravel
# Scan.start_time: 2024-10-28T09:25:27
# Scan.end_time: 2024-10-28T09:36:41
# Scan.uid: a1219360-4b83-40b6-aaf3-194f8ad55711
# Scan.transient_id: 1465
# Scan.plot_hint: ln(It/Ir)  --  ln($6/$7)
# Column.1: energy eV
# Column.2: requested_energy eV
# Column.3: measurement_time seconds
# Column.4: xmu
# Column.5: I0 nA
# Column.6: Itrans nA
# Column.7: Irefer nA
# //////////////////////////////////////////////////////////
# Y foil sample provided by Arjen van Veelen, LANL
# ----------------------------------------------------------
# energy requested_energy measurement_time xmu I0 It Ir
16838.367898 16838.400000 0.500000 -0.110452 20.359359 30.407944 27.228157
16848.453084 16848.400000 0.500000 -0.114422 22.665489 33.688371 30.046047
16858.438321 16858.400000 0.500000 -0.113917 22.562450 33.537554 29.926621
16868.472902 16868.400000 0.500000 -0.113843 22.432949 33.339183 29.751821
16878.494543 16878.400000 0.500000 -0.113191 22.421360 33.336941 29.769235
16888.503177 16888.400000 0.500000 -0.112961 22.343799 33.227860 29.678630
16898.473700 16898.400000 0.500000 -0.112631 22.257533 33.108235 29.581543
16908.481150 16908.400000 0.500000 -0.112253 22.148484 32.951471 29.452626
16918.550731 16918.400000 0.500000 -0.112370 21.883924 32.546839 29.087540
16928.443961 16928.400000 0.500000 -0.111934 21.985260 32.718584 29.253806
16938.424310 16938.400000 0.500000 -0.111186 21.559221 32.090741 28.713920
16948.378740 16948.400000 0.500000 -0.112397 21.983563 32.724968 29.245963
16958.433207 16958.400000 0.500000 -0.112283 21.958141 32.701043 29.227921
16968.423959 16968.400000 0.500000 -0.112476 21.878449 32.581277 29.115235
16978.426572 16978.400000 0.500000 -0.113089 21.791014 32.460060 28.989131
16988.441066 16988.400000 0.500000 -0.114377 21.705051 32.325394 28.831715
16998.404126 16998.400000 0.500000 -0.115809 21.667504 32.279735 28.749793
17008.404323 17008.400000 0.500000 -0.119480 21.600944 32.188349 28.563357
17010.370266 17010.400000 0.500000 -0.120262 21.588278 32.170570 28.525259
17012.349355 17012.400000 0.500000 -0.121363 21.573092 32.145736 28.471866
17014.392363 17014.400000 0.500000 -0.122971 21.557192 32.128097 28.410535
17016.347006 17016.400000 0.500000 -0.124465 21.551792 32.113601 28.355321
17018.264011 17018.400000 0.500000 -0.126583 21.553681 32.122158 28.302880
17020.295749 17020.400000 0.500000 -0.129030 21.537630 32.103619 28.217385
17022.289867 17022.400000 0.500000 -0.132091 21.522679 32.074693 28.105815
17024.284456 17024.400000 0.500000 -0.136170 21.508534 32.058273 27.977071
17026.266806 17026.400000 0.500000 -0.141493 21.492802 32.036229 27.809415
17028.287757 17028.400000 0.500000 -0.148946 21.485564 32.026234 27.594304
17028.567423 17028.700000 0.500000 -0.150179 21.483934 32.025112 27.559335
17028.897950 17029.000000 0.500000 -0.151682 21.482415 32.020076 27.513632
17029.203063 17029.300000 0.500000 -0.153363 21.480309 32.017426 27.465141
17029.508187 17029.600000 0.500000 -0.155212 21.477372 32.019084 27.415819
17029.813322 17029.900000 0.500000 -0.157125 21.476568 32.017381 27.361965
17030.131183 17030.200000 0.500000 -0.159148 21.475280 32.015109 27.304729
17030.410910 17030.500000 0.500000 -0.161319 21.473108 32.013419 27.244072
17030.728794 17030.800000 0.500000 -0.163612 21.475820 32.013523 27.181776
17031.008541 17031.100000 0.500000 -0.166155 21.472833 32.006677 27.106936
17031.339163 17031.400000 0.500000 -0.169069 21.465133 31.997772 27.020535
17031.644364 17031.700000 0.500000 -0.172480 21.459658 31.991524 26.923281
17031.975011 17032.000000 0.500000 -0.175973 21.457336 31.994557 26.831948
17032.242082 17032.300000 0.500000 -0.180035 21.458755 31.990092 26.719433
17032.534598 17032.600000 0.500000 -0.184267 21.455403 31.985491 26.602761
17032.865279 17032.900000 0.500000 -0.188811 21.449220 31.979474 26.477187
17033.170536 17033.200000 0.500000 -0.194348 21.449938 31.980164 26.331539
17033.475803 17033.500000 0.500000 -0.200707 21.449986 31.979679 26.164236
17033.755641 17033.800000 0.500000 -0.208053 21.447270 31.977713 25.971149
17034.086371 17034.100000 0.500000 -0.216354 21.448136 31.977542 25.756310
17034.391671 17034.400000 0.500000 -0.225787 21.445811 31.974121 25.511770
17034.696982 17034.700000 0.500000 -0.236526 21.444112 31.975267 25.240179
17034.989583 17035.000000 0.500000 -0.248585 21.443413 31.971838 24.934943
17035.256749 17035.300000 0.500000 -0.262625 21.435134 31.963054 24.580545
17035.574814 17035.600000 0.500000 -0.278471 21.434018 31.959443 24.191386
17035.854722 17035.900000 0.500000 -0.296190 21.432609 31.961930 23.768377
17036.185533 17036.200000 0.500000 -0.316763 21.431628 31.959774 23.282815
17036.490909 17036.500000 0.500000 -0.339018 21.429735 31.961561 22.771650
17036.809021 17036.800000 0.500000 -0.361742 21.422525 31.950493 22.252306
17037.088970 17037.100000 0.500000 -0.384988 21.421658 31.951476 21.741653
17037.407104 17037.400000 0.500000 -0.407727 21.419005 31.945944 21.249168
17037.687072 17037.700000 0.500000 -0.430843 21.416659 31.948696 20.765415
17037.954323 17038.000000 0.500000 -0.451821 21.413535 31.935786 20.326103
17038.259763 17038.300000 0.500000 -0.473478 21.409140 31.938655 19.892419
17038.577941 17038.600000 0.500000 -0.493413 21.477980 32.041413 19.562537
17038.870676 17038.900000 0.500000 -0.510801 21.470331 32.034395 19.221116
17039.176149 17039.200000 0.500000 -0.526091 21.468686 32.034938 18.929769
17039.443447 17039.500000 0.500000 -0.538911 21.459848 32.020957 18.680497
17039.761670 17039.800000 0.500000 -0.550957 21.458785 32.018476 18.455389
17040.079905 17040.100000 0.500000 -0.561485 21.459216 32.020304 18.263152
17040.385422 17040.400000 0.500000 -0.570729 21.454076 32.007584 18.087906
17040.652758 17040.700000 0.500000 -0.580426 21.450643 32.006680 17.912858
17041.009219 17041.000000 0.500000 -0.590373 21.448268 32.008507 17.736565
17041.276575 17041.300000 0.500000 -0.600884 21.446116 32.007164 17.550389
17041.582135 17041.600000 0.500000 -0.611810 21.441503 32.000937 17.356285
17041.874973 17041.900000 0.500000 -0.623806 21.439840 31.991717 17.144392
17042.142357 17042.200000 0.500000 -0.637494 21.439287 31.991015 16.910948
17042.486148 17042.500000 0.500000 -0.653623 21.434352 31.988568 16.639104
17042.779017 17042.800000 0.500000 -0.671765 21.429400 31.981693 16.336451
17043.071897 17043.100000 0.500000 -0.691951 21.430745 31.983157 16.010719
17043.402991 17043.400000 0.500000 -0.713702 21.429180 31.980659 15.665004
17043.695893 17043.700000 0.500000 -0.736435 21.425979 31.979823 15.312503
17043.976069 17044.000000 0.500000 -0.760697 21.422766 31.977779 14.944510
17044.243519 17044.300000 0.500000 -0.785866 21.420109 31.974261 14.571473
17044.600132 17044.600000 0.500000 -0.813026 21.418990 31.972016 14.180039
17044.880338 17044.900000 0.500000 -0.839925 21.414362 31.967435 13.801708
17045.198765 17045.200000 0.500000 -0.868894 21.409034 31.958855 13.404024
17045.491729 17045.500000 0.500000 -0.899099 21.406255 31.959928 13.005652
17045.759226 17045.800000 0.500000 -0.928200 21.408047 31.958290 12.631985
17046.090426 17046.100000 0.500000 -0.956511 21.401030 31.948827 12.275733
17046.383420 17046.400000 0.500000 -0.983324 21.402098 31.952793 11.952442
17046.676425 17046.700000 0.500000 -1.010341 21.398112 31.948846 11.632406
17046.982180 17047.000000 0.500000 -1.035167 21.392933 31.944197 11.345524
17047.262465 17047.300000 0.500000 -1.059735 21.400358 31.950349 11.072316
17047.580982 17047.600000 0.500000 -1.081745 21.390348 31.941544 10.828292
17047.861287 17047.900000 0.500000 -1.101292 21.387603 31.933343 10.615964
17048.179826 17048.200000 0.500000 -1.117892 21.377307 31.924478 10.438295
17048.460151 17048.500000 0.500000 -1.132388 21.379866 31.931289 10.290270
17048.791456 17048.800000 0.500000 -1.144566 21.377665 31.923715 10.163301
17049.059058 17049.100000 0.500000 -1.154422 21.371467 31.917792 10.061750
17049.377642 17049.400000 0.500000 -1.162115 21.367349 31.910223 9.982282
17049.658007 17049.700000 0.500000 -1.167625 21.359233 31.896890 9.923283
17050.002103 17050.000000 0.500000 -1.171516 21.354968 31.894765 9.884083
17050.282488 17050.300000 0.500000 -1.173305 21.353018 31.888648 9.864527
17050.562882 17050.600000 0.500000 -1.173908 21.351836 31.889663 9.858895
17050.856032 17050.900000 0.500000 -1.172934 21.346000 31.877733 9.864807
17051.136445 17051.200000 0.500000 -1.171009 21.350784 31.881524 9.884991
17051.455108 17051.500000 0.500000 -1.168388 21.340499 31.869709 9.907263
17051.761035 17051.800000 0.500000 -1.164541 21.333585 31.859508 9.942263
17052.066974 17052.100000 0.500000 -1.160791 21.331863 31.856199 9.978581
17052.372923 17052.400000 0.500000 -1.156205 21.325897 31.850199 10.022562
17052.666136 17052.700000 0.500000 -1.151997 21.328347 31.850042 10.064772
17052.933860 17053.000000 0.500000 -1.147578 21.325529 31.846281 10.108154
17053.278089 17053.300000 0.500000 -1.142783 21.324921 31.847490 10.157130
17053.545833 17053.600000 0.500000 -1.138200 21.321635 31.840939 10.201681
17053.877337 17053.900000 0.500000 -1.133753 21.317832 31.839209 10.246598
17054.183352 17054.200000 0.500000 -1.129250 21.309772 31.827801 10.289154
17054.463875 17054.500000 0.500000 -1.124722 21.309368 31.824527 10.334783
17054.820919 17054.800000 0.500000 -1.120834 21.307216 31.824052 10.374890
17055.088711 17055.100000 0.500000 -1.117552 21.306500 31.822297 10.408420
17055.369265 17055.400000 0.500000 -1.114518 21.299582 31.814808 10.437596
17055.662580 17055.700000 0.500000 -1.111620 21.298127 31.808341 10.465755
17055.994167 17056.000000 0.500000 -1.109035 21.291252 31.797405 10.489240
17056.313013 17056.300000 0.500000 -1.107003 21.287636 31.794486 10.509607
17056.619116 17056.600000 0.500000 -1.105365 21.283879 31.790374 10.525472
17056.899720 17056.900000 0.500000 -1.104351 21.282579 31.785766 10.534624
17057.193089 17057.200000 0.500000 -1.103947 21.278981 31.781704 10.537534
17057.499224 17057.500000 0.500000 -1.103654 21.271842 31.774000 10.538070
17057.792613 17057.800000 0.500000 -1.104220 21.268942 31.765737 10.529372
17058.086013 17058.100000 0.500000 -1.105124 21.271084 31.768312 10.520702
17058.379423 17058.400000 0.500000 -1.106910 21.266875 31.768408 10.501967
17058.685601 17058.700000 0.500000 -1.108663 21.264671 31.762747 10.481699
17059.004548 17059.000000 0.500000 -1.111156 21.256761 31.751755 10.451982
17059.297990 17059.300000 0.500000 -1.113636 21.256585 31.750614 10.425720
17059.604200 17059.600000 0.500000 -1.116341 21.252866 31.740650 10.394294
17059.884904 17059.900000 0.500000 -1.119324 21.245348 31.734427 10.361302
17060.191136 17060.200000 0.500000 -1.122494 21.249302 31.741040 10.330659
17060.484619 17060.500000 0.500000 -1.125250 21.245094 31.730348 10.298764
17060.829155 17060.800000 0.500000 -1.128358 21.233105 31.719776 10.263380
17061.135421 17061.100000 0.500000 -1.130486 21.233732 31.715784 10.240280
17061.403413 17061.400000 0.500000 -1.132757 21.230620 31.712004 10.215829
17061.696938 17061.700000 0.500000 -1.134347 21.231270 31.711133 10.199314
17062.003236 17062.000000 0.500000 -1.136023 21.228390 31.709985 10.181868
17062.296782 17062.300000 0.500000 -1.137226 21.228186 31.705845 10.168300
17062.603101 17062.600000 0.500000 -1.137558 21.219673 31.694759 10.161369
17062.896667 17062.900000 0.500000 -1.137932 21.213590 31.690093 10.156075
17063.241302 17063.200000 0.500000 -1.137330 21.212826 31.688832 10.161786
17063.394477 17063.400000 0.500000 -1.136784 21.207156 31.681332 10.164930
17064.415717 17064.390000 0.500000 -1.131099 21.194424 31.659153 10.215728
17065.398777 17065.390000 0.500000 -1.121667 21.179248 31.639368 10.306091
17066.407489 17066.410000 0.500000 -1.109518 21.163735 31.615588 10.424220
17067.454633 17067.460000 0.500000 -1.097380 21.140158 31.582729 10.540556
17068.489135 17068.520000 0.500000 -1.087878 21.120903 31.556752 10.632439
17069.574859 17069.600000 0.500000 -1.081395 21.097558 31.520120 10.689165
17070.699049 17070.700000 0.500000 -1.078326 21.074038 31.486444 10.710565
17071.810611 17071.820000 0.500000 -1.076492 21.028074 31.423220 10.708688
17072.947876 17072.960000 0.500000 -1.074671 20.966606 31.335367 10.698207
17074.136418 17074.110000 0.500000 -1.072294 20.877987 31.212283 10.681548
17075.273996 17075.290000 0.500000 -1.069122 20.722691 30.991134 10.639564
17076.488433 17076.480000 0.500000 -1.066689 20.389451 30.532942 10.507795
17077.715830 17077.700000 0.500000 -1.063823 19.499427 29.315632 10.117817
17078.956193 17078.930000 0.500000 -1.063140 18.093772 27.237845 9.407127
17080.183947 17080.180000 0.500000 -1.070346 17.728907 26.451691 9.070016
17081.475838 17081.450000 0.500000 -1.078803 19.058516 28.244125 9.603067
17082.780721 17082.740000 0.500000 -1.082647 20.588539 30.589697 10.360660
17084.047416 17084.050000 0.500000 -1.086348 21.175640 31.592612 10.660818
17085.391088 17085.380000 0.500000 -1.091115 21.282051 31.778694 10.672616
17086.760572 17086.730000 0.500000 -1.093576 21.285847 31.791979 10.650836
17088.091871 17088.100000 0.500000 -1.092565 21.272628 31.778254 10.657008
17089.487399 17089.480000 0.500000 -1.087688 21.255780 31.752012 10.700262
17090.883157 17090.890000 0.500000 -1.079814 21.238232 31.724699 10.775571
17092.279144 17092.310000 0.500000 -1.071192 21.221440 31.708176 10.863222
17093.790655 17093.750000 0.500000 -1.063197 21.201550 31.678361 10.940121
17095.225559 17095.210000 0.500000 -1.057740 21.183668 31.647895 10.989400
17096.699150 17096.690000 0.500000 -1.054583 21.166507 31.625723 11.016428
17098.198631 17098.190000 0.500000 -1.052846 21.158640 31.611429 11.030599
17099.724016 17099.710000 0.500000 -1.051846 21.144256 31.592333 11.034966
17101.275318 17101.250000 0.500000 -1.051324 21.125237 31.566983 11.031861
17102.852553 17102.810000 0.500000 -1.051366 21.115223 31.552614 11.026380
17104.404427 17104.380000 0.500000 -1.052688 21.109190 31.542481 11.008270
17106.007900 17105.980000 0.500000 -1.055395 21.090592 31.515940 10.969278
17107.586014 17107.590000 0.500000 -1.059531 21.079129 31.498012 10.917786
17109.202922 17109.230000 0.500000 -1.065088 21.069333 31.482593 10.851975
17110.871483 17110.880000 0.500000 -1.070257 21.059483 31.468953 10.791349
17112.540371 17112.550000 0.500000 -1.073926 21.045272 31.452707 10.746276
17114.273795 17114.240000 0.500000 -1.075657 21.030927 31.430429 10.720092
17115.969040 17115.950000 0.500000 -1.074704 21.025282 31.422228 10.727508
17117.690316 17117.680000 0.500000 -1.071325 21.070641 31.489428 10.786840
17119.437640 17119.430000 0.500000 -1.065756 21.060789 31.480879 10.844135
17121.223878 17121.190000 0.500000 -1.058859 21.047007 31.459859 10.911897
17123.023347 17122.980000 0.500000 -1.051795 21.036958 31.440961 10.982647
17124.836054 17124.780000 0.500000 -1.045419 21.025222 31.424757 11.047195
17126.623427 17126.610000 0.500000 -1.041289 21.009967 31.404021 11.085598
17128.462627 17128.450000 0.500000 -1.039247 20.991054 31.376273 11.098447
17130.302225 17130.310000 0.500000 -1.039152 20.982635 31.365654 11.095746
17132.206563 17132.190000 0.500000 -1.040092 20.975618 31.356048 11.081927
17134.059842 17134.090000 0.500000 -1.041229 20.960779 31.332582 11.061043
17136.042268 17136.010000 0.500000 -1.042969 20.952232 31.320969 11.037721
17137.973646 17137.950000 0.500000 -1.044161 20.935965 31.299608 11.017060
17139.956984 17139.910000 0.500000 -1.045353 20.915580 31.269191 10.993236
17141.940784 17141.880000 0.500000 -1.045513 20.900967 31.251815 10.985368
17143.899273 17143.880000 0.500000 -1.045881 20.889742 31.233002 10.974719
17145.896881 17145.890000 0.500000 -1.046346 20.875122 31.215385 10.963431
17147.894958 17147.920000 0.500000 -1.045456 20.854433 31.183113 10.961851
17149.957981 17149.980000 0.500000 -1.044253 20.844594 31.171017 10.970782
17152.034402 17152.050000 0.500000 -1.041687 20.837337 31.160495 10.995255
17154.137132 17154.140000 0.500000 -1.038038 20.821797 31.136191 11.026843
17156.253287 17156.250000 0.500000 -1.034065 20.811896 31.125422 11.066914
17158.421601 17158.380000 0.500000 -1.030100 20.801791 31.108961 11.105008
17160.538820 17160.520000 0.500000 -1.026688 20.786669 31.089643 11.136037
17162.721139 17162.690000 0.500000 -1.023860 20.769536 31.059517 11.156755
17164.916935 17164.880000 0.500000 -1.021933 20.756683 31.045352 11.173184
17167.100375 17167.080000 0.500000 -1.020770 20.747093 31.029982 11.180638
17169.258525 17169.300000 0.500000 -1.020658 20.733065 31.013333 11.175899
17171.533574 17171.550000 0.500000 -1.021087 20.718878 30.992375 11.163549
17173.835093 17173.810000 0.500000 -1.022198 20.706370 30.976948 11.145605
17176.111364 17176.090000 0.500000 -1.024216 20.689459 30.949459 11.113266
17178.427057 17178.390000 0.500000 -1.026253 20.677983 30.938062 11.086572
17180.730437 17180.710000 0.500000 -1.027907 20.662659 30.916326 11.060471
17183.073276 17183.050000 0.500000 -1.029018 20.651168 30.895169 11.040622
17185.416758 17185.400000 0.500000 -1.029405 20.635503 30.868995 11.027007
17187.747931 17187.780000 0.500000 -1.029535 20.615732 30.844183 11.016712
17190.196348 17190.170000 0.500000 -1.028318 20.602560 30.824030 11.022921
17192.606586 17192.590000 0.500000 -1.025722 20.591469 30.810473 11.046712
17195.017506 17195.020000 0.500000 -1.022321 20.577043 30.790849 11.077282
17197.493943 17197.470000 0.500000 -1.018517 20.561610 30.768847 11.111558
17199.802474 17199.950000 0.500000 -1.015339 20.535719 30.729001 11.132489
17202.332198 17202.440000 0.500000 -1.012146 20.521957 30.709075 11.160847
17204.862672 17204.950000 0.500000 -1.009506 20.510564 30.696546 11.185787
17207.367931 17207.470000 0.500000 -1.006300 20.492518 30.669235 11.211723
17209.899896 17210.020000 0.500000 -1.003028 20.481429 30.647989 11.240673
17212.471583 17212.590000 0.500000 -1.000894 20.459588 30.619852 11.254346
17215.083026 17215.170000 0.500000 -1.000116 20.447322 30.602377 11.256676
17217.708265 17217.780000 0.500000 -1.001079 20.432014 30.579042 11.237274
17220.347312 17220.400000 0.500000 -1.003232 20.414718 30.562613 11.207080
17223.026193 17223.050000 0.500000 -1.006473 20.395538 30.529878 11.158845
17225.627851 17225.710000 0.500000 -1.010367 20.379181 30.506673 11.107029
17228.308386 17228.390000 0.500000 -1.014183 20.344791 30.456081 11.046378
17230.937688 17231.090000 0.500000 -1.017162 20.318031 30.414970 10.998656
17233.711044 17233.810000 0.500000 -1.018904 20.310306 30.408390 10.977134
17236.459246 17236.550000 0.500000 -1.018902 20.297559 30.393401 10.971745
17239.260454 17239.300000 0.500000 -1.016890 20.286253 30.376336 10.987669
17241.984368 17242.080000 0.500000 -1.013427 20.266601 30.347156 11.015195
17244.826503 17244.870000 0.500000 -1.009968 20.248169 30.320547 11.043672
