# XDI/1.0 BlueSky/1.10.0 BMM/2023-1.0-py310-tiled
# Beamline.name: BMM (06BM) -- Beamline for Materials Measurement (NIST)
# Beamline.xray_source: NSLS-II three-pole wiggler
# Beamline.collimation: paraboloid mirror, 5 nm Rh on 30 nm Pt
# Beamline.focusing: not in use
# Beamline.harmonic_rejection: flat mirror, Pt stripe, pitch = 7.0 mrad relative to beam
# Beamline.software: Bluesky 1.10.0, Ophyd 1.7.0, DataBroker 2.0.0b13, Python 3.10.8, 2023-1.0-py310-tiled
# Detector.I0: 10 cm N2
# Detector.I1: 25 cm N2
# Detector.I2: 25 cm N2
# Element.symbol: Y
# Element.edge: K
# Element.reference: Y
# Element.reference_material: Y2O3
# Facility.name: NSLS-II
# Facility.energy: 3.0
# Facility.current: 399.5
# Facility.mode: top-off
# Facility.GUP: 301027
# Facility.SAF: 310583
# Facility.cycle: 2023-2
# Mono.name: Si(111)
# Mono.d_spacing: 3.1351860
# Mono.encoder_resolution: 0.0000050 deg/ct
# Mono.angle_offset: 16.0754326 deg
# Mono.scan_mode: pseudo channel cut
# Mono.scan_type: step
# Mono.direction: forward in energy
# Sample.name: Y2TiO5, stuffed pyrochlore
# Sample.prep: powder in PEG pellet
# Sample.x: 117.785 mm
# Sample.y: 114.695 mm
# Sample.SDD_position: 205.000 mm
# Scan.experimenters: Bruce Ravel
# Scan.edge_energy: 17038.4
# Scan.start_time: 2023-06-23T19:22:19
# Scan.end_time: 2023-06-23T19:29:41
# Scan.transient_id: 84967
# Scan.uid: 3317b479-8dc0-4954-b906-a79525e33cc3
# Scan.plot_hint: ln(I0/It)  --  ln($5/$6)
# Column.1: energy eV
# Column.2: requested_energy eV
# Column.3: measurement_time seconds
# Column.4: xmu 
# Column.5: I0 nA
# Column.6: It nA
# Column.7: Ir nA
# ///////////
# sample courtesy Martin Stennett, University of Sheffield
# -----------
# energy  requested_energy  measurement_time  xmu  I0  It  Ir
  16838.305  16838.400  0.500  -0.254172  16.080620  20.734255  15.870782
  16848.899  16848.400  0.500  -0.254866  17.824896  22.999270  17.613540
  16858.572  16858.400  0.500  -0.255327  17.704546  22.854517  17.511656
  16868.369  16868.400  0.500  -0.255978  17.671313  22.826467  17.495267
  16878.365  16878.400  0.500  -0.256634  17.650105  22.814029  17.493979
  16888.397  16888.400  0.500  -0.257030  17.594736  22.751476  17.453314
  16898.379  16898.400  0.500  -0.257755  17.546488  22.705528  17.422600
  16908.348  16908.400  0.500  -0.258110  17.495050  22.647023  17.379825
  16918.379  16918.400  0.500  -0.258571  17.413745  22.552170  17.312924
  16928.371  16928.400  0.500  -0.259015  17.397150  22.540680  17.307348
  16938.363  16938.400  0.500  -0.259440  17.287985  22.408756  17.208999
  16948.380  16948.400  0.500  -0.259776  16.283088  21.113298  16.216606
  16958.383  16958.400  0.500  -0.259911  17.451213  22.630983  17.380825
  16968.410  16968.400  0.500  -0.259944  17.357375  22.510052  17.286229
  16978.374  16978.400  0.500  -0.259641  17.291440  22.417746  17.210402
  16988.413  16988.400  0.500  -0.259136  17.239414  22.339006  17.140598
  16998.362  16998.400  0.500  -0.258126  17.197293  22.261930  17.057717
  17008.425  17008.400  0.500  -0.255809  17.147250  22.145766  16.938684
  17010.352  17010.400  0.500  -0.255212  17.137090  22.119453  16.909271
  17012.344  17012.400  0.500  -0.254470  17.133823  22.098836  16.882841
  17014.349  17014.400  0.500  -0.253702  17.120531  22.064734  16.844428
  17016.341  17016.400  0.500  -0.252771  17.112194  22.033459  16.804273
  17018.347  17018.400  0.500  -0.251671  17.106631  22.002075  16.761193
  17020.328  17020.400  0.500  -0.250050  17.094123  21.950383  16.705941
  17022.360  17022.400  0.500  -0.248364  17.078710  21.893652  16.639545
  17024.341  17024.400  0.500  -0.246462  17.070120  21.841054  16.568679
  17026.374  17026.400  0.500  -0.244087  17.061396  21.778121  16.483757
  17028.370  17028.400  0.500  -0.241054  17.065203  21.716996  16.394007
  17028.649  17028.700  0.500  -0.240408  17.058483  21.694433  16.366235
  17028.942  17029.000  0.500  -0.239706  17.047164  21.664814  16.338988
  17029.234  17029.300  0.500  -0.239237  17.046842  21.654251  16.324215
  17029.514  17029.600  0.500  -0.238679  17.044479  21.639165  16.303629
  17029.819  17029.900  0.500  -0.237960  17.043447  21.622312  16.280537
  17030.137  17030.200  0.500  -0.237394  17.095455  21.676013  16.313062
  17030.455  17030.500  0.500  -0.236566  17.091138  21.652612  16.284557
  17030.747  17030.800  0.500  -0.235891  17.092974  21.640330  16.263860
  17031.065  17031.100  0.500  -0.235141  17.089599  21.619834  16.241017
  17031.370  17031.400  0.500  -0.234325  17.094103  21.607898  16.219985
  17031.637  17031.700  0.500  -0.233588  17.090621  21.587580  16.188658
  17031.942  17032.000  0.500  -0.232461  17.086955  21.558636  16.160200
  17032.247  17032.300  0.500  -0.231772  17.083765  21.539769  16.131202
  17032.565  17032.600  0.500  -0.230838  17.084350  21.520388  16.102538
  17032.871  17032.900  0.500  -0.229790  17.077289  21.488969  16.063104
  17033.163  17033.200  0.500  -0.228764  17.078309  21.468214  16.030362
  17033.456  17033.500  0.500  -0.227479  17.078776  21.441224  15.995723
  17033.748  17033.800  0.500  -0.226349  17.070384  21.406494  15.956856
  17034.066  17034.100  0.500  -0.224855  17.071601  21.376051  15.915703
  17034.359  17034.400  0.500  -0.223675  17.070691  21.349703  15.875768
  17034.664  17034.700  0.500  -0.222210  17.068902  21.316216  15.832275
  17034.982  17035.000  0.500  -0.220694  17.060745  21.273757  15.777340
  17035.287  17035.300  0.500  -0.219017  17.059278  21.236277  15.724828
  17035.567  17035.600  0.500  -0.217488  17.060533  21.205399  15.677079
  17035.847  17035.900  0.500  -0.215661  17.059751  21.165718  15.625416
  17036.152  17036.200  0.500  -0.213775  17.057740  21.123348  15.566064
  17036.458  17036.500  0.500  -0.211626  17.065162  21.087167  15.509845
  17036.776  17036.800  0.500  -0.209279  17.052944  21.022675  15.429178
  17037.043  17037.100  0.500  -0.206976  17.058575  20.981238  15.366072
  17037.374  17037.400  0.500  -0.203779  17.053751  20.908367  15.267737
  17037.679  17037.700  0.500  -0.201065  17.051834  20.849356  15.185589
  17037.959  17038.000  0.500  -0.197727  17.054773  20.783455  15.091650
  17038.239  17038.300  0.500  -0.193983  17.040634  20.688627  14.969162
  17038.557  17038.600  0.500  -0.189965  17.050800  20.617951  14.858341
  17038.888  17038.900  0.500  -0.184917  17.040488  20.501718  14.703898
  17039.181  17039.200  0.500  -0.179056  17.039231  20.380408  14.540109
  17039.512  17039.500  0.500  -0.173061  17.039066  20.258410  14.367687
  17039.792  17039.800  0.500  -0.166372  17.031905  20.114895  14.176885
  17040.085  17040.100  0.500  -0.158998  17.030347  19.965281  13.976492
  17040.352  17040.400  0.500  -0.151127  17.031215  19.809770  13.768916
  17040.657  17040.700  0.500  -0.142054  17.027407  19.626460  13.524167
  17040.963  17041.000  0.500  -0.131498  17.025369  19.418046  13.252484
  17041.294  17041.300  0.500  -0.120096  17.027556  19.200354  12.974086
  17041.574  17041.600  0.500  -0.108159  17.027576  18.972556  12.688670
  17041.879  17041.900  0.500  -0.096434  17.027750  18.751579  12.411911
  17042.160  17042.200  0.500  -0.083807  17.024157  18.512400  12.121861
  17042.465  17042.500  0.500  -0.070946  17.019995  18.271357  11.837840
  17042.771  17042.800  0.500  -0.057156  17.016521  18.017453  11.540711
  17043.089  17043.100  0.500  -0.042312  17.013195  17.748505  11.226904
  17043.395  17043.400  0.500  -0.028330  17.010946  17.499749  10.941529
  17043.713  17043.700  0.500  -0.014176  17.021757  17.264779  10.669754
  17043.993  17044.000  0.500  -0.000273  17.015271  17.019914  10.398706
  17044.286  17044.300  0.500  0.014274  17.013408  16.772278  10.123862
  17044.579  17044.600  0.500  0.028736  17.016213  16.534188  9.864859
  17044.884  17044.900  0.500  0.044880  17.005245  16.258915  9.568694
  17045.190  17045.200  0.500  0.061444  17.004449  15.991086  9.284027
  17045.521  17045.500  0.500  0.078557  17.001659  15.717175  8.997269
  17045.814  17045.800  0.500  0.096203  17.006951  15.447070  8.713156
  17046.107  17046.100  0.500  0.113582  16.994766  15.170056  8.431616
  17046.362  17046.400  0.500  0.130111  17.003934  14.929419  8.184187
  17046.693  17046.700  0.500  0.149558  16.996809  14.635760  7.892002
  17046.999  17047.000  0.500  0.169695  16.996990  14.344132  7.604405
  17047.343  17047.300  0.500  0.190832  16.992878  14.040735  7.312708
  17047.623  17047.600  0.500  0.210954  16.995240  13.762934  7.045206
  17047.916  17047.900  0.500  0.230799  16.987220  13.486134  6.790130
  17048.222  17048.200  0.500  0.250286  16.985311  13.224392  6.546084
  17048.502  17048.500  0.500  0.269233  16.988626  12.978725  6.323098
  17048.795  17048.800  0.500  0.289678  16.981514  12.710734  6.082861
  17049.101  17049.100  0.500  0.310336  16.979716  12.449533  5.854172
  17049.420  17049.400  0.500  0.331538  16.977587  12.186828  5.626050
  17049.713  17049.700  0.500  0.352791  16.976631  11.929892  5.410211
  17050.006  17050.000  0.500  0.374646  16.979484  11.673954  5.194167
  17050.312  17050.300  0.500  0.394831  16.975799  11.438189  5.001661
  17050.605  17050.600  0.500  0.417416  16.971923  11.180202  4.792546
  17050.911  17050.900  0.500  0.441626  16.972557  10.913183  4.580795
  17051.229  17051.200  0.500  0.467695  16.967461  10.629175  4.358771
  17051.522  17051.500  0.500  0.494428  16.967224  10.348647  4.148076
  17051.841  17051.800  0.500  0.520664  16.969824  10.082212  3.947890
  17052.109  17052.100  0.500  0.547369  16.960551  9.811166  3.753844
  17052.402  17052.400  0.500  0.574836  16.957017  9.543358  3.563414
  17052.695  17052.700  0.500  0.602903  16.957888  9.279704  3.382771
  17053.001  17053.000  0.500  0.633373  16.959759  9.002209  3.197395
  17053.294  17053.300  0.500  0.663186  16.957784  8.736771  3.025726
  17053.600  17053.600  0.500  0.692275  16.947337  8.481061  2.866303
  17053.919  17053.900  0.500  0.720833  16.949484  8.243331  2.720486
  17054.187  17054.200  0.500  0.745968  16.947640  8.037842  2.599491
  17054.493  17054.500  0.500  0.769562  16.944433  7.848931  2.492439
  17054.811  17054.800  0.500  0.790051  16.942828  7.689019  2.403344
  17055.105  17055.100  0.500  0.806994  16.943808  7.560281  2.334008
  17055.423  17055.400  0.500  0.821258  16.937132  7.450268  2.278900
  17055.717  17055.700  0.500  0.831140  16.934446  7.375842  2.242697
  17056.023  17056.000  0.500  0.837162  16.934487  7.331570  2.223452
  17056.303  17056.300  0.500  0.839852  16.928878  7.309458  2.216102
  17056.584  17056.600  0.500  0.840150  16.929079  7.307368  2.218145
  17056.890  17056.900  0.500  0.838357  16.927047  7.319603  2.228860
  17057.196  17057.200  0.500  0.834179  16.920120  7.347239  2.245050
  17057.502  17057.500  0.500  0.828801  16.912933  7.383721  2.266667
  17057.808  17057.800  0.500  0.822588  16.916956  7.431508  2.292413
  17058.114  17058.100  0.500  0.816237  16.917784  7.479218  2.314814
  17058.395  17058.400  0.500  0.809420  16.917325  7.530177  2.339535
  17058.676  17058.700  0.500  0.802822  16.914047  7.578555  2.360164
  17058.982  17059.000  0.500  0.796098  16.911367  7.628474  2.380449
  17059.301  17059.300  0.500  0.789123  16.906832  7.679810  2.398024
  17059.620  17059.600  0.500  0.783556  16.903174  7.721015  2.411219
  17059.875  17059.900  0.500  0.778638  16.898737  7.757044  2.422568
  17060.194  17060.200  0.500  0.773694  16.899502  7.795843  2.431998
  17060.475  17060.500  0.500  0.769308  16.893366  7.827265  2.439298
  17060.768  17060.800  0.500  0.765024  16.887834  7.858294  2.443052
  17061.087  17061.100  0.500  0.761140  16.884902  7.887506  2.447780
  17061.380  17061.400  0.500  0.757561  16.890822  7.918562  2.451987
  17061.687  17061.700  0.500  0.753540  16.879905  7.945326  2.454177
  17061.980  17062.000  0.500  0.749909  16.879892  7.974219  2.458518
  17062.286  17062.300  0.500  0.746446  16.876413  8.000238  2.461842
  17062.580  17062.600  0.500  0.742856  16.868799  8.025384  2.464569
  17062.848  17062.900  0.500  0.739356  16.868152  8.053211  2.469076
  17063.205  17063.200  0.500  0.735294  16.863198  8.083620  2.474619
  17063.397  17063.400  0.500  0.732401  16.860290  8.105638  2.479845
  17064.354  17064.390  0.500  0.720155  16.857158  8.203988  2.505193
  17065.388  17065.390  0.500  0.706472  16.835485  8.306318  2.545743
  17066.410  17066.410  0.500  0.693857  16.820983  8.404524  2.605097
  17067.495  17067.460  0.500  0.679675  16.795669  8.511738  2.697236
  17068.529  17068.520  0.500  0.664306  16.765608  8.628097  2.809610
  17069.615  17069.600  0.500  0.645536  16.726229  8.770920  2.943245
  17070.739  17070.700  0.500  0.623310  16.653025  8.928795  3.086158
  17071.838  17071.820  0.500  0.601867  16.525671  9.052562  3.211511
  17073.000  17072.960  0.500  0.580337  16.159591  9.044676  3.289190
  17074.151  17074.110  0.500  0.561224  15.315703  8.737765  3.251120
  17075.326  17075.290  0.500  0.543923  14.371158  8.341980  3.167087
  17076.515  17076.480  0.500  0.527500  14.350047  8.467652  3.279877
  17077.730  17077.700  0.500  0.512354  15.369447  9.207582  3.626926
  17078.931  17078.930  0.500  0.501075  16.342026  9.901291  3.945088
  17080.159  17080.180  0.500  0.491743  16.776075  10.259571  4.121746
  17081.464  17081.450  0.500  0.484425  16.864037  10.389114  4.192054
  17082.717  17082.740  0.500  0.481389  16.889156  10.436228  4.215478
  17084.035  17084.050  0.500  0.482651  16.878761  10.416642  4.195693
  17085.379  17085.380  0.500  0.489256  16.875822  10.346269  4.139337
  17086.735  17086.730  0.500  0.499516  16.876723  10.241201  4.057233
  17088.130  17088.100  0.500  0.511728  16.862383  10.108302  3.960922
  17089.513  17089.480  0.500  0.523915  16.855202  9.981608  3.876285
  17090.896  17090.890  0.500  0.534888  16.851260  9.870366  3.810513
  17092.356  17092.310  0.500  0.544532  16.846380  9.772810  3.758378
  17093.790  17093.750  0.500  0.551358  16.827089  9.695211  3.721218
  17095.289  17095.210  0.500  0.556784  16.829299  9.644014  3.688892
  17096.724  17096.690  0.500  0.561927  16.813542  9.585558  3.648891
  17098.198  17098.190  0.500  0.567247  16.807394  9.531212  3.598001
  17099.710  17099.710  0.500  0.572909  16.805825  9.476512  3.541820
  17101.223  17101.250  0.500  0.578158  16.787910  9.416855  3.481317
  17102.813  17102.810  0.500  0.583082  16.782305  9.367465  3.425572
  17104.390  17104.380  0.500  0.587154  16.774507  9.325068  3.374295
  17106.006  17105.980  0.500  0.590688  16.769116  9.289181  3.324398
  17107.635  17107.590  0.500  0.594058  16.767581  9.257083  3.280533
  17109.265  17109.230  0.500  0.597585  16.757348  9.218862  3.241086
  17110.908  17110.880  0.500  0.600908  16.746688  9.182435  3.211321
  17112.602  17112.550  0.500  0.603851  16.748224  9.156293  3.196879
  17114.271  17114.240  0.500  0.605323  16.735246  9.135734  3.194521
  17115.966  17115.950  0.500  0.604982  16.737810  9.140252  3.212907
  17117.675  17117.680  0.500  0.602351  16.721135  9.155204  3.247225
  17119.422  17119.430  0.500  0.596702  16.714646  9.203493  3.299702
  17121.156  17121.190  0.500  0.588328  16.703060  9.274455  3.360396
  17122.969  17122.980  0.500  0.578073  16.701636  9.369257  3.429173
  17124.768  17124.780  0.500  0.567351  16.686551  9.461704  3.488555
  17126.607  17126.610  0.500  0.557093  16.680218  9.555625  3.544247
  17128.484  17128.450  0.500  0.547953  16.669633  9.637245  3.597668
  17130.337  17130.310  0.500  0.540408  16.658668  9.703854  3.648287
  17132.228  17132.190  0.500  0.534959  16.653263  9.753706  3.698627
  17134.133  17134.090  0.500  0.530977  16.648017  9.789536  3.741603
  17136.050  17136.010  0.500  0.529144  16.636729  9.800849  3.774410
  17137.956  17137.950  0.500  0.528457  16.633716  9.805810  3.797867
  17139.926  17139.910  0.500  0.528684  16.620879  9.796019  3.806233
  17141.897  17141.880  0.500  0.529423  16.611152  9.783045  3.804881
  17143.907  17143.880  0.500  0.530785  16.607885  9.767816  3.794297
  17145.891  17145.890  0.500  0.532196  16.606573  9.753270  3.777920
  17147.928  17147.920  0.500  0.533316  16.591101  9.733278  3.755109
  17150.029  17149.980  0.500  0.533804  16.574835  9.718991  3.736720
  17152.106  17152.050  0.500  0.534082  16.568640  9.712660  3.723475
  17154.182  17154.140  0.500  0.533483  16.567465  9.717790  3.712388
  17156.285  17156.250  0.500  0.532576  16.561486  9.723095  3.703237
  17158.389  17158.380  0.500  0.532344  16.553162  9.720460  3.695070
  17160.519  17160.520  0.500  0.532092  16.543237  9.717083  3.688262
  17162.701  17162.690  0.500  0.532401  16.528185  9.705241  3.686058
  17164.884  17164.880  0.500  0.532791  16.520826  9.697143  3.686192
  17167.131  17167.080  0.500  0.533294  16.513670  9.688066  3.684028
  17169.328  17169.300  0.500  0.533752  16.505457  9.678813  3.681931
  17171.577  17171.550  0.500  0.534402  16.497073  9.667611  3.677743
  17173.878  17173.810  0.500  0.535372  16.484089  9.650635  3.672349
  17176.142  17176.090  0.500  0.536911  16.476079  9.631115  3.666586
  17178.392  17178.390  0.500  0.538420  16.522041  9.643412  3.668419
  17180.708  17180.710  0.500  0.540385  16.512731  9.619061  3.656849
  17183.077  17183.050  0.500  0.541880  16.503754  9.599468  3.645092
  17185.407  17185.400  0.500  0.542476  16.493673  9.587894  3.634036
  17187.829  17187.780  0.500  0.542698  16.481996  9.578978  3.621942
  17190.199  17190.170  0.500  0.541807  16.475308  9.583623  3.613805
  17192.609  17192.590  0.500  0.540069  16.464669  9.594097  3.607170
  17195.059  17195.020  0.500  0.537378  16.461774  9.618257  3.609147
  17197.496  17197.470  0.500  0.534140  16.452552  9.644049  3.617754
  17199.947  17199.950  0.500  0.529697  16.435122  9.676729  3.636473
  17202.451  17202.440  0.500  0.525193  16.425690  9.714831  3.668464
  17204.955  17204.950  0.500  0.520721  16.415390  9.752253  3.705574
  17207.512  17207.470  0.500  0.516566  16.403685  9.785878  3.747981
  17210.070  17210.020  0.500  0.513603  16.391868  9.807841  3.792479
  17212.654  17212.590  0.500  0.510867  16.378551  9.826725  3.834444
  17215.188  17215.170  0.500  0.509891  16.376725  9.835227  3.866463
  17217.800  17217.780  0.500  0.509230  16.362180  9.832983  3.883943
  17220.399  17220.400  0.500  0.509199  16.353697  9.828190  3.893600
  17223.091  17223.050  0.500  0.509821  16.342639  9.815440  3.891141
  17225.705  17225.710  0.500  0.511210  16.334173  9.796734  3.879631
  17228.438  17228.390  0.500  0.513106  16.325488  9.772983  3.855732
  17231.119  17231.090  0.500  0.514828  16.317003  9.751098  3.822688
  17233.879  17233.810  0.500  0.516697  16.295497  9.720062  3.786973
  17236.562  17236.550  0.500  0.518092  16.278060  9.696120  3.753913
  17239.298  17239.300  0.500  0.519405  16.278091  9.683422  3.728899
  17242.113  17242.080  0.500  0.520641  16.272297  9.668016  3.704195
  17244.902  17244.870  0.500  0.521075  16.263543  9.658619  3.686919
  17247.745  17247.690  0.500  0.519783  16.248812  9.662349  3.682394
  17250.576  17250.520  0.500  0.517932  16.237728  9.673649  3.687413
  17253.368  17253.370  0.500  0.515954  16.224713  9.685028  3.702848
  17256.279  17256.250  0.500  0.514030  16.217148  9.699159  3.724238
  17259.165  17259.140  0.500  0.512251  16.204525  9.708870  3.746663
  17262.039  17262.050  0.500  0.510742  16.199045  9.720239  3.771185
  17265.018  17264.970  0.500  0.508971  16.160853  9.714513  3.785702
  17267.985  17267.920  0.500  0.507908  16.164095  9.726793  3.803313
  17270.927  17270.890  0.500  0.507472  16.153544  9.724682  3.808481
  17273.857  17273.870  0.500  0.507590  16.146395  9.719235  3.808015
  17276.867  17276.880  0.500  0.508069  16.139204  9.710254  3.800246
  17279.917  17279.900  0.500  0.508812  16.126196  9.695224  3.789092
