# XDI/1.0 BlueSky/1.10.0 BMM/2023-1.0-py310-tiled
# Beamline.name: BMM (06BM) -- Beamline for Materials Measurement (NIST)
# Beamline.xray_source: NSLS-II three-pole wiggler
# Beamline.collimation: paraboloid mirror, 5 nm Rh on 30 nm Pt
# Beamline.focusing: not in use
# Beamline.harmonic_rejection: flat mirror, Pt stripe, pitch = 7.0 mrad relative to beam
# Beamline.software: Bluesky 1.10.0, Ophyd 1.7.0, DataBroker 2.0.0b13, Python 3.10.8, 2023-1.0-py310-tiled
# Detector.I0: 10 cm N2
# Detector.I1: 25 cm N2
# Detector.I2: 25 cm N2
# Element.symbol: Zn
# Element.edge: K
# Element.reference: Zn
# Element.reference_material: Zn foil
# Facility.name: NSLS-II
# Facility.energy: 3.0
# Facility.current: 399.6
# Facility.mode: top-off
# Facility.GUP: 123456
# Facility.SAF: 301027
# Facility.cycle: 2023-2
# Mono.name: Si(111)
# Mono.d_spacing: 3.1351860
# Mono.encoder_resolution: 0.0000050 deg/ct
# Mono.angle_offset: 16.0754326 deg
# Mono.scan_mode: pseudo channel cut
# Mono.scan_type: step
# Mono.direction: forward in energy
# Sample.name: Ca2ZnSi2O7
# Sample.prep: powder in PEG pellet
# Sample.x: 116.329 mm
# Sample.y: 114.126 mm
# Sample.SDD_position: 205.000 mm
# Scan.experimenters: Bruce Ravel
# Scan.edge_energy: 9658.6
# Scan.start_time: 2023-05-07T08:56:59
# Scan.end_time: 2023-05-07T09:04:58
# Scan.transient_id: 74855
# Scan.uid: d0290c1c-37f2-4468-8cdf-c84750309cd9
# Scan.plot_hint: ln(I0/It)  --  ln($5/$6)
# Column.1: energy eV
# Column.2: requested_energy eV
# Column.3: measurement_time seconds
# Column.4: xmu 
# Column.5: I0 nA
# Column.6: It nA
# Column.7: Ir nA
# ///////////
# sample courtesy Martin Stennett, University of Sheffield
# -----------
# energy  requested_energy  measurement_time  xmu  I0  It  Ir
  9458.619  9458.600  0.500  1.615234  85.257092  16.952879  9.366253
  9468.615  9468.600  0.500  1.608616  84.872046  16.988370  9.402085
  9478.625  9478.600  0.500  1.602161  84.617674  17.047130  9.453234
  9488.633  9488.600  0.500  1.595531  84.214638  17.078792  9.487858
  9498.651  9498.600  0.500  1.588944  83.984725  17.144730  9.540545
  9508.625  9508.600  0.500  1.582555  83.705783  17.197309  9.589174
  9518.631  9518.600  0.500  1.576157  83.465114  17.257925  9.638505
  9528.612  9528.600  0.500  1.569626  83.137076  17.302732  9.681745
  9538.615  9538.600  0.500  1.563448  82.896443  17.359572  9.731575
  9548.635  9548.600  0.500  1.557073  82.589110  17.405825  9.773113
  9558.657  9558.600  0.500  1.550807  82.296535  17.453191  9.815853
  9568.665  9568.600  0.500  1.544777  82.017836  17.499282  9.860058
  9578.659  9578.600  0.500  1.538357  81.742409  17.552842  9.903949
  9588.654  9588.600  0.500  1.532677  81.494226  17.599225  9.946938
  9598.619  9598.600  0.500  1.526822  81.172271  17.632642  9.980274
  9608.621  9608.600  0.500  1.521294  80.881510  17.666878  10.014013
  9618.664  9618.600  0.500  1.516000  80.655742  17.711070  10.047580
  9628.616  9628.600  0.500  1.511764  80.339435  17.716506  10.056318
  9630.599  9630.600  0.500  1.511002  80.329104  17.727725  10.062133
  9632.587  9632.600  0.500  1.510334  80.270549  17.726639  10.061897
  9634.587  9634.600  0.500  1.509878  80.009613  17.677080  10.031978
  9636.588  9636.600  0.500  1.509574  80.143640  17.712077  10.050384
  9638.578  9638.600  0.500  1.509199  80.064944  17.701310  10.041913
  9640.581  9640.600  0.500  1.509104  79.975075  17.683133  10.027701
  9642.581  9642.600  0.500  1.509212  80.030361  17.693434  10.025744
  9644.589  9644.600  0.500  1.509719  79.971496  17.671461  10.006861
  9646.575  9646.600  0.500  1.510624  79.876321  17.634475  9.974315
  9648.585  9648.600  0.500  1.512234  79.661555  17.558757  9.914675
  9648.862  9648.900  0.500  1.512295  79.607507  17.545774  9.903473
  9649.164  9649.200  0.500  1.512785  79.632019  17.542587  9.898352
  9649.470  9649.500  0.500  1.513120  79.627143  17.535641  9.891912
  9649.767  9649.800  0.500  1.513492  79.670805  17.538731  9.889894
  9650.077  9650.100  0.500  1.513851  79.747830  17.549373  9.891793
  9650.367  9650.400  0.500  1.514154  79.708959  17.535517  9.878974
  9650.677  9650.700  0.500  1.514700  79.721444  17.528689  9.872739
  9650.970  9651.000  0.500  1.515279  79.723088  17.518895  9.861762
  9651.276  9651.300  0.500  1.515783  79.747425  17.515424  9.855628
  9651.574  9651.600  0.500  1.516177  79.714677  17.501327  9.841011
  9651.880  9651.900  0.500  1.516753  79.712536  17.490774  9.830887
  9652.173  9652.200  0.500  1.517260  79.722986  17.484208  9.820146
  9652.487  9652.500  0.500  1.518042  79.752497  17.476999  9.809665
  9652.769  9652.800  0.500  1.518796  79.721170  17.456982  9.792354
  9653.075  9653.100  0.500  1.519551  79.717660  17.443029  9.776906
  9653.369  9653.400  0.500  1.520132  79.686064  17.425991  9.760217
  9653.683  9653.700  0.500  1.520912  79.702964  17.416103  9.745598
  9653.973  9654.000  0.500  1.521814  79.636474  17.385871  9.719273
  9654.275  9654.300  0.500  1.522770  79.588352  17.358766  9.692961
  9654.577  9654.600  0.500  1.523921  79.567014  17.334156  9.669706
  9654.891  9654.900  0.500  1.525024  79.591431  17.320359  9.649029
  9655.177  9655.200  0.500  1.526232  79.598847  17.301055  9.625412
  9655.479  9655.500  0.500  1.527563  79.590882  17.276307  9.597216
  9655.785  9655.800  0.500  1.529078  79.533235  17.237676  9.557716
  9656.099  9656.100  0.500  1.530839  79.569535  17.215188  9.526873
  9656.393  9656.400  0.500  1.532423  79.564984  17.186956  9.490268
  9656.683  9656.700  0.500  1.534137  79.570627  17.158750  9.453088
  9656.993  9657.000  0.500  1.536253  79.531583  17.114083  9.402194
  9657.295  9657.300  0.500  1.538278  79.545473  17.082441  9.356898
  9657.598  9657.600  0.500  1.540656  79.513286  17.034963  9.297789
  9657.896  9657.900  0.500  1.543191  79.500552  16.989114  9.233120
  9658.190  9658.200  0.500  1.546029  79.455361  16.931343  9.155570
  9658.496  9658.500  0.500  1.549268  79.468423  16.879362  9.073349
  9658.786  9658.800  0.500  1.552760  79.470982  16.821065  8.972626
  9659.081  9659.100  0.500  1.556665  79.451388  16.751381  8.848924
  9659.391  9659.400  0.500  1.561231  79.434903  16.671602  8.693961
  9659.689  9659.700  0.500  1.566450  79.497146  16.597821  8.507364
  9659.979  9660.000  0.500  1.572243  79.442370  16.490567  8.264504
  9660.286  9660.300  0.500  1.579065  79.437917  16.377541  7.951858
  9660.592  9660.600  0.500  1.586976  79.439110  16.248723  7.576070
  9660.887  9660.900  0.500  1.595870  79.459716  16.109036  7.164104
  9661.193  9661.200  0.500  1.606911  79.429975  15.926190  6.716226
  9661.499  9661.500  0.500  1.620384  79.419125  15.710904  6.264219
  9661.802  9661.800  0.500  1.636741  79.409748  15.454193  5.848184
  9662.096  9662.100  0.500  1.656512  79.364517  15.143019  5.468938
  9662.399  9662.400  0.500  1.682487  79.375202  14.756730  5.102431
  9662.701  9662.700  0.500  1.714748  79.364827  14.286389  4.752193
  9663.004  9663.000  0.500  1.753984  79.313733  13.727862  4.410271
  9663.298  9663.300  0.500  1.800655  79.303953  13.100268  4.083868
  9663.589  9663.600  0.500  1.858750  79.309870  12.361816  3.749929
  9663.895  9663.900  0.500  1.934836  79.286168  11.452721  3.388944
  9664.194  9664.200  0.500  2.024840  79.271482  10.465021  3.033040
  9664.497  9664.500  0.500  2.134076  79.242075  9.378609  2.668900
  9664.787  9664.800  0.500  2.255847  79.256706  8.304898  2.328388
  9665.094  9665.100  0.500  2.394201  79.268666  7.232914  2.000166
  9665.404  9665.400  0.500  2.538033  79.230213  6.260905  1.710711
  9665.707  9665.700  0.500  2.679340  79.241353  5.436622  1.468781
  9666.010  9666.000  0.500  2.810075  79.160569  4.765504  1.271027
  9666.301  9666.300  0.500  2.915840  79.079679  4.282840  1.127162
  9666.603  9666.600  0.500  2.995222  79.028089  3.953420  1.024444
  9666.902  9666.900  0.500  3.044954  79.047222  3.762529  0.959123
  9667.201  9667.200  0.500  3.072744  79.056876  3.659854  0.917108
  9667.504  9667.500  0.500  3.091187  79.111914  3.595475  0.885527
  9667.790  9667.800  0.500  3.109868  79.167127  3.531397  0.855728
  9668.089  9668.100  0.500  3.137274  79.192391  3.437026  0.819933
  9668.392  9668.400  0.500  3.173857  79.186948  3.313333  0.778861
  9668.699  9668.700  0.500  3.220473  79.122486  3.159850  0.732145
  9668.998  9669.000  0.500  3.271763  79.095639  3.000848  0.685449
  9669.305  9669.300  0.500  3.320474  79.188900  2.861545  0.645086
  9669.608  9669.600  0.500  3.353591  79.220237  2.769428  0.616289
  9669.911  9669.900  0.500  3.359057  79.146253  2.751759  0.605261
  9670.210  9670.200  0.500  3.328645  79.167272  2.837484  0.617593
  9670.504  9670.500  0.500  3.265822  79.143180  3.020544  0.652895
  9670.803  9670.800  0.500  3.179386  79.122671  3.292390  0.707657
  9671.094  9671.100  0.500  3.081944  79.114622  3.628987  0.779010
  9671.389  9671.400  0.500  2.985555  79.085578  3.994727  0.859653
  9671.696  9671.700  0.500  2.894235  79.070743  4.375881  0.946207
  9671.996  9672.000  0.500  2.818357  79.044230  4.719251  1.029108
  9672.299  9672.300  0.500  2.757285  79.069703  5.018067  1.108064
  9672.598  9672.600  0.500  2.716148  79.072566  5.228990  1.170911
  9672.897  9672.900  0.500  2.692355  79.036155  5.352426  1.218116
  9673.204  9673.200  0.500  2.685250  79.267060  5.406342  1.251327
  9673.495  9673.500  0.500  2.691828  79.265791  5.370811  1.262537
  9673.810  9673.800  0.500  2.708712  79.281907  5.281962  1.262118
  9674.110  9674.100  0.500  2.731151  79.330514  5.167930  1.253681
  9674.401  9674.400  0.500  2.753991  79.301763  5.049401  1.240723
  9674.708  9674.700  0.500  2.774463  79.336680  4.949255  1.229911
  9674.999  9675.000  0.500  2.791248  79.295744  4.864366  1.219713
  9675.294  9675.300  0.500  2.805642  79.285133  4.794208  1.212228
  9675.602  9675.600  0.500  2.817508  79.284776  4.737633  1.205125
  9675.897  9675.900  0.500  2.828989  79.241163  4.680978  1.196573
  9676.200  9676.200  0.500  2.841375  79.249771  4.623857  1.186550
  9676.492  9676.500  0.500  2.855483  79.206830  4.556612  1.172560
  9676.795  9676.800  0.500  2.874338  79.175836  4.469753  1.152938
  9677.107  9677.100  0.500  2.898679  79.198999  4.363545  1.127514
  9677.410  9677.400  0.500  2.930015  79.192265  4.228570  1.094599
  9677.705  9677.700  0.500  2.965177  79.191761  4.082440  1.057068
  9678.009  9678.000  0.500  3.003165  79.170797  3.929225  1.017121
  9678.304  9678.300  0.500  3.040213  79.197405  3.787592  0.981245
  9678.604  9678.600  0.500  3.071470  79.168390  3.669690  0.950712
  9678.907  9678.900  0.500  3.090628  79.136084  3.598585  0.933202
  9679.199  9679.200  0.500  3.095028  79.171090  3.584372  0.930282
  9679.494  9679.500  0.500  3.084579  79.165206  3.621751  0.941997
  9679.794  9679.800  0.500  3.060734  79.168139  3.709289  0.966786
  9680.097  9680.100  0.500  3.029293  79.109299  3.824918  1.001018
  9680.405  9680.400  0.500  2.992701  79.139635  3.968993  1.042853
  9680.697  9680.700  0.500  2.959086  79.137029  4.104543  1.083503
  9680.996  9681.000  0.500  2.926449  79.081772  4.237755  1.124315
  9681.308  9681.300  0.500  2.896559  79.093166  4.366962  1.165566
  9681.608  9681.600  0.500  2.868631  79.101981  4.491140  1.205186
  9681.911  9681.900  0.500  2.841832  79.046445  4.609887  1.243780
  9682.207  9682.200  0.500  2.815241  79.059594  4.734900  1.284335
  9682.503  9682.500  0.500  2.787964  79.035279  4.864337  1.326941
  9682.807  9682.800  0.500  2.761090  79.113490  5.001777  1.370747
  9683.106  9683.100  0.500  2.736313  79.087705  5.125582  1.410551
  9683.394  9683.400  0.500  2.713058  79.079524  5.245634  1.449000
  9683.605  9683.600  0.500  2.698322  79.089224  5.324159  1.473091
  9684.605  9684.590  0.500  2.652300  79.003651  5.568878  1.549746
  9685.610  9685.590  0.500  2.644602  79.024884  5.613421  1.566065
  9686.632  9686.610  0.500  2.651001  79.011839  5.576699  1.554511
  9687.666  9687.660  0.500  2.643588  79.010381  5.618089  1.560476
  9688.732  9688.720  0.500  2.620978  78.966489  5.743367  1.583218
  9689.823  9689.800  0.500  2.592084  78.941480  5.909865  1.614378
  9690.923  9690.900  0.500  2.559111  78.895680  6.104435  1.649152
  9692.039  9692.020  0.500  2.520086  78.845960  6.343370  1.691221
  9693.184  9693.160  0.500  2.482594  78.812926  6.582952  1.732482
  9694.333  9694.310  0.500  2.459346  78.800527  6.736723  1.749832
  9695.498  9695.490  0.500  2.451505  78.804858  6.790129  1.742698
  9696.684  9696.680  0.500  2.454605  78.715424  6.761426  1.719471
  9697.919  9697.900  0.500  2.468294  78.699807  6.668181  1.684271
  9699.147  9699.130  0.500  2.491161  78.675487  6.515415  1.638361
  9700.387  9700.380  0.500  2.516263  78.672254  6.353635  1.595725
  9701.663  9701.650  0.500  2.534561  78.655056  6.237074  1.570670
  9702.957  9702.940  0.500  2.545664  78.600706  6.163944  1.564187
  9704.263  9704.250  0.500  2.553559  78.529405  6.109921  1.566522
  9705.594  9705.580  0.500  2.556196  78.520656  6.093153  1.576717
  9706.945  9706.930  0.500  2.553346  78.483316  6.107635  1.591668
  9708.313  9708.300  0.500  2.547384  78.308828  6.130500  1.606668
  9709.694  9709.680  0.500  2.543500  77.209607  6.067966  1.594257
  9711.100  9711.090  0.500  2.544395  78.363774  6.153164  1.615633
  9712.530  9712.510  0.500  2.552732  78.396728  6.104649  1.596316
  9713.965  9713.950  0.500  2.567271  78.287474  6.008147  1.562681
  9715.409  9715.410  0.500  2.586330  78.266642  5.893158  1.526815
  9716.914  9716.890  0.500  2.608899  78.289347  5.763310  1.489692
  9718.412  9718.390  0.500  2.633597  78.246413  5.619629  1.453571
  9719.926  9719.910  0.500  2.661373  78.200779  5.462498  1.416424
  9721.469  9721.450  0.500  2.688491  78.124571  5.311178  1.379553
  9723.030  9723.010  0.500  2.711376  78.069477  5.187350  1.348654
  9724.586  9724.580  0.500  2.730214  78.158256  5.096335  1.325231
  9726.188  9726.180  0.500  2.745100  78.018081  5.012029  1.304076
  9727.812  9727.790  0.500  2.752989  77.911938  4.965880  1.289205
  9729.431  9729.430  0.500  2.751059  77.922803  4.976168  1.287485
  9731.096  9731.080  0.500  2.739200  77.801920  5.027717  1.295887
  9732.762  9732.750  0.500  2.722827  77.914937  5.118139  1.311229
  9734.445  9734.440  0.500  2.710599  77.788502  5.172701  1.317200
  9736.165  9736.150  0.500  2.705813  77.793441  5.197846  1.315552
  9737.898  9737.880  0.500  2.706166  77.717904  5.190965  1.308653
  9739.636  9739.630  0.500  2.704482  77.717770  5.199707  1.309019
  9741.403  9741.390  0.500  2.695645  77.662745  5.242144  1.321797
  9743.196  9743.180  0.500  2.681179  77.628661  5.316194  1.347631
  9744.976  9744.980  0.500  2.665056  77.542028  5.396572  1.379899
  9746.832  9746.810  0.500  2.650186  77.525181  5.476227  1.415324
  9748.659  9748.650  0.500  2.637285  77.418457  5.539700  1.445230
  9750.524  9750.510  0.500  2.626147  77.406165  5.600854  1.472289
  9752.398  9752.390  0.500  2.615793  77.362149  5.655931  1.495771
  9754.297  9754.290  0.500  2.603868  77.324022  5.720959  1.519483
  9756.226  9756.210  0.500  2.591112  77.267027  5.790136  1.544652
  9758.168  9758.150  0.500  2.578107  77.204201  5.861155  1.570249
  9760.124  9760.110  0.500  2.567289  77.125974  5.918903  1.591934
  9762.088  9762.080  0.500  2.558732  77.059113  5.964596  1.608819
  9764.098  9764.080  0.500  2.553848  77.028617  5.991424  1.615039
  9766.093  9766.090  0.500  2.551880  76.950408  5.997128  1.612042
  9768.142  9768.120  0.500  2.550850  76.881633  5.997943  1.604276
  9770.192  9770.180  0.500  2.551911  76.777033  5.983434  1.592235
  9772.276  9772.250  0.500  2.555795  76.555922  5.943073  1.572688
  9774.365  9774.340  0.500  2.562101  76.148469  5.874284  1.545006
  9776.467  9776.450  0.500  2.568339  76.756973  5.884401  1.537889
  9778.612  9778.580  0.500  2.575117  76.706998  5.840850  1.515634
  9780.749  9780.720  0.500  2.582715  76.622908  5.790282  1.493564
  9782.920  9782.890  0.500  2.591129  76.040022  5.698091  1.464658
  9785.122  9785.080  0.500  2.598447  76.508873  5.691420  1.461753
  9787.291  9787.280  0.500  2.604763  76.360432  5.644614  1.452172
  9789.506  9789.500  0.500  2.609232  76.366533  5.619890  1.449856
  9791.702  9791.750  0.500  2.609943  75.485779  5.551129  1.435534
  9794.049  9794.010  0.500  2.606100  76.217331  5.626505  1.458564
  9796.276  9796.290  0.500  2.598268  76.144411  5.665320  1.471412
  9798.570  9798.590  0.500  2.588417  76.040358  5.713586  1.488764
  9800.903  9800.910  0.500  2.578974  75.856318  5.753838  1.504988
  9803.242  9803.250  0.500  2.572606  75.332582  5.750615  1.511659
  9805.602  9805.600  0.500  2.570197  76.016340  5.816808  1.536557
  9807.976  9807.980  0.500  2.569398  75.908255  5.813178  1.543979
  9810.371  9810.370  0.500  2.570141  75.847752  5.804232  1.550482
  9812.793  9812.790  0.500  2.572578  75.720003  5.780352  1.553756
  9815.221  9815.220  0.500  2.576402  75.618814  5.750592  1.555329
  9817.662  9817.670  0.500  2.580763  75.544995  5.719982  1.555770
  9820.154  9820.150  0.500  2.584401  75.070167  5.663390  1.546129
  9822.635  9822.640  0.500  2.587478  75.423082  5.672530  1.549146
  9825.160  9825.150  0.500  2.590232  75.379938  5.653697  1.538733
  9827.685  9827.670  0.500  2.592247  75.050614  5.617665  1.520634
  9830.208  9830.220  0.500  2.592503  75.191664  5.626780  1.516116
  9832.786  9832.790  0.500  2.589925  75.139835  5.637414  1.514040
  9835.374  9835.370  0.500  2.584945  74.648290  5.628496  1.508608
  9837.972  9837.980  0.500  2.578478  75.023964  5.693526  1.524964
  9840.600  9840.600  0.500  2.572096  74.936750  5.723319  1.533673
  9843.255  9843.250  0.500  2.566226  74.382282  5.714416  1.531274
  9845.908  9845.910  0.500  2.559196  74.866682  5.792203  1.551861
  9848.595  9848.590  0.500  2.550855  74.726520  5.829787  1.560541
  9851.297  9851.290  0.500  2.541217  74.668583  5.881680  1.572760
  9854.008  9854.010  0.500  2.531872  74.579800  5.929845  1.584609
  9856.759  9856.750  0.500  2.523531  74.537795  5.976140  1.596331
  9859.511  9859.500  0.500  2.515445  74.476304  6.019693  1.607310
  9862.281  9862.280  0.500  2.508382  74.459917  6.061028  1.619311
  9865.066  9865.070  0.500  2.503806  74.355095  6.080253  1.625687
  9867.895  9867.890  0.500  2.501824  74.423079  6.097887  1.634092
  9870.708  9870.720  0.500  2.502237  74.413033  6.094542  1.639075
  9873.565  9873.570  0.500  2.503751  74.278284  6.074306  1.640529
  9876.450  9876.450  0.500  2.505380  74.185364  6.056833  1.643934
  9879.340  9879.340  0.500  2.506720  74.006736  6.034157  1.647515
  9882.244  9882.250  0.500  2.507314  72.823913  5.934191  1.628114
  9885.188  9885.170  0.500  2.507513  74.043276  6.032350  1.664071
  9888.122  9888.120  0.500  2.506629  73.986821  6.033082  1.670332
  9891.095  9891.090  0.500  2.506109  73.867426  6.026477  1.673017
  9894.083  9894.070  0.500  2.505690  73.842380  6.026963  1.676215
  9897.085  9897.080  0.500  2.504963  73.713887  6.020846  1.675454
  9900.127  9900.100  0.500  2.503271  73.628067  6.024024  1.675011
  9903.163  9903.150  0.500  2.500827  73.544125  6.031879  1.675510
  9906.218  9906.210  0.500  2.498134  73.461115  6.041318  1.675560
  9909.308  9909.290  0.500  2.495803  73.411955  6.051363  1.677245
  9912.405  9912.390  0.500  2.493336  73.342130  6.060540  1.678622
  9915.521  9915.510  0.500  2.490508  73.221377  6.067699  1.680627
  9918.651  9918.650  0.500  2.487269  73.129484  6.079743  1.684798
  9921.822  9921.800  0.500  2.484118  73.067157  6.093735  1.689795
  9924.986  9924.980  0.500  2.481186  72.936969  6.100736  1.692282
  9928.200  9928.170  0.500  2.478551  72.764323  6.102358  1.693176
  9931.402  9931.390  0.500  2.476035  71.566478  6.017016  1.670347
