# XDI/1.0 BlueSky/1.10.0 BMM/2023-1.0-py310-tiled
# Beamline.name: BMM (06BM) -- Beamline for Materials Measurement (NIST)
# Beamline.xray_source: NSLS-II three-pole wiggler
# Beamline.collimation: paraboloid mirror, 5 nm Rh on 30 nm Pt
# Beamline.focusing: not in use
# Beamline.harmonic_rejection: flat mirror, Pt stripe, pitch = 7.0 mrad relative to beam
# Beamline.software: Bluesky 1.10.0, Ophyd 1.7.0, DataBroker 2.0.0b13, Python 3.10.8, 2023-1.0-py310-tiled
# Detector.I0: 10 cm N2
# Detector.I1: 25 cm N2
# Detector.I2: 25 cm N2
# Element.symbol: Zn
# Element.edge: K
# Element.reference: Zn
# Element.reference_material: Zn foil
# Facility.name: NSLS-II
# Facility.energy: 3.0
# Facility.current: 400.0
# Facility.mode: top-off
# Facility.GUP: 123456
# Facility.SAF: 301027
# Facility.cycle: 2023-2
# Mono.name: Si(111)
# Mono.d_spacing: 3.1351860
# Mono.encoder_resolution: 0.0000050 deg/ct
# Mono.angle_offset: 16.0754326 deg
# Mono.scan_mode: pseudo channel cut
# Mono.scan_type: step
# Mono.direction: forward in energy
# Sample.name: Zn4Si2O7(OH)2Â·H2O
# Sample.prep: powder in PEG pellet
# Sample.x: 116.329 mm
# Sample.y: 114.126 mm
# Sample.SDD_position: 205.000 mm
# Scan.experimenters: Bruce Ravel
# Scan.edge_energy: 9658.6
# Scan.start_time: 2023-05-06T13:31:23
# Scan.end_time: 2023-05-06T13:39:20
# Scan.transient_id: 74825
# Scan.uid: 237a2b16-d41e-4929-bfcb-6a4214067ad9
# Scan.plot_hint: ln(I0/It)  --  ln($5/$6)
# Column.1: energy eV
# Column.2: requested_energy eV
# Column.3: measurement_time seconds
# Column.4: xmu 
# Column.5: I0 nA
# Column.6: It nA
# Column.7: Ir nA
# ///////////
# sample courtesy Martin Stennett, University of Sheffield
# -----------
# energy  requested_energy  measurement_time  xmu  I0  It  Ir
  9458.611  9458.600  0.500  1.471377  105.456835  24.213853  13.340391
  9468.611  9468.600  0.500  1.465594  105.284824  24.314557  13.419953
  9478.660  9478.600  0.500  1.459741  105.102183  24.414854  13.500597
  9488.637  9488.600  0.500  1.453993  104.913166  24.511444  13.579444
  9498.620  9498.600  0.500  1.448102  104.728874  24.612946  13.660510
  9508.660  9508.600  0.500  1.442354  104.546656  24.711774  13.739735
  9518.627  9518.600  0.500  1.436559  104.354517  24.809708  13.819557
  9528.683  9528.600  0.500  1.431028  104.177777  24.905056  13.897911
  9538.654  9538.600  0.500  1.425483  103.995652  24.999760  13.973359
  9548.639  9548.600  0.500  1.420024  103.802842  25.089994  14.050181
  9558.633  9558.600  0.500  1.414568  103.620761  25.183022  14.125619
  9568.629  9568.600  0.500  1.409380  103.442498  25.270460  14.198828
  9578.678  9578.600  0.500  1.404366  103.264534  25.353788  14.268794
  9588.634  9588.600  0.500  1.399653  103.081381  25.428384  14.334998
  9598.642  9598.600  0.500  1.395400  102.895923  25.490819  14.389459
  9608.621  9608.600  0.500  1.391883  102.717312  25.536215  14.435344
  9618.632  9618.600  0.500  1.389726  102.498410  25.536808  14.450019
  9628.632  9628.600  0.500  1.390263  102.332926  25.481904  14.427220
  9630.591  9630.600  0.500  1.390821  102.290947  25.457245  14.412508
  9632.579  9632.600  0.500  1.391667  102.235109  25.421827  14.393779
  9634.579  9634.600  0.500  1.392925  102.023740  25.337378  14.343781
  9636.580  9636.600  0.500  1.394564  102.162426  25.330256  14.337741
  9638.574  9638.600  0.500  1.396591  102.128175  25.270490  14.299882
  9640.581  9640.600  0.500  1.399239  102.087921  25.193726  14.249281
  9642.585  9642.600  0.500  1.402689  102.048792  25.097344  14.186175
  9644.577  9644.600  0.500  1.407338  102.009530  24.971315  14.103761
  9646.587  9646.600  0.500  1.413196  101.963718  24.814315  13.997412
  9648.593  9648.600  0.500  1.421190  101.703997  24.554055  13.827417
  9648.862  9648.900  0.500  1.422476  101.697158  24.520841  13.805918
  9649.164  9649.200  0.500  1.424065  101.719671  24.487322  13.781922
  9649.466  9649.500  0.500  1.425573  101.760426  24.460226  13.762381
  9649.763  9649.800  0.500  1.427186  101.807140  24.432012  13.740773
  9650.065  9650.100  0.500  1.428773  101.832829  24.399435  13.717182
  9650.367  9650.400  0.500  1.430449  101.846420  24.361805  13.689113
  9650.664  9650.700  0.500  1.432389  101.849172  24.315265  13.658929
  9650.966  9651.000  0.500  1.434195  101.844277  24.270216  13.626450
  9651.268  9651.300  0.500  1.436467  101.846380  24.215638  13.590203
  9651.558  9651.600  0.500  1.438548  101.838663  24.163470  13.551052
  9651.872  9651.900  0.500  1.441165  101.833171  24.099022  13.508784
  9652.165  9652.200  0.500  1.443600  101.826697  24.038878  13.465262
  9652.475  9652.500  0.500  1.446081  101.815692  23.976728  13.420766
  9652.769  9652.800  0.500  1.448854  101.812514  23.909572  13.374052
  9653.071  9653.100  0.500  1.451720  101.801942  23.838670  13.324556
  9653.377  9653.400  0.500  1.454739  101.791841  23.764443  13.272286
  9653.675  9653.700  0.500  1.457945  101.783781  23.686521  13.214329
  9653.981  9654.000  0.500  1.461545  101.778709  23.600220  13.153419
  9654.279  9654.300  0.500  1.465129  101.765938  23.512831  13.090996
  9654.585  9654.600  0.500  1.469219  101.756855  23.414775  13.020985
  9654.883  9654.900  0.500  1.473338  101.749682  23.316874  12.950796
  9655.197  9655.200  0.500  1.478192  101.744737  23.202842  12.866517
  9655.487  9655.500  0.500  1.482938  101.731833  23.090051  12.783445
  9655.793  9655.800  0.500  1.488288  101.722180  22.964680  12.691184
  9656.087  9656.100  0.500  1.493889  101.708342  22.833304  12.593466
  9656.401  9656.400  0.500  1.500092  101.822309  22.717542  12.498803
  9656.695  9656.700  0.500  1.506475  102.026308  22.618211  12.415191
  9656.985  9657.000  0.500  1.513263  102.006939  22.460934  12.291922
  9657.291  9657.300  0.500  1.520816  101.996762  22.289705  12.159387
  9657.590  9657.600  0.500  1.528872  101.989895  22.109378  12.014985
  9657.884  9657.900  0.500  1.537839  101.984135  21.910777  11.854318
  9658.182  9658.200  0.500  1.547464  101.975696  21.699086  11.674837
  9658.492  9658.500  0.500  1.558642  101.969505  21.456596  11.463667
  9658.786  9658.800  0.500  1.570829  101.958626  21.194419  11.226571
  9659.081  9659.100  0.500  1.584216  101.951465  20.911121  10.959220
  9659.395  9659.400  0.500  1.600059  101.939555  20.580033  10.619842
  9659.689  9659.700  0.500  1.617517  101.927825  20.221530  10.227614
  9659.992  9660.000  0.500  1.637015  101.916007  19.828769  9.765178
  9660.294  9660.300  0.500  1.660520  101.907696  19.366549  9.199065
  9660.596  9660.600  0.500  1.686640  101.902577  18.866304  8.579898
  9660.899  9660.900  0.500  1.717447  101.899974  18.293474  7.913384
  9661.197  9661.200  0.500  1.752788  101.889204  17.656395  7.252851
  9661.503  9661.500  0.500  1.795772  101.883888  16.912648  6.593376
  9661.806  9661.800  0.500  1.849638  101.878182  16.024841  5.940952
  9662.104  9662.100  0.500  1.911962  101.861230  15.054083  5.342248
  9662.391  9662.400  0.500  1.984756  101.853690  13.996138  4.779700
  9662.689  9662.700  0.500  2.076371  101.845379  12.769829  4.203188
  9662.996  9663.000  0.500  2.183564  101.836584  11.470806  3.655764
  9663.294  9663.300  0.500  2.312082  101.827664  10.086521  3.121930
  9663.597  9663.600  0.500  2.461122  101.818661  8.689116  2.622901
  9663.887  9663.900  0.500  2.637626  101.818052  7.283138  2.149518
  9664.194  9664.200  0.500  2.845612  101.814382  5.915284  1.710812
  9664.497  9664.500  0.500  3.069186  101.805894  4.729795  1.344627
  9664.807  9664.800  0.500  3.314414  101.791262  3.700657  1.035244
  9665.102  9665.100  0.500  3.547215  101.785107  2.931895  0.809910
  9665.396  9665.400  0.500  3.774394  101.768328  2.335685  0.636837
  9665.707  9665.700  0.500  3.988055  101.720886  1.885470  0.507839
  9666.010  9666.000  0.500  4.172522  101.641776  1.566638  0.416708
  9666.305  9666.300  0.500  4.315205  101.579095  1.357483  0.355942
  9666.591  9666.600  0.500  4.421300  101.541451  1.220386  0.314685
  9666.890  9666.900  0.500  4.490707  101.515374  1.138262  0.288540
  9667.197  9667.200  0.500  4.528314  101.527747  1.096385  0.273293
  9667.491  9667.500  0.500  4.538987  101.571085  1.085208  0.265663
  9667.790  9667.800  0.500  4.541967  101.636976  1.082681  0.260661
  9668.089  9668.100  0.500  4.545363  101.667718  1.079336  0.255719
  9668.396  9668.400  0.500  4.558152  101.673214  1.065678  0.248711
  9668.703  9668.700  0.500  4.582307  101.677368  1.040288  0.239464
  9669.006  9669.000  0.500  4.617725  101.669984  1.004015  0.228370
  9669.301  9669.300  0.500  4.657029  101.668591  0.965306  0.216565
  9669.616  9669.600  0.500  4.700847  101.662749  0.923868  0.204791
  9669.898  9669.900  0.500  4.735821  101.661325  0.892103  0.195447
  9670.201  9670.200  0.500  4.760733  101.649221  0.870050  0.188738
  9670.496  9670.500  0.500  4.773907  101.647124  0.858645  0.185192
  9670.803  9670.800  0.500  4.771674  101.633697  0.860451  0.184194
  9671.094  9671.100  0.500  4.757397  101.627734  0.872772  0.186528
  9671.389  9671.400  0.500  4.734572  101.618329  0.892840  0.191226
  9671.692  9671.700  0.500  4.706018  101.604540  0.918577  0.197909
  9672.000  9672.000  0.500  4.673811  101.598166  0.948583  0.206056
  9672.295  9672.300  0.500  4.641920  101.588905  0.979233  0.215892
  9672.590  9672.600  0.500  4.609965  101.585096  1.010991  0.226050
  9672.897  9672.900  0.500  4.575042  101.579487  1.046865  0.238061
  9673.204  9673.200  0.500  4.542696  101.570258  1.081182  0.250449
  9673.499  9673.500  0.500  4.509204  101.564203  1.117939  0.263264
  9673.802  9673.800  0.500  4.475679  101.556877  1.155970  0.276321
  9674.110  9674.100  0.500  4.440769  101.547061  1.196922  0.290493
  9674.401  9674.400  0.500  4.408534  101.541596  1.236066  0.303666
  9674.704  9674.700  0.500  4.375644  101.523972  1.277175  0.317008
  9675.007  9675.000  0.500  4.341841  101.515516  1.320976  0.330895
  9675.315  9675.300  0.500  4.309182  101.509075  1.364743  0.344191
  9675.598  9675.600  0.500  4.278496  101.496463  1.407096  0.356923
  9675.889  9675.900  0.500  4.246077  101.480353  1.453229  0.370415
  9676.200  9676.200  0.500  4.213429  101.475434  1.501385  0.384176
  9676.496  9676.500  0.500  4.183695  101.464458  1.546529  0.397092
  9676.791  9676.800  0.500  4.153809  101.455900  1.593312  0.410041
  9677.099  9677.100  0.500  4.125808  101.442905  1.638348  0.422366
  9677.406  9677.400  0.500  4.099569  101.437638  1.681819  0.434006
  9677.697  9677.700  0.500  4.076340  101.429503  1.721204  0.444651
  9678.009  9678.000  0.500  4.056120  101.420614  1.756207  0.453722
  9678.304  9678.300  0.500  4.038543  101.412995  1.787214  0.461936
  9678.612  9678.600  0.500  4.024003  101.395119  1.813071  0.468835
  9678.899  9678.900  0.500  4.011103  101.397374  1.836652  0.475209
  9679.207  9679.200  0.500  4.000316  101.387498  1.856391  0.481466
  9679.510  9679.500  0.500  3.990246  101.374703  1.874942  0.486841
  9679.802  9679.800  0.500  3.981203  101.368937  1.891867  0.492628
  9680.089  9680.100  0.500  3.973040  101.365306  1.907305  0.498286
  9680.405  9680.400  0.500  3.964463  101.353119  1.923503  0.504628
  9680.701  9680.700  0.500  3.957196  101.342918  1.937337  0.510809
  9680.988  9681.000  0.500  3.950809  101.338364  1.949661  0.516594
  9681.300  9681.300  0.500  3.944431  101.328161  1.961940  0.523057
  9681.596  9681.600  0.500  3.939858  101.321838  1.970809  0.528213
  9681.887  9681.900  0.500  3.936377  101.308460  1.977421  0.532487
  9682.199  9682.200  0.500  3.934863  101.296180  1.980177  0.536438
  9682.503  9682.500  0.500  3.935319  101.285064  1.979055  0.539051
  9682.798  9682.800  0.500  3.937263  101.282745  1.975166  0.539914
  9683.110  9683.100  0.500  3.941414  101.273094  1.966799  0.540040
  9683.406  9683.400  0.500  3.946705  101.264675  1.956255  0.539060
  9683.592  9683.600  0.500  3.950575  101.253992  1.948495  0.537799
  9684.597  9684.590  0.500  3.968473  101.232870  1.913531  0.531523
  9685.586  9685.590  0.500  3.979959  101.214314  1.891331  0.526004
  9686.624  9686.610  0.500  3.991406  101.192807  1.869407  0.519334
  9687.682  9687.660  0.500  3.999574  101.165550  1.853701  0.513104
  9688.745  9688.720  0.500  3.975361  101.151986  1.898877  0.521406
  9689.819  9689.800  0.500  3.904815  101.127996  2.037191  0.554205
  9690.919  9690.900  0.500  3.800214  101.103831  2.261286  0.608339
  9692.039  9692.020  0.500  3.692808  101.062128  2.516646  0.668444
  9693.196  9693.160  0.500  3.612292  101.055568  2.727481  0.715273
  9694.316  9694.310  0.500  3.571692  101.037253  2.839980  0.735260
  9695.498  9695.490  0.500  3.565252  101.014439  2.857685  0.731521
  9696.696  9696.680  0.500  3.587981  100.983495  2.792608  0.708316
  9697.968  9697.900  0.500  3.631214  100.950545  2.673577  0.673767
  9699.098  9699.130  0.500  3.672069  100.911044  2.565545  0.643951
  9700.724  9700.380  0.500  3.719390  100.856591  2.445648  0.613224
  9701.676  9701.650  0.500  3.750644  100.841866  2.370047  0.596086
  9702.981  9702.940  0.500  3.788649  100.810759  2.280959  0.578007
  9704.287  9704.250  0.500  3.830253  100.779602  2.187333  0.559828
  9705.602  9705.580  0.500  3.874943  100.746187  2.091040  0.540356
  9706.949  9706.930  0.500  3.918500  100.695844  2.000914  0.520509
  9708.321  9708.300  0.500  3.960280  100.509871  1.915494  0.500627
  9709.706  9709.680  0.500  3.993530  99.220369  1.829081  0.478989
  9711.120  9711.090  0.500  4.019040  100.673003  1.809115  0.473455
  9712.534  9712.510  0.500  4.038036  100.667037  1.774968  0.462678
  9713.961  9713.950  0.500  4.051378  100.635270  1.750890  0.453737
  9715.429  9715.410  0.500  4.059680  100.607841  1.735942  0.448285
  9716.914  9716.890  0.500  4.064885  100.568519  1.726255  0.444582
  9718.424  9718.390  0.500  4.072791  100.540739  1.712187  0.441707
  9719.930  9719.910  0.500  4.082875  100.503094  1.694374  0.438104
  9721.473  9721.450  0.500  4.091014  100.474161  1.680156  0.434974
  9723.030  9723.010  0.500  4.093264  100.442746  1.675855  0.434594
  9724.607  9724.580  0.500  4.089084  100.410163  1.682329  0.436142
  9726.201  9726.180  0.500  4.082229  100.377479  1.693351  0.438904
  9727.803  9727.790  0.500  4.073959  100.333739  1.706669  0.441427
  9729.444  9729.430  0.500  4.063848  100.322525  1.723819  0.444485
  9731.088  9731.080  0.500  4.055036  100.292470  1.738555  0.446859
  9732.770  9732.750  0.500  4.048343  100.261610  1.749693  0.446802
  9734.461  9734.440  0.500  4.041790  100.230330  1.760646  0.447077
  9736.161  9736.150  0.500  4.030529  100.200867  1.780062  0.449304
  9737.890  9737.880  0.500  4.014607  100.175527  1.808173  0.454544
  9739.644  9739.630  0.500  3.995617  100.141481  1.842212  0.462673
  9741.407  9741.390  0.500  3.975756  100.110302  1.878581  0.472313
  9743.204  9743.180  0.500  3.956960  100.077742  1.913601  0.483995
  9744.993  9744.980  0.500  3.939859  100.251829  1.949994  0.497420
  9746.819  9746.810  0.500  3.924244  100.325123  1.982131  0.510930
  9748.663  9748.650  0.500  3.913150  100.290579  2.003552  0.521680
  9750.524  9750.510  0.500  3.906949  100.253283  2.015265  0.528676
  9752.402  9752.390  0.500  3.904582  100.219560  2.019362  0.532629
  9754.293  9754.290  0.500  3.905555  100.179282  2.016588  0.534471
  9756.222  9756.210  0.500  3.906475  100.152127  2.014186  0.535997
  9758.177  9758.150  0.500  3.908703  100.106611  2.008790  0.536848
  9760.115  9760.110  0.500  3.912076  100.077691  2.001447  0.536934
  9762.076  9762.080  0.500  3.915136  100.036225  1.994506  0.536184
  9764.098  9764.080  0.500  3.916937  99.994419  1.990085  0.534629
  9766.114  9766.090  0.500  3.917121  99.948871  1.988812  0.533083
  9768.134  9768.120  0.500  3.915925  99.890900  1.990037  0.530903
  9770.196  9770.180  0.500  3.911975  99.817558  1.996447  0.529290
  9772.251  9772.250  0.500  3.907872  99.596772  2.000221  0.527642
  9774.353  9774.340  0.500  3.906900  99.362460  1.997457  0.523793
  9776.455  9776.450  0.500  3.906415  99.757960  2.006380  0.522589
  9778.604  9778.580  0.500  3.910261  99.691279  1.997341  0.516880
  9780.728  9780.720  0.500  3.917406  99.601097  1.981328  0.509820
  9782.900  9782.890  0.500  3.927282  98.302877  1.936284  0.496100
  9785.093  9785.080  0.500  3.942992  99.641105  1.932053  0.494811
  9787.299  9787.280  0.500  3.956216  99.579126  1.905486  0.489112
  9789.498  9789.500  0.500  3.965698  99.459886  1.885243  0.485219
  9791.769  9791.750  0.500  3.967703  97.889180  1.851754  0.477475
  9794.015  9794.010  0.500  3.966474  99.507429  1.884680  0.487078
  9796.305  9796.290  0.500  3.961279  99.439112  1.893196  0.490155
  9798.603  9798.590  0.500  3.956362  99.360119  1.901017  0.493817
  9800.916  9800.910  0.500  3.953556  99.205031  1.903383  0.496408
  9803.258  9803.250  0.500  3.953044  98.784681  1.896289  0.497091
  9805.627  9805.600  0.500  3.949975  99.264285  1.911351  0.503536
  9807.996  9807.980  0.500  3.947918  99.198878  1.914026  0.507461
  9810.380  9810.370  0.500  3.944696  99.147427  1.919206  0.511135
  9812.814  9812.790  0.500  3.941967  99.099161  1.923514  0.515657
  9815.217  9815.220  0.500  3.939381  99.048240  1.927505  0.519967
  9817.687  9817.670  0.500  3.936039  99.009206  1.933194  0.524310
  9820.167  9820.150  0.500  3.931945  98.387118  1.928928  0.525078
  9822.640  9822.640  0.500  3.928970  98.840951  1.943601  0.529061
  9825.164  9825.150  0.500  3.923656  98.815837  1.953460  0.530274
  9827.685  9827.670  0.500  3.917205  98.280097  1.955443  0.527494
  9830.220  9830.220  0.500  3.911253  98.706509  1.975650  0.530648
  9832.819  9832.790  0.500  3.905441  98.651492  1.986060  0.531552
  9835.395  9835.370  0.500  3.901386  98.200536  1.985014  0.530305
  9838.009  9837.980  0.500  3.898336  98.557878  1.998322  0.533843
  9840.625  9840.600  0.500  3.896389  98.510396  2.001252  0.535022
  9843.255  9843.250  0.500  3.894801  97.871130  1.991426  0.532503
  9845.929  9845.910  0.500  3.892058  98.365600  2.006984  0.536263
  9848.608  9848.590  0.500  3.888753  98.327559  2.012848  0.537143
  9851.309  9851.290  0.500  3.885550  98.280819  2.018348  0.538261
  9854.029  9854.010  0.500  3.882336  98.221947  2.023632  0.539252
  9856.754  9856.750  0.500  3.880538  98.158545  2.025964  0.539486
  9859.519  9859.500  0.500  3.879679  98.102847  2.026554  0.539448
  9862.298  9862.280  0.500  3.880899  98.037164  2.022730  0.538978
  9865.066  9865.070  0.500  3.881423  97.987652  2.020648  0.539021
  9867.920  9867.890  0.500  3.881208  97.919843  2.019684  0.539492
  9870.729  9870.720  0.500  3.879526  97.863084  2.021912  0.542398
  9873.591  9873.570  0.500  3.877253  97.798233  2.025170  0.545181
  9876.462  9876.450  0.500  3.873877  97.741155  2.030833  0.549704
  9879.361  9879.340  0.500  3.868911  97.568889  2.037345  0.554739
  9882.278  9882.250  0.500  3.865561  95.980993  2.010913  0.550621
  9885.176  9885.170  0.500  3.861684  97.445585  2.049530  0.563788
  9888.151  9888.120  0.500  3.860338  97.430778  2.051978  0.566363
  9891.082  9891.090  0.500  3.860561  97.384097  2.050537  0.567819
  9894.100  9894.070  0.500  3.861526  97.323431  2.047284  0.567882
  9897.094  9897.080  0.500  3.861795  97.258186  2.045362  0.567252
  9900.136  9900.100  0.500  3.860875  97.189503  2.045797  0.567008
  9903.167  9903.150  0.500  3.858604  97.126734  2.049124  0.567497
  9906.231  9906.210  0.500  3.856116  97.064575  2.052914  0.567944
  9909.313  9909.290  0.500  3.854216  96.992917  2.055299  0.567951
  9912.397  9912.390  0.500  3.852326  96.926325  2.057775  0.568327
  9915.534  9915.510  0.500  3.850298  96.861024  2.060563  0.569077
  9918.656  9918.650  0.500  3.849413  96.786770  2.060806  0.569434
