# XDI/1.0 BlueSky/1.10.0 BMM/2023-1.0-py310-tiled
# Beamline.name: BMM (06BM) -- Beamline for Materials Measurement (NIST)
# Beamline.xray_source: NSLS-II three-pole wiggler
# Beamline.collimation: paraboloid mirror, 5 nm Rh on 30 nm Pt
# Beamline.focusing: not in use
# Beamline.harmonic_rejection: flat mirror, Pt stripe, pitch = 7.0 mrad relative to beam
# Beamline.software: Bluesky 1.10.0, Ophyd 1.7.0, DataBroker 2.0.0b13, Python 3.10.8, 2023-1.0-py310-tiled
# Detector.I0: 10 cm N2
# Detector.I1: 25 cm N2
# Detector.I2: 25 cm N2
# Detector.fluorescence: SII Vortex ME4 (4-element silicon drift)
# Detector.deadtime_correction: Xspress3
# Element.symbol: Zn
# Element.edge: K
# Element.reference: Zn
# Element.reference_material: Zn foil
# Facility.name: NSLS-II
# Facility.energy: 3.0
# Facility.current: 400.5
# Facility.mode: top-off
# Facility.GUP: 123456
# Facility.SAF: 301027
# Facility.cycle: 2023-2
# Mono.name: Si(111)
# Mono.d_spacing: 3.1351860
# Mono.encoder_resolution: 0.0000050 deg/ct
# Mono.angle_offset: 16.0754326 deg
# Mono.scan_mode: pseudo channel cut
# Mono.scan_type: step
# Mono.direction: forward in energy
# Sample.name: Ca(Zn,Mn,Fe,Mg)Si2O6
# Sample.prep: powder in PEG pellet
# Sample.x: 116.329 mm
# Sample.y: 114.126 mm
# Sample.SDD_position: 35.000 mm
# Scan.experimenters: Bruce Ravel
# Scan.edge_energy: 9658.6
# Scan.start_time: 2023-05-07T12:03:03
# Scan.end_time: 2023-05-07T12:20:50
# Scan.transient_id: 74875
# Scan.uid: 23087f9d-cb0f-417d-9302-aed8d91d8d55
# Scan.plot_hint: (Zn1+Zn2+Zn3+Zn4)/I0  --  ($8+$9+$10+$11)/$5
# Column.1: energy eV
# Column.2: requested_energy eV
# Column.3: measurement_time seconds
# Column.4: xmu 
# Column.5: I0 nA
# Column.6: It nA
# Column.7: Ir nA
# Column.8: Zn1 
# Column.9: Zn2 
# Column.10: Zn3 
# Column.11: Zn4 
# ///////////
# sample courtesy Martin Stennett, University of Sheffield
# -----------
# energy  requested_energy  measurement_time  xmu  I0  It  Ir  Zn1  Zn2  Zn3  Zn4
  9458.573  9458.600  2.000  46.739879  417.010060  421.003919  232.802448  6620.541842  6309.207618  2839.897024  3721.353181
  9468.665  9468.600  2.000  45.549556  416.424176  421.232195  233.359972  6597.164196  6112.946029  2674.663848  3583.162119
  9478.652  9478.600  2.000  45.529899  415.696997  421.340040  233.846679  6161.250328  6396.373526  2770.821215  3598.197408
  9488.629  9488.600  2.000  47.694283  414.994928  421.515930  234.371408  6239.346781  6828.018196  3025.167785  3700.352574
  9498.628  9498.600  2.000  44.298197  414.337664  421.718141  234.906536  6016.612503  6305.255011  2741.781750  3290.762054
  9508.632  9508.600  2.000  46.133951  413.622326  421.822677  235.393486  5731.755734  7062.372020  2911.014190  3376.890278
  9518.631  9518.600  2.000  45.965148  412.939096  421.984955  235.910771  5608.451017  7043.374054  2990.136753  3338.844656
  9528.628  9528.600  2.000  41.461871  412.260854  422.142255  236.424064  5530.352870  5946.767394  2479.430611  3136.555310
  9538.611  9538.600  2.000  39.414708  411.583223  422.373796  236.949359  5287.565721  5430.027651  2409.331738  3095.507303
  9548.615  9548.600  2.000  38.551122  410.877300  422.443530  237.407133  5162.268008  5430.027651  2300.188516  2947.296820
  9558.610  9558.600  2.000  36.820706  410.183680  422.531994  237.862984  5056.645406  4988.393610  2248.115784  2810.097854
  9568.610  9568.600  2.000  35.623238  409.470197  422.695820  238.343127  4897.533083  4697.975289  2121.951337  2869.194720
  9578.611  9578.600  2.000  34.001219  408.728409  422.797140  238.782457  4697.838187  4454.628376  2059.870489  2684.927119
  9588.606  9588.600  2.000  36.220338  408.021106  422.858313  239.197362  4712.927905  5175.725126  2222.101173  2667.908229
  9598.591  9598.600  2.000  33.808541  407.299935  422.941745  239.595900  4514.704409  4654.929153  2056.864294  2543.718784
  9608.975  9608.600  2.000  32.655483  406.346528  422.805186  239.841494  4386.467837  4332.451725  2002.793379  2547.729121
  9618.600  9618.600  2.000  32.141234  405.564815  422.788491  240.075076  4292.565129  4302.418617  1988.774173  2451.595857
  9628.588  9628.600  2.000  32.790638  405.106927  423.120788  240.391934  4340.592769  4359.520671  2010.813072  2572.788135
  9630.599  9630.600  2.000  31.505666  405.743043  423.975129  240.880150  4445.955498  3878.816042  1938.718539  2519.714841
  9632.587  9632.600  2.000  31.594192  405.495960  423.894167  240.830931  4306.813237  3938.908017  1929.706469  2635.889331
  9634.579  9634.600  2.000  32.879891  404.538501  423.065564  240.330626  4276.927399  4212.306797  2136.005020  2675.942410
  9636.588  9636.600  2.000  33.845964  405.156518  423.871974  240.736182  4399.222728  4585.877239  2130.986439  2596.826515
  9638.586  9638.600  2.000  32.111802  405.043548  423.858636  240.666171  4190.716348  4172.262174  2010.819579  2632.879937
  9640.593  9640.600  2.000  32.113534  404.889152  423.852041  240.560440  4380.751181  3975.964618  2024.840796  2620.865098
  9642.597  9642.600  2.000  32.089762  404.729670  423.862358  240.415704  4244.826812  4048.073958  2084.932961  2609.845177
  9644.605  9644.600  2.000  32.677899  404.536473  423.834326  240.199828  4358.354689  3918.900443  2188.075088  2754.071682
  9646.607  9646.600  2.000  32.889474  404.387860  423.841728  239.922701  4439.056973  3918.900443  2188.075088  2754.071682
  9648.601  9648.600  2.000  33.802051  403.359340  422.935328  239.003293  4410.814387  4124.198387  2326.266843  2773.093548
  9648.874  9648.900  2.000  34.477641  403.295791  422.899823  238.912879  4488.861074  4145.219851  2325.260678  2945.345777
  9649.164  9649.200  2.000  34.409019  403.325518  422.936833  238.860347  4531.242497  4187.317799  2325.283396  2834.191568
  9649.478  9649.500  2.000  33.767747  403.409987  423.090142  238.869229  4452.771741  4045.074590  2260.174324  2864.225657
  9649.775  9649.800  2.000  34.427291  403.587263  423.315453  238.916764  4641.808233  4097.153028  2333.288370  2822.166605
  9650.073  9650.100  2.000  34.759969  403.738324  423.441304  238.892596  4470.850256  4217.343412  2374.346636  2971.391171
  9650.391  9650.400  2.000  35.215689  403.796418  423.496224  238.828408  4496.649531  4363.559630  2377.354337  2982.405565
  9650.685  9650.700  2.000  34.629384  403.770099  423.530177  238.730077  4505.351854  4127.215768  2408.392802  2941.349403
  9650.986  9651.000  2.000  34.748247  403.782895  423.648011  238.692469  4585.802343  4191.325260  2410.403242  2843.217106
  9651.280  9651.300  2.000  34.907776  403.767802  423.592968  238.544069  4496.483124  4196.326828  2392.367431  3009.458487
  9651.594  9651.600  2.000  35.640570  403.736871  423.598597  238.408165  4663.047215  4339.554219  2423.414282  2963.396414
  9651.896  9651.900  2.000  35.513080  403.715527  423.649855  238.292241  4643.886703  4345.556793  2428.418008  2919.320314
  9652.194  9652.200  2.000  36.104679  403.677606  423.568676  238.111998  4629.997972  4455.702769  2436.432059  3052.517394
  9652.503  9652.500  2.000  36.547316  403.627322  423.525146  237.925585  4723.702600  4531.829751  2456.460487  3039.502408
  9652.801  9652.800  2.000  36.498445  403.566291  423.474358  237.724802  4738.818977  4344.546009  2499.523885  3146.653244
  9653.103  9653.100  2.000  36.954253  403.515773  423.459535  237.540944  4669.519248  4573.897609  2582.635166  3085.571808
  9653.405  9653.400  2.000  37.146587  403.465425  423.422716  237.324607  4668.156619  4566.872973  2617.684499  3134.649383
  9653.707  9653.700  2.000  37.892650  403.405658  423.414997  237.107760  4823.676972  4674.038957  2563.618092  3224.775482
  9654.001  9654.000  2.000  38.469481  403.383826  423.442147  236.887295  4756.085878  4809.250004  2661.756997  3290.873344
  9654.303  9654.300  2.000  38.146857  403.365227  423.386720  236.614132  4876.639102  4569.877666  2650.730632  3289.868154
  9654.609  9654.600  2.000  38.452325  403.326119  423.384933  236.337488  4888.174966  4787.213283  2718.830452  3114.608290
  9654.899  9654.900  2.000  39.423210  403.266743  423.318185  236.009081  4782.630982  4891.396648  2834.004938  3390.036888
  9655.197  9655.200  2.000  39.226318  403.227178  423.310597  235.660709  5007.189641  4626.967316  2760.893699  3422.066833
  9655.499  9655.500  2.000  39.312175  403.170680  423.286550  235.288254  4846.268092  4689.081480  2793.943347  3520.223586
  9655.797  9655.800  2.000  39.038726  403.121825  423.353125  234.903168  4846.268092  4538.869238  2930.137567  3422.087439
  9656.107  9656.100  2.000  40.402551  403.071638  423.235030  234.375427  5041.528641  4825.282135  2823.988771  3594.322959
  9656.401  9656.400  2.000  40.469365  403.031435  423.183027  233.850675  5101.897663  4674.061016  3019.256559  3515.210831
  9656.711  9656.700  2.000  41.051853  402.954587  423.124553  233.249929  5019.027501  4992.537296  2960.170095  3570.297711
  9656.993  9657.000  2.000  41.640681  402.897582  423.073420  232.599632  5289.971964  4784.229749  3086.361175  3616.366861
  9657.303  9657.300  2.000  41.985360  402.824042  423.059105  231.859462  5239.479517  4845.313183  3040.295227  3787.624661
  9657.594  9657.600  2.000  43.234016  402.753989  423.048520  231.032204  5406.944643  4994.545916  3214.543267  3796.638450
  9657.896  9657.900  2.000  42.653379  402.718707  423.099872  230.062287  5406.944643  4759.187086  3214.543267  3796.638450
  9658.202  9658.200  2.000  44.036759  402.672478  423.077895  228.859700  5524.405793  4759.187086  3418.829109  4029.968979
  9658.492  9658.500  2.000  45.192433  402.603932  423.030964  227.422586  5623.080404  5038.622396  3439.859696  4093.088895
  9658.802  9658.800  2.000  47.026280  402.536480  422.937774  225.540980  5667.193211  5327.063143  3671.195306  4264.341679
  9659.093  9659.100  2.000  48.521240  402.504214  422.879793  223.281249  5828.761788  5568.423633  3768.341261  4364.476846
  9659.403  9659.400  2.000  50.641208  402.452834  422.876606  220.232635  5939.397940  5994.048015  4015.678963  4431.572732
  9659.693  9659.700  2.000  50.862158  402.417342  422.893049  216.351181  6043.489184  5729.675194  4127.853751  4566.796239
  9660.004  9660.000  2.000  53.145153  402.390430  422.874067  211.098786  6177.608658  5968.036951  4350.180862  4889.274282
  9660.314  9660.300  2.000  55.103208  402.355199  422.860506  204.150872  6327.588232  6240.466749  4573.505629  5029.501427
  9660.596  9660.600  2.000  56.118979  402.300556  422.833505  196.208435  6327.588232  6228.463255  4791.834672  5228.810229
  9660.915  9660.900  2.000  59.174009  402.252510  422.806188  186.612573  6941.861964  6587.013496  4791.834672  5482.183483
  9661.205  9661.200  2.000  63.854096  402.203940  422.837341  177.303610  7040.742639  7096.778188  5478.782289  6066.065911
  9661.508  9661.500  2.000  67.363346  402.187003  422.882066  167.875000  7608.740795  7351.185288  5772.229056  6360.507235
  9661.798  9661.800  2.000  72.015098  402.120016  422.911150  159.416712  8034.566340  7740.806859  6223.888865  6959.450164
  9662.104  9662.100  2.000  78.418705  402.057246  422.815322  151.920178  8603.647441  8281.665151  6968.971667  7674.524481
  9662.411  9662.400  2.000  87.608309  402.018048  422.813261  145.475520  9522.679819  9236.157297  7939.426304  8521.857920
  9662.701  9662.700  2.000  97.615270  401.989844  422.828322  140.156380  10481.175043  10264.816029  8870.802710  9623.553498
  9663.008  9663.000  2.000  108.008009  401.946194  422.796775  135.221585  11353.025502  11421.689770  9912.362184  10726.330748
  9663.298  9663.300  2.000  121.948133  401.903129  422.780998  131.155535  12794.409948  12462.403807  11422.659851  12331.862559
  9663.601  9663.600  2.000  138.879103  401.861616  422.711875  127.494953  14309.692473  14126.184820  13196.428824  14177.874570
  9663.903  9663.900  2.000  156.510820  401.849243  422.686544  124.441210  16493.342051  15597.600926  14772.904213  16029.907237
  9664.202  9664.200  2.000  183.358516  402.542660  423.429633  122.065742  18732.877989  18334.257579  17954.980685  18787.508327
  9664.505  9664.500  2.000  207.409222  402.487849  423.368609  119.910367  21084.752942  20368.772719  20237.648356  21788.517462
  9664.787  9664.800  2.000  235.034128  402.447361  423.316631  118.164298  23966.788391  23009.439234  23265.624857  24347.012236
  9665.102  9665.100  2.000  260.680046  402.398500  423.250121  116.605340  26551.498589  25480.864902  25253.219618  27611.676330
  9665.396  9665.400  2.000  297.023613  402.322916  423.130330  115.268462  30115.047884  28589.538864  29259.037757  31535.781301
  9665.699  9665.700  2.000  339.157278  402.138482  422.918036  113.888021  33776.073293  32887.421472  33942.227946  35782.470178
  9665.994  9666.000  2.000  368.180626  401.850066  422.571522  112.471190  37211.608771  34754.252960  36829.572223  39157.974757
  9666.301  9666.300  2.000  402.914452  401.540704  422.208103  110.904222  40405.644824  38393.203801  40521.459171  42466.244832
  9666.591  9666.600  2.000  442.691831  401.298913  421.938396  109.271652  43560.592775  42645.467782  44531.833422  46913.856836
  9666.902  9666.900  2.000  471.329560  401.174222  421.833091  107.481335  46089.990577  45425.912413  47837.901470  49731.464911
  9667.205  9667.200  2.000  477.521090  401.138578  421.782906  105.730605  46089.990577  45425.912413  47837.901470  52198.326437
  9667.504  9667.500  2.000  503.514455  401.242506  421.934185  104.027885  49325.628037  48232.641879  51220.494040  53252.638026
  9667.802  9667.800  2.000  517.684459  401.506670  422.290885  102.414268  49867.742039  50262.524152  52930.782758  54792.713852
  9668.105  9668.100  2.000  518.226095  401.685221  422.435023  100.787483  50090.195060  50378.028686  53111.106221  54584.433554
  9668.400  9668.400  2.000  513.545485  401.680054  422.434420  99.315456  49747.157827  49851.719860  52495.699597  54186.400834
  9668.707  9668.700  2.000  514.205325  401.696774  422.491989  97.895914  50161.214063  49453.149931  52442.976304  54497.280263
  9668.998  9669.000  2.000  517.767376  401.632626  422.452271  96.579292  50228.964647  50274.612297  53474.580836  53974.112763
  9669.313  9669.300  2.000  515.803470  401.603268  422.460052  95.316146  50228.964647  49651.686290  53474.580836  53793.127350
  9669.604  9669.600  2.000  518.887179  401.560224  422.426592  94.237098  50523.068023  49852.412171  52794.138975  55194.832413
  9669.911  9669.900  2.000  526.848303  401.532504  422.424288  93.207750  51931.850521  50444.565335  53294.089838  55876.212674
  9670.197  9670.200  2.000  540.687417  401.488381  422.355331  92.354625  52475.120299  52095.885577  55290.679669  57218.030035
  9670.509  9670.500  2.000  545.259727  401.440384  422.304399  91.651956  52899.417240  52095.885577  55810.997965  58082.973521
  9670.799  9670.800  2.000  549.163889  401.375141  422.250909  91.178351  52901.832133  53287.387225  56084.507676  58147.006740
  9671.094  9671.100  2.000  549.622250  401.343734  422.257037  90.964065  53085.500385  53138.749717  56315.564911  58047.630900
  9671.397  9671.400  2.000  544.082477  401.293495  422.250546  91.052123  52225.290863  53088.806383  55701.407368  57321.254227
  9671.696  9671.700  2.000  525.580948  401.253695  422.268244  91.495306  51007.997336  50502.654790  53962.237901  55418.407076
  9672.000  9672.000  2.000  516.308889  401.198507  422.279457  92.300218  50314.504114  49686.962332  52895.006054  54245.882907
  9672.295  9672.300  2.000  502.872072  401.148149  422.266770  93.415973  48925.105519  48097.410179  51408.859679  53294.825459
  9672.602  9672.600  2.000  486.543793  401.090682  422.236082  94.818854  47487.464573  46875.940825  49239.653597  51545.123024
  9672.893  9672.900  2.000  483.034208  401.049879  422.201629  96.352432  46608.221287  46865.701560  49506.276898  50740.610787
  9673.204  9673.200  2.000  468.964513  401.014225  422.197063  98.028470  45807.818911  45059.107177  48009.169227  49185.345104
  9673.491  9673.500  2.000  470.061313  400.998777  422.207894  99.633585  45266.243550  46148.901909  48232.146065  48846.719979
  9673.802  9673.800  2.000  452.880961  400.953323  422.222533  101.286668  44390.022393  43546.223582  45927.255524  47720.624905
  9674.106  9674.100  2.000  452.511436  400.942709  422.244253  102.766043  44129.235333  43502.335724  46128.027382  47671.562303
  9674.409  9674.400  2.000  452.990161  400.880036  422.184594  104.118536  43927.973222  44181.324497  46125.640552  47359.773973
  9674.704  9674.700  2.000  444.802927  400.828440  422.135794  105.214334  43512.636734  42857.732904  44966.444960  46952.848915
  9675.011  9675.000  2.000  444.821252  400.778930  422.097410  106.206089  43393.807062  43103.231842  45090.552356  46687.394158
  9675.299  9675.300  2.000  443.748731  400.745379  422.112597  106.988749  43010.545083  43039.008114  45348.836836  46431.863310
  9675.614  9675.600  2.000  431.450511  400.708647  422.108674  107.664873  42211.646090  41538.191820  43628.930393  45507.182118
  9675.901  9675.900  2.000  430.473289  400.642174  422.053565  108.160462  42211.646090  41538.191820  43480.533550  45235.382680
  9676.209  9676.200  2.000  418.513943  400.588731  422.042119  108.602006  40859.987082  41283.577984  41743.600835  43764.803276
  9676.496  9676.500  2.000  413.200295  400.550208  422.016894  108.923592  39893.778485  40629.016238  42265.039864  42719.629439
  9676.807  9676.800  2.000  393.557278  400.487555  422.019142  109.178417  39011.004939  37820.915346  39507.022784  41275.848727
  9677.099  9677.100  2.000  377.208747  400.451316  422.011449  109.360171  37423.851066  36037.624789  37837.202312  39755.061004
  9677.406  9677.400  2.000  366.797191  400.414099  422.006022  109.475523  36342.351212  35296.238546  36416.890594  38815.286274
  9677.693  9677.700  2.000  355.296791  400.360480  422.035792  109.550852  35276.348061  33977.587764  35318.766018  37674.091794
  9678.001  9678.000  2.000  353.127614  400.307596  421.996953  109.577223  34497.638776  34355.234269  35464.872953  37041.920135
  9678.292  9678.300  2.000  348.661219  400.269274  421.971492  109.597990  34164.556102  33844.090751  35125.053809  36424.672512
  9678.604  9678.600  2.000  342.654212  400.209065  421.927743  109.622852  33403.373305  33403.320713  34707.365773  35619.262152
  9678.887  9678.900  2.000  332.624633  400.157759  421.931047  109.697478  33054.055802  32010.801154  33450.125842  34587.344675
  9679.195  9679.200  2.000  316.504464  400.145691  421.968666  109.838478  32132.982081  30025.408344  30772.713143  33716.793858
  9679.490  9679.500  2.000  320.023619  400.100140  421.996767  110.052389  32198.653528  30588.233188  31730.314896  33524.293232
  9679.806  9679.800  2.000  316.147715  400.081698  421.935087  110.347170  31801.903829  30420.006365  31163.323688  33099.680820
  9680.093  9680.100  2.000  309.280204  400.037004  421.885904  110.690733  31508.102887  29400.123012  30277.739608  32537.560426
  9680.401  9680.400  2.000  315.027687  399.968757  421.838738  111.149308  31272.144256  30460.735782  31454.439828  32813.912377
  9680.697  9680.700  2.000  304.503302  399.938533  421.823167  111.654410  30809.906913  29046.625322  29863.192744  32062.879044
  9681.012  9681.000  2.000  309.059609  399.900284  421.838020  112.242254  30699.527265  29946.038333  30704.388135  32243.071836
  9681.300  9681.300  2.000  302.351434  399.873588  421.856034  112.836345  30529.185832  28887.124867  29607.675886  31878.366135
  9681.612  9681.600  2.000  303.363936  399.838270  421.829413  113.460469  30589.791767  29058.491539  29800.894628  31847.333271
  9681.903  9681.900  2.000  306.286643  399.770529  421.785311  114.067572  30519.548796  29456.127297  30312.842319  32155.854922
