# XDI/1.0 BlueSky/1.10.0 BMM/2023-1.0-py310-tiled
# Beamline.name: BMM (06BM) -- Beamline for Materials Measurement (NIST)
# Beamline.xray_source: NSLS-II three-pole wiggler
# Beamline.collimation: paraboloid mirror, 5 nm Rh on 30 nm Pt
# Beamline.focusing: not in use
# Beamline.harmonic_rejection: flat mirror, Pt stripe, pitch = 7.0 mrad relative to beam
# Beamline.software: Bluesky 1.10.0, Ophyd 1.7.0, DataBroker 2.0.0b13, Python 3.10.8, 2023-1.0-py310-tiled
# Detector.I0: 10 cm N2
# Detector.I1: 25 cm N2
# Detector.I2: 25 cm N2
# Element.symbol: Zn
# Element.edge: K
# Element.reference: Zn
# Element.reference_material: Zn foil
# Facility.name: NSLS-II
# Facility.energy: 3.0
# Facility.current: 399.8
# Facility.mode: top-off
# Facility.GUP: 123456
# Facility.SAF: 301027
# Facility.cycle: 2023-2
# Mono.name: Si(111)
# Mono.d_spacing: 3.1351860
# Mono.encoder_resolution: 0.0000050 deg/ct
# Mono.angle_offset: 16.0754326 deg
# Mono.scan_mode: pseudo channel cut
# Mono.scan_type: step
# Mono.direction: forward in energy
# Sample.name: Zn2SiO4
# Sample.prep: powder in PEG pellet
# Sample.x: 116.329 mm
# Sample.y: 114.126 mm
# Sample.SDD_position: 205.000 mm
# Scan.experimenters: Bruce Ravel
# Scan.edge_energy: 9658.6
# Scan.start_time: 2023-05-06T13:39:55
# Scan.end_time: 2023-05-06T13:47:50
# Scan.transient_id: 74830
# Scan.uid: 06e19baa-8988-4e39-8440-16f465e508f2
# Scan.plot_hint: ln(I0/It)  --  ln($5/$6)
# Column.1: energy eV
# Column.2: requested_energy eV
# Column.3: measurement_time seconds
# Column.4: xmu 
# Column.5: I0 nA
# Column.6: It nA
# Column.7: Ir nA
# ///////////
# sample courtesy Martin Stennett, University of Sheffield
# -----------
# energy  requested_energy  measurement_time  xmu  I0  It  Ir
  9458.608  9458.600  0.500  1.584917  105.392854  21.601827  11.921384
  9468.615  9468.600  0.500  1.578880  105.240111  21.701136  11.999016
  9478.629  9478.600  0.500  1.572465  105.044910  21.800273  12.074777
  9488.656  9488.600  0.500  1.566297  104.871054  21.898866  12.152544
  9498.601  9498.600  0.500  1.560081  104.683103  21.995913  12.227634
  9508.625  9508.600  0.500  1.553980  104.503891  22.092630  12.303009
  9518.655  9518.600  0.500  1.547987  104.328206  22.188074  12.379120
  9528.663  9528.600  0.500  1.542041  104.150357  22.282351  12.452797
  9538.627  9538.600  0.500  1.536274  103.958496  22.369932  12.526266
  9548.619  9548.600  0.500  1.530409  103.783779  22.463693  12.600077
  9558.685  9558.600  0.500  1.524821  103.595984  22.548698  12.668690
  9568.621  9568.600  0.500  1.519487  103.414755  22.629641  12.736426
  9578.627  9578.600  0.500  1.514206  103.231240  22.709093  12.800800
  9588.634  9588.600  0.500  1.509173  103.056866  22.785131  12.864686
  9598.631  9598.600  0.500  1.504685  102.880803  22.848523  12.919088
  9608.640  9608.600  0.500  1.501183  102.693398  22.886899  12.958881
  9618.624  9618.600  0.500  1.498864  102.488052  22.894158  12.973992
  9628.632  9628.600  0.500  1.499640  102.321709  22.839270  12.951613
  9630.595  9630.600  0.500  1.500215  102.293771  22.819924  12.940004
  9632.583  9632.600  0.500  1.501057  102.233375  22.787260  12.920861
  9634.575  9634.600  0.500  1.502396  102.016626  22.708520  12.874889
  9636.580  9636.600  0.500  1.504074  102.160798  22.702475  12.870422
  9638.590  9638.600  0.500  1.506279  102.124832  22.644501  12.834220
  9640.585  9640.600  0.500  1.509205  102.085084  22.569545  12.785166
  9642.581  9642.600  0.500  1.512806  102.043778  22.479317  12.726792
  9644.597  9644.600  0.500  1.517623  102.004175  22.362627  12.649474
  9646.587  9646.600  0.500  1.523896  101.963799  22.213976  12.548591
  9648.581  9648.600  0.500  1.532539  101.710954  21.968195  12.389517
  9648.866  9648.900  0.500  1.533937  101.706521  21.936561  12.369091
  9649.160  9649.200  0.500  1.535565  101.727657  21.905420  12.346403
  9649.466  9649.500  0.500  1.537111  101.770667  21.880825  12.328079
  9649.763  9649.800  0.500  1.538797  101.816346  21.853776  12.307998
  9650.073  9650.100  0.500  1.540703  101.845137  21.818332  12.285389
  9650.379  9650.400  0.500  1.542463  101.852268  21.781484  12.258109
  9650.677  9650.700  0.500  1.544545  101.861966  21.738251  12.230147
  9650.978  9651.000  0.500  1.546658  102.187234  21.761638  12.234853
  9651.272  9651.300  0.500  1.548892  102.172361  21.709913  12.199879
  9651.582  9651.600  0.500  1.551286  102.170271  21.657556  12.164098
  9651.876  9651.900  0.500  1.553791  102.156544  21.600483  12.123966
  9652.186  9652.200  0.500  1.556456  102.152966  21.542233  12.084628
  9652.479  9652.500  0.500  1.559359  102.149369  21.479020  12.044013
  9652.777  9652.800  0.500  1.562137  102.133427  21.416095  11.997877
  9653.079  9653.100  0.500  1.565243  102.128461  21.348640  11.949878
  9653.373  9653.400  0.500  1.568646  102.120138  21.274395  11.900862
  9653.679  9653.700  0.500  1.572019  102.106778  21.199974  11.846617
  9653.973  9654.000  0.500  1.575661  102.098516  21.121205  11.790338
  9654.283  9654.300  0.500  1.579913  102.094415  21.030738  11.728154
  9654.581  9654.600  0.500  1.584028  102.081152  20.941658  11.663924
  9654.879  9654.900  0.500  1.588719  102.070305  20.841429  11.592622
  9655.177  9655.200  0.500  1.593541  102.058808  20.738828  11.519452
  9655.487  9655.500  0.500  1.599128  102.054763  20.622484  11.436681
  9655.781  9655.800  0.500  1.604888  102.042692  20.501611  11.348305
  9656.087  9656.100  0.500  1.611350  102.033074  20.367638  11.252345
  9656.381  9656.400  0.500  1.617673  102.030495  20.238748  11.154905
  9656.695  9656.700  0.500  1.624986  102.012435  20.087713  11.043679
  9656.993  9657.000  0.500  1.632555  102.010049  19.935783  10.928412
  9657.299  9657.300  0.500  1.640917  102.003401  19.768478  10.802469
  9657.594  9657.600  0.500  1.649917  102.001840  19.591061  10.665325
  9657.900  9657.900  0.500  1.660082  101.986727  19.390057  10.505787
  9658.202  9658.200  0.500  1.671059  101.978359  19.176812  10.334626
  9658.496  9658.500  0.500  1.683292  101.980209  18.943987  10.139848
  9658.802  9658.800  0.500  1.697638  101.973149  18.672863  9.908672
  9659.097  9659.100  0.500  1.712894  101.965755  18.388816  9.655903
  9659.391  9659.400  0.500  1.730358  101.957095  18.068931  9.352830
  9659.697  9659.700  0.500  1.751123  101.943369  17.695220  8.978906
  9659.987  9660.000  0.500  1.773546  101.937707  17.301894  8.561317
  9660.278  9660.300  0.500  1.800059  101.924212  16.846957  8.056850
  9660.592  9660.600  0.500  1.832359  101.919110  16.310684  7.471379
  9660.883  9660.900  0.500  1.868320  101.907275  15.732726  6.871770
  9661.189  9661.200  0.500  1.913024  101.901867  15.044099  6.236206
  9661.503  9661.500  0.500  1.969025  101.901431  14.224710  5.585941
  9661.794  9661.800  0.500  2.034755  101.890004  13.318291  4.981020
  9662.100  9662.100  0.500  2.116053  101.880764  12.277274  4.387871
  9662.399  9662.400  0.500  2.213814  101.872570  11.132950  3.820959
  9662.701  9662.700  0.500  2.331253  101.859209  9.898054  3.274707
  9663.004  9663.000  0.500  2.471597  101.851671  8.601359  2.755382
  9663.298  9663.300  0.500  2.637220  101.838877  7.287584  2.268477
  9663.597  9663.600  0.500  2.835140  101.841089  5.979118  1.814761
  9663.899  9663.900  0.500  3.078997  101.837762  4.685086  1.389774
  9664.190  9664.200  0.500  3.357337  101.828918  3.546487  1.031528
  9664.492  9664.500  0.500  3.674188  101.824668  2.583292  0.738142
  9664.787  9664.800  0.500  4.014506  101.814563  1.837943  0.517334
  9665.094  9665.100  0.500  4.385384  101.805166  1.268299  0.351478
  9665.400  9665.400  0.500  4.763962  101.786551  0.868417  0.236820
  9665.691  9665.700  0.500  5.111704  101.735184  0.613037  0.164813
  9665.998  9666.000  0.500  5.439351  101.658487  0.441432  0.116602
  9666.301  9666.300  0.500  5.702977  101.590190  0.338907  0.087689
  9666.603  9666.600  0.500  5.889073  101.552267  0.281253  0.071148
  9666.906  9666.900  0.500  5.995140  101.525333  0.252882  0.062600
  9667.205  9667.200  0.500  6.034408  101.535645  0.243169  0.059088
  9667.504  9667.500  0.500  6.030154  101.581896  0.244317  0.058191
  9667.806  9667.800  0.500  6.006033  101.651332  0.250453  0.058823
  9668.105  9668.100  0.500  5.976389  101.680842  0.258063  0.059626
  9668.396  9668.400  0.500  5.950263  101.684734  0.264905  0.060254
  9668.687  9668.700  0.500  5.931009  101.684251  0.270053  0.060585
  9668.994  9669.000  0.500  5.917408  101.678268  0.273735  0.060779
  9669.297  9669.300  0.500  5.904552  101.666906  0.277246  0.060865
  9669.600  9669.600  0.500  5.889653  101.658578  0.281385  0.060994
  9669.890  9669.900  0.500  5.872624  101.648488  0.286189  0.061449
  9670.197  9670.200  0.500  5.849054  101.640207  0.292991  0.062317
  9670.500  9670.500  0.500  5.820915  101.634847  0.301336  0.063602
  9670.807  9670.800  0.500  5.789255  101.625570  0.311001  0.065658
  9671.111  9671.100  0.500  5.758433  101.614638  0.320701  0.067703
  9671.397  9671.400  0.500  5.731817  101.606437  0.329325  0.069723
  9671.709  9671.700  0.500  5.710653  101.590560  0.336316  0.071615
  9672.012  9672.000  0.500  5.700627  101.587136  0.339694  0.072828
  9672.303  9672.300  0.500  5.703948  101.586964  0.338567  0.073697
  9672.598  9672.600  0.500  5.715452  101.569557  0.334637  0.073853
  9672.893  9672.900  0.500  5.734653  101.568315  0.328269  0.073475
  9673.204  9673.200  0.500  5.755948  101.562425  0.321334  0.073145
  9673.495  9673.500  0.500  5.775315  101.550777  0.315134  0.073241
  9673.794  9673.800  0.500  5.786097  101.548709  0.311748  0.073253
  9674.106  9674.100  0.500  5.786493  101.536434  0.311588  0.074312
  9674.401  9674.400  0.500  5.775369  101.525262  0.315038  0.076138
  9674.696  9674.700  0.500  5.751674  101.518146  0.322569  0.078849
  9675.003  9675.000  0.500  5.714774  101.514397  0.334682  0.082455
  9675.303  9675.300  0.500  5.672760  101.510554  0.349030  0.086799
  9675.602  9675.600  0.500  5.625290  101.496200  0.365946  0.091530
  9675.901  9675.900  0.500  5.574559  101.490011  0.384967  0.097093
  9676.205  9676.200  0.500  5.524289  101.477820  0.404765  0.102259
  9676.504  9676.500  0.500  5.480087  101.467218  0.423014  0.107381
  9676.799  9676.800  0.500  5.442510  101.462208  0.439190  0.111788
  9677.095  9677.100  0.500  5.411005  101.453004  0.453206  0.115403
  9677.402  9677.400  0.500  5.384974  101.444464  0.465119  0.118596
  9677.693  9677.700  0.500  5.364944  101.437116  0.474495  0.121233
  9677.989  9678.000  0.500  5.342951  101.435406  0.485037  0.124062
  9678.300  9678.300  0.500  5.317750  101.427730  0.497379  0.127154
  9678.600  9678.600  0.500  5.291161  101.419394  0.510739  0.130639
  9678.891  9678.900  0.500  5.261965  101.414948  0.525847  0.134843
  9679.199  9679.200  0.500  5.227220  101.397096  0.544343  0.139708
  9679.510  9679.500  0.500  5.192280  101.390313  0.563661  0.145063
  9679.798  9679.800  0.500  5.159849  101.386635  0.582220  0.150246
  9680.097  9680.100  0.500  5.128766  101.376036  0.600538  0.155885
  9680.405  9680.400  0.500  5.100833  101.373017  0.617531  0.161047
  9680.713  9680.700  0.500  5.078789  101.366498  0.631254  0.165625
  9681.008  9681.000  0.500  5.063675  101.360867  0.640832  0.168744
  9681.300  9681.300  0.500  5.054789  101.351550  0.646492  0.171098
  9681.612  9681.600  0.500  5.053154  101.344344  0.647504  0.172233
  9681.899  9681.900  0.500  5.057036  101.336190  0.644943  0.172569
  9682.195  9682.200  0.500  5.065585  101.327018  0.639395  0.171899
  9682.503  9682.500  0.500  5.079530  101.318081  0.630485  0.170384
  9682.798  9682.800  0.500  5.094240  101.308372  0.621219  0.168489
  9683.090  9683.100  0.500  5.110665  101.300205  0.611050  0.166513
  9683.398  9683.400  0.500  5.127405  101.294482  0.600872  0.164010
  9683.592  9683.600  0.500  5.136510  101.290391  0.595402  0.163171
  9684.601  9684.590  0.500  5.155333  101.260746  0.584129  0.160772
  9685.602  9685.590  0.500  5.107681  101.249347  0.612568  0.168819
  9686.624  9686.610  0.500  5.011734  101.230591  0.674129  0.185900
  9687.678  9687.660  0.500  4.901661  101.196758  0.752319  0.206995
  9688.753  9688.720  0.500  4.798632  101.176210  0.833795  0.227792
  9689.823  9689.800  0.500  4.707995  101.153698  0.912694  0.247283
  9690.911  9690.900  0.500  4.618894  101.128146  0.997498  0.267099
  9692.039  9692.020  0.500  4.537284  101.092913  1.081941  0.286226
  9693.184  9693.160  0.500  4.478298  101.086727  1.147609  0.299546
  9694.337  9694.310  0.500  4.445486  101.064117  1.185624  0.306186
  9695.502  9695.490  0.500  4.431089  101.040987  1.202542  0.307119
  9696.684  9696.680  0.500  4.430088  101.012930  1.203412  0.304077
  9697.923  9697.900  0.500  4.435761  100.991607  1.196351  0.300415
  9699.151  9699.130  0.500  4.445948  100.961317  1.183871  0.296020
  9700.391  9700.380  0.500  4.454830  100.937699  1.173127  0.293210
  9701.672  9701.650  0.500  4.461459  100.911841  1.165078  0.291846
  9702.965  9702.940  0.500  4.478091  100.875981  1.145454  0.289387
  9704.283  9704.250  0.500  4.504808  100.845860  1.114923  0.284557
  9705.606  9705.580  0.500  4.533268  100.811523  1.083271  0.278881
  9706.941  9706.930  0.500  4.565287  100.754682  1.048543  0.271740
  9708.330  9708.300  0.500  4.609495  100.583773  1.001497  0.261024
  9709.702  9709.680  0.500  4.667934  99.260127  0.932217  0.243398
  9711.112  9711.090  0.500  4.740062  100.726681  0.880160  0.229584
  9712.538  9712.510  0.500  4.820820  100.721855  0.811836  0.210571
  9713.998  9713.950  0.500  4.897464  100.690410  0.751703  0.193785
  9715.384  9715.410  0.500  4.960055  100.638193  0.705729  0.180996
  9716.922  9716.890  0.500  5.017186  100.594868  0.666254  0.170609
  9718.546  9718.390  0.500  5.055829  100.842591  0.642577  0.164643
  9719.926  9719.910  0.500  5.082234  100.817761  0.625678  0.160625
  9721.457  9721.450  0.500  5.097269  100.777701  0.616096  0.158378
  9723.026  9723.010  0.500  5.102371  100.752323  0.612807  0.157743
  9724.590  9724.580  0.500  5.099689  100.716523  0.614234  0.158151
  9726.193  9726.180  0.500  5.097155  100.670141  0.615509  0.158334
  9727.816  9727.790  0.500  5.093540  100.624935  0.617460  0.158374
  9729.452  9729.430  0.500  5.089213  100.607885  0.620033  0.158610
  9731.092  9731.080  0.500  5.081707  100.572333  0.624484  0.159001
  9732.766  9732.750  0.500  5.067907  100.538372  0.632948  0.160351
  9734.465  9734.440  0.500  5.051467  100.509277  0.643253  0.161758
  9736.161  9736.150  0.500  5.033852  100.471822  0.654440  0.163979
  9737.894  9737.880  0.500  5.012462  100.430691  0.668316  0.166947
  9739.657  9739.630  0.500  4.991467  100.401118  0.682295  0.170095
  9741.411  9741.390  0.500  4.969374  100.357927  0.697237  0.174217
  9743.196  9743.180  0.500  4.949816  100.328127  0.710796  0.178787
  9744.989  9744.980  0.500  4.931022  100.287631  0.723989  0.183666
  9746.819  9746.810  0.500  4.912010  100.249647  0.737605  0.188913
  9748.663  9748.650  0.500  4.888824  100.212047  0.754624  0.195233
  9750.520  9750.510  0.500  4.860620  100.167880  0.775868  0.202196
  9752.402  9752.390  0.500  4.832599  100.128094  0.797599  0.208995
  9754.285  9754.290  0.500  4.808918  100.089276  0.816396  0.215251
  9756.222  9756.210  0.500  4.789656  100.047257  0.831925  0.220185
  9758.173  9758.150  0.500  4.773280  100.001374  0.845273  0.224701
  9760.120  9760.110  0.500  4.760445  99.962719  0.855861  0.228474
  9762.080  9762.080  0.500  4.748671  99.919058  0.865619  0.231456
  9764.094  9764.080  0.500  4.741183  99.871927  0.871713  0.233122
  9766.114  9766.090  0.500  4.734770  99.825340  0.876913  0.233792
  9768.121  9768.120  0.500  4.731278  99.769822  0.879491  0.233402
  9770.188  9770.180  0.500  4.735869  99.689680  0.874759  0.230520
  9772.255  9772.250  0.500  4.748872  99.464985  0.861512  0.226230
  9774.373  9774.340  0.500  4.768769  99.210470  0.842379  0.219587
  9776.459  9776.450  0.500  4.786162  99.600294  0.831106  0.215374
  9778.587  9778.580  0.500  4.800204  99.538369  0.819008  0.210639
  9780.733  9780.720  0.500  4.806032  99.436764  0.813418  0.207938
  9782.904  9782.890  0.500  4.808004  98.175522  0.801519  0.204423
  9785.089  9785.080  0.500  4.811164  99.465515  0.809488  0.206167
  9787.287  9787.280  0.500  4.814167  99.400398  0.806533  0.205836
  9789.511  9789.500  0.500  4.817487  99.280171  0.802887  0.205540
  9791.752  9791.750  0.500  4.821062  97.715466  0.787413  0.202047
  9794.024  9794.010  0.500  4.825913  99.332191  0.796568  0.204594
  9796.301  9796.290  0.500  4.831199  99.256281  0.791762  0.203995
  9798.599  9798.590  0.500  4.838484  99.181270  0.785422  0.203022
  9800.928  9800.910  0.500  4.847052  99.027437  0.777513  0.201600
  9803.266  9803.250  0.500  4.855229  98.576685  0.767671  0.199887
  9805.623  9805.600  0.500  4.858813  99.073338  0.768778  0.201374
  9807.988  9807.980  0.500  4.858858  99.014351  0.768286  0.202294
  9810.388  9810.370  0.500  4.857059  98.958146  0.769233  0.203541
  9812.789  9812.790  0.500  4.855714  98.905594  0.769859  0.205203
  9815.237  9815.220  0.500  4.853003  98.848433  0.771503  0.206878
  9817.687  9817.670  0.500  4.849378  98.802058  0.773941  0.208646
  9820.154  9820.150  0.500  4.844804  98.204213  0.772785  0.209335
  9822.665  9822.640  0.500  4.840248  98.637950  0.779742  0.210957
  9825.172  9825.150  0.500  4.833916  98.617785  0.784535  0.211470
  9827.677  9827.670  0.500  4.826845  98.098882  0.785944  0.210976
  9830.233  9830.220  0.500  4.820556  98.496436  0.794108  0.211891
  9832.803  9832.790  0.500  4.817803  98.450674  0.795927  0.211964
  9835.370  9835.370  0.500  4.815467  97.979158  0.793968  0.211081
  9838.005  9837.980  0.500  4.809401  98.358502  0.801891  0.213089
  9840.613  9840.600  0.500  4.798307  98.312419  0.810457  0.215301
  9843.272  9843.250  0.500  4.784306  97.667514  0.816493  0.217072
  9845.933  9845.910  0.500  4.768521  98.162201  0.833685  0.221661
  9848.599  9848.590  0.500  4.754077  98.132758  0.845560  0.224536
  9851.322  9851.290  0.500  4.743077  98.073404  0.854396  0.226722
  9854.020  9854.010  0.500  4.736596  98.022224  0.859502  0.227796
  9856.759  9856.750  0.500  4.730526  97.964074  0.864223  0.228753
  9859.523  9859.500  0.500  4.721787  97.898614  0.871226  0.230732
  9862.286  9862.280  0.500  4.712279  97.851251  0.879123  0.233047
  9865.087  9865.070  0.500  4.703714  97.781303  0.886051  0.235183
  9867.899  9867.890  0.500  4.698257  97.728407  0.890417  0.236966
  9870.742  9870.720  0.500  4.694569  97.668824  0.893163  0.238256
  9873.591  9873.570  0.500  4.693623  97.607828  0.893450  0.239390
  9876.471  9876.450  0.500  4.694532  97.555994  0.892164  0.240151
  9879.352  9879.340  0.500  4.694703  97.389377  0.890488  0.241236
  9882.257  9882.250  0.500  4.695565  95.735872  0.874615  0.238380
  9885.184  9885.170  0.500  4.696813  97.264711  0.887473  0.242996
  9888.139  9888.120  0.500  4.701200  97.251889  0.883472  0.242835
  9891.099  9891.090  0.500  4.706648  97.194651  0.878155  0.242002
  9894.096  9894.070  0.500  4.709992  97.129462  0.874636  0.241240
  9897.094  9897.080  0.500  4.713169  97.071897  0.871345  0.240710
  9900.115  9900.100  0.500  4.713718  97.001359  0.870234  0.239771
  9903.167  9903.150  0.500  4.713011  96.935422  0.870258  0.239580
  9906.226  9906.210  0.500  4.710661  96.871496  0.871730  0.240001
  9909.308  9909.290  0.500  4.705744  96.804491  0.875421  0.240463
  9912.405  9912.390  0.500  4.698622  96.739149  0.881083  0.242279
  9915.534  9915.510  0.500  4.689393  96.670504  0.888620  0.244056
  9918.664  9918.650  0.500  4.680463  96.608683  0.896018  0.246241
