# XDI/1.0 BlueSky/1.10.0 BMM/2023-1.0-py310-tiled
# Beamline.name: BMM (06BM) -- Beamline for Materials Measurement (NIST)
# Beamline.xray_source: NSLS-II three-pole wiggler
# Beamline.collimation: paraboloid mirror, 5 nm Rh on 30 nm Pt
# Beamline.focusing: not in use
# Beamline.harmonic_rejection: flat mirror, Pt stripe, pitch = 7.0 mrad relative to beam
# Beamline.software: Bluesky 1.10.0, Ophyd 1.7.0, DataBroker 2.0.0b13, Python 3.10.8, 2023-1.0-py310-tiled
# Detector.I0: 10 cm N2
# Detector.I1: 25 cm N2
# Detector.I2: 25 cm N2
# Element.symbol: Zn
# Element.edge: K
# Element.reference: Zn
# Element.reference_material: Zn foil
# Facility.name: NSLS-II
# Facility.energy: 3.0
# Facility.current: 399.6
# Facility.mode: top-off
# Facility.GUP: 123456
# Facility.SAF: 301027
# Facility.cycle: 2023-2
# Mono.name: Si(111)
# Mono.d_spacing: 3.1351860
# Mono.encoder_resolution: 0.0000050 deg/ct
# Mono.angle_offset: 16.0754326 deg
# Mono.scan_mode: pseudo channel cut
# Mono.scan_type: step
# Mono.direction: forward in energy
# Sample.name: ZnO
# Sample.prep: powder in PEG pellet
# Sample.x: 116.329 mm
# Sample.y: 114.126 mm
# Sample.SDD_position: 205.000 mm
# Scan.experimenters: Bruce Ravel
# Scan.edge_energy: 9658.6
# Scan.start_time: 2023-05-06T13:48:26
# Scan.end_time: 2023-05-06T13:56:30
# Scan.transient_id: 74835
# Scan.uid: d76eba74-f7b4-479a-94c9-665810198dca
# Scan.plot_hint: ln(I0/It)  --  ln($5/$6)
# Column.1: energy eV
# Column.2: requested_energy eV
# Column.3: measurement_time seconds
# Column.4: xmu 
# Column.5: I0 nA
# Column.6: It nA
# Column.7: Ir nA
# ///////////
# sample courtesy Martin Stennett, University of Sheffield
# -----------
# energy  requested_energy  measurement_time  xmu  I0  It  Ir
  9458.604  9458.600  0.500  1.526139  105.326345  22.895132  12.633589
  9468.615  9468.600  0.500  1.520123  105.161950  22.997333  12.714483
  9478.625  9478.600  0.500  1.514225  104.979855  23.093331  12.792641
  9488.649  9488.600  0.500  1.508220  104.803698  23.193432  12.870501
  9498.601  9498.600  0.500  1.502250  104.612401  23.289715  12.947042
  9508.613  9508.600  0.500  1.496392  104.437123  23.387293  13.023598
  9518.627  9518.600  0.500  1.490655  104.262452  23.482512  13.100803
  9528.652  9528.600  0.500  1.484849  104.079125  23.577730  13.175331
  9538.690  9538.600  0.500  1.479111  103.901105  23.672833  13.254196
  9548.671  9548.600  0.500  1.473759  103.715335  23.757318  13.324499
  9558.622  9558.600  0.500  1.468485  103.530413  23.840370  13.394538
  9568.617  9568.600  0.500  1.463503  103.348701  23.917380  13.459305
  9578.615  9578.600  0.500  1.458992  103.173518  23.984799  13.521364
  9588.622  9588.600  0.500  1.454733  102.995847  24.045679  13.575386
  9598.623  9598.600  0.500  1.451394  102.816639  24.084138  13.616326
  9608.621  9608.600  0.500  1.449273  102.632092  24.091946  13.638411
  9618.628  9618.600  0.500  1.449453  102.425361  24.039102  13.622435
  9628.632  9628.600  0.500  1.454119  102.258814  23.888282  13.546088
  9630.583  9630.600  0.500  1.455719  102.570428  23.922776  13.566746
  9632.579  9632.600  0.500  1.457980  102.499506  23.852242  13.525803
  9634.587  9634.600  0.500  1.460586  102.289207  23.741348  13.461311
  9636.584  9636.600  0.500  1.464047  102.420338  23.689651  13.430291
  9638.574  9638.600  0.500  1.468216  102.382012  23.582261  13.365462
  9640.589  9640.600  0.500  1.473487  102.343239  23.449400  13.281366
  9642.589  9642.600  0.500  1.480112  102.305704  23.286027  13.183247
  9644.593  9644.600  0.500  1.488571  102.262773  23.080181  13.055223
  9646.591  9646.600  0.500  1.499247  102.225576  22.826781  12.895160
  9648.593  9648.600  0.500  1.513577  101.968815  22.445499  12.659323
  9648.866  9648.900  0.500  1.515774  101.960434  22.394398  12.624354
  9649.168  9649.200  0.500  1.518406  101.971440  22.337935  12.590960
  9649.462  9649.500  0.500  1.521079  102.006266  22.285931  12.555425
  9649.763  9649.800  0.500  1.523927  102.059279  22.234088  12.522321
  9650.061  9650.100  0.500  1.526811  102.084895  22.175627  12.483613
  9650.363  9650.400  0.500  1.530230  102.097056  22.102578  12.439236
  9650.669  9650.700  0.500  1.533399  102.088031  22.030687  12.393641
  9650.970  9651.000  0.500  1.536906  102.090663  21.954125  12.342138
  9651.268  9651.300  0.500  1.540672  102.084126  21.870195  12.290002
  9651.566  9651.600  0.500  1.544660  102.077300  21.781710  12.233669
  9651.872  9651.900  0.500  1.548883  102.068658  21.688075  12.174151
  9652.173  9652.200  0.500  1.553271  102.063791  21.592082  12.110724
  9652.471  9652.500  0.500  1.558099  102.056656  21.486588  12.044392
  9652.773  9652.800  0.500  1.562720  102.043605  21.384806  11.978213
  9653.083  9653.100  0.500  1.568031  102.034980  21.269730  11.905352
  9653.381  9653.400  0.500  1.573300  102.025529  21.155995  11.832357
  9653.683  9653.700  0.500  1.579210  102.022992  21.030799  11.751447
  9653.981  9654.000  0.500  1.585338  102.004560  20.898538  11.665322
  9654.295  9654.300  0.500  1.592247  101.992713  20.752236  11.571191
  9654.589  9654.600  0.500  1.599260  101.985050  20.605670  11.475248
  9654.895  9654.900  0.500  1.606949  101.974201  20.445668  11.369785
  9655.193  9655.200  0.500  1.615253  101.968393  20.275441  11.259193
  9655.495  9655.500  0.500  1.624430  101.965858  20.089724  11.139036
  9655.789  9655.800  0.500  1.634019  101.954808  19.895848  11.011457
  9656.091  9656.100  0.500  1.644532  101.940951  19.685098  10.873014
  9656.385  9656.400  0.500  1.655481  101.931837  19.468992  10.728970
  9656.695  9656.700  0.500  1.667695  101.922008  19.230786  10.568778
  9656.989  9657.000  0.500  1.680508  101.910129  18.983750  10.405698
  9657.283  9657.300  0.500  1.694385  101.904268  18.721058  10.226122
  9657.577  9657.600  0.500  1.709864  101.890931  18.431093  10.030898
  9657.892  9657.900  0.500  1.727922  101.885247  18.100245  9.805793
  9658.190  9658.200  0.500  1.746818  101.877754  17.760114  9.570130
  9658.476  9658.500  0.500  1.768348  101.871615  17.380793  9.304417
  9658.794  9658.800  0.500  1.794211  101.863437  16.935673  8.986367
  9659.089  9659.100  0.500  1.822980  101.854364  16.453920  8.635423
  9659.391  9659.400  0.500  1.856609  101.847335  15.908701  8.228526
  9659.701  9659.700  0.500  1.896805  101.841074  15.280980  7.745829
  9659.996  9660.000  0.500  1.943201  101.835750  14.587431  7.205730
  9660.298  9660.300  0.500  1.998638  101.829013  13.799840  6.587657
  9660.608  9660.600  0.500  2.066316  101.821743  12.895877  5.899995
  9660.903  9660.900  0.500  2.143830  101.816209  11.933374  5.211961
  9661.201  9661.200  0.500  2.239749  101.807733  10.841015  4.496705
  9661.503  9661.500  0.500  2.356704  101.803308  9.644029  3.798450
  9661.798  9661.800  0.500  2.491454  101.794845  8.427541  3.166129
  9662.088  9662.100  0.500  2.648429  101.791794  7.203019  2.593196
  9662.395  9662.400  0.500  2.844455  101.778694  5.920054  2.046526
  9662.697  9662.700  0.500  3.068398  101.771470  4.731922  1.576863
  9662.988  9663.000  0.500  3.316272  101.764927  3.692832  1.191648
  9663.286  9663.300  0.500  3.599328  101.762080  2.782388  0.870983
  9663.589  9663.600  0.500  3.913963  101.758576  2.031227  0.617730
  9663.899  9663.900  0.500  4.258468  101.746745  1.439101  0.425656
  9664.198  9664.200  0.500  4.587624  101.750934  1.035521  0.299065
  9664.497  9664.500  0.500  4.891276  101.747096  0.764307  0.215738
  9664.803  9664.800  0.500  5.153286  101.731205  0.588045  0.162287
  9665.106  9665.100  0.500  5.342672  101.729935  0.486582  0.131664
  9665.400  9665.400  0.500  5.456401  101.718221  0.434224  0.115663
  9665.699  9665.700  0.500  5.517640  101.667405  0.408227  0.107019
  9665.994  9666.000  0.500  5.546316  101.593917  0.396400  0.102751
  9666.309  9666.300  0.500  5.563262  101.515031  0.389436  0.099423
  9666.599  9666.600  0.500  5.581633  101.473748  0.382192  0.096080
  9666.886  9666.900  0.500  5.609856  101.440578  0.371434  0.092056
  9667.197  9667.200  0.500  5.652985  101.453670  0.355801  0.086509
  9667.495  9667.500  0.500  5.710236  101.500783  0.336160  0.080386
  9667.798  9667.800  0.500  5.784653  101.570845  0.312267  0.073356
  9668.093  9668.100  0.500  5.873971  101.607193  0.285687  0.066088
  9668.404  9668.400  0.500  5.979855  101.610253  0.256992  0.058359
  9668.707  9668.700  0.500  6.097360  101.609060  0.228498  0.050720
  9669.002  9669.000  0.500  6.213463  101.615898  0.203465  0.044600
  9669.305  9669.300  0.500  6.336524  101.601749  0.179880  0.038815
  9669.600  9669.600  0.500  6.456493  101.596106  0.159536  0.033890
  9669.907  9669.900  0.500  6.573682  101.589470  0.141884  0.029512
  9670.222  9670.200  0.500  6.680738  101.579208  0.127467  0.026326
  9670.500  9670.500  0.500  6.765590  101.572255  0.117089  0.023863
  9670.795  9670.800  0.500  6.832460  101.572006  0.109515  0.021982
  9671.098  9671.100  0.500  6.872760  101.566387  0.105184  0.021220
  9671.397  9671.400  0.500  6.879037  101.553360  0.104512  0.020945
  9671.688  9671.700  0.500  6.854988  101.539305  0.107041  0.021824
  9671.987  9672.000  0.500  6.806532  101.539074  0.112355  0.023307
  9672.287  9672.300  0.500  6.738454  101.534066  0.120265  0.025269
  9672.602  9672.600  0.500  6.649436  101.523339  0.131448  0.028208
  9672.901  9672.900  0.500  6.554073  101.508965  0.144579  0.031570
  9673.204  9673.200  0.500  6.450708  101.503157  0.160314  0.035857
  9673.507  9673.500  0.500  6.340859  101.497789  0.178919  0.041039
  9673.806  9673.800  0.500  6.235313  101.491765  0.198824  0.046308
  9674.110  9674.100  0.500  6.132011  101.482011  0.220440  0.052109
  9674.409  9674.400  0.500  6.033493  101.466719  0.243227  0.058310
  9674.704  9674.700  0.500  5.945093  101.464234  0.265700  0.064608
  9675.003  9675.000  0.500  5.863183  101.453437  0.288349  0.070854
  9675.299  9675.300  0.500  5.784704  101.446412  0.311869  0.077277
  9675.602  9675.600  0.500  5.707392  101.435200  0.336899  0.084100
  9675.897  9675.900  0.500  5.626363  101.423629  0.365292  0.091669
  9676.188  9676.200  0.500  5.549906  101.419852  0.394302  0.099581
  9676.488  9676.500  0.500  5.474505  101.416223  0.425168  0.107801
  9676.803  9676.800  0.500  5.405079  101.403587  0.455677  0.115551
  9677.099  9677.100  0.500  5.352850  101.396995  0.480078  0.122061
  9677.394  9677.400  0.500  5.314320  101.386019  0.498883  0.126931
  9677.705  9677.700  0.500  5.290310  101.375015  0.510950  0.130371
  9678.001  9678.000  0.500  5.283393  101.368734  0.514465  0.131293
  9678.304  9678.300  0.500  5.290289  101.366854  0.510920  0.130215
  9678.608  9678.600  0.500  5.310724  101.351807  0.500511  0.127880
  9678.903  9678.900  0.500  5.344298  101.343921  0.483948  0.123458
  9679.203  9679.200  0.500  5.391007  101.337358  0.461833  0.118038
  9679.498  9679.500  0.500  5.449219  101.330754  0.435688  0.111163
  9679.798  9679.800  0.500  5.517889  101.321291  0.406735  0.104124
  9680.101  9680.100  0.500  5.592493  101.309391  0.377451  0.096660
  9680.389  9680.400  0.500  5.664275  101.302055  0.351281  0.090327
  9680.697  9680.700  0.500  5.731286  101.289999  0.328474  0.084723
  9681.000  9681.000  0.500  5.790334  101.285917  0.309627  0.080349
  9681.296  9681.300  0.500  5.833483  101.277939  0.296528  0.077123
  9681.592  9681.600  0.500  5.861154  101.269532  0.288411  0.075473
  9681.903  9681.900  0.500  5.874767  101.261941  0.284490  0.074860
  9682.203  9682.200  0.500  5.875342  101.254290  0.284305  0.075267
  9682.503  9682.500  0.500  5.862883  101.244690  0.287842  0.076728
  9682.807  9682.800  0.500  5.841912  101.238258  0.293924  0.078451
  9683.114  9683.100  0.500  5.815930  101.228164  0.301630  0.080958
  9683.398  9683.400  0.500  5.788216  101.223967  0.310094  0.083450
  9683.609  9683.600  0.500  5.770748  101.212989  0.315524  0.085205
  9684.605  9684.590  0.500  5.699894  101.189001  0.338611  0.091956
  9685.602  9685.590  0.500  5.647448  101.172236  0.356785  0.097117
  9686.620  9686.610  0.500  5.572879  101.151743  0.384329  0.104798
  9687.674  9687.660  0.500  5.475030  101.127641  0.423735  0.115236
  9688.732  9688.720  0.500  5.391537  101.111704  0.460561  0.124277
  9689.815  9689.800  0.500  5.342052  101.087214  0.483807  0.129626
  9690.927  9690.900  0.500  5.296620  101.063231  0.506175  0.134356
  9692.039  9692.020  0.500  5.211536  101.023290  0.550909  0.144445
  9693.184  9693.160  0.500  5.096563  101.013128  0.617972  0.159972
  9694.308  9694.310  0.500  5.004611  100.994875  0.677367  0.173435
  9695.514  9695.490  0.500  4.954650  100.965682  0.711863  0.180057
  9696.705  9696.680  0.500  4.926893  100.939391  0.731709  0.183831
  9697.915  9697.900  0.500  4.902189  100.915022  0.749829  0.187095
  9699.151  9699.130  0.500  4.894302  100.889770  0.755577  0.187893
  9700.411  9700.380  0.500  4.917692  100.973644  0.738723  0.183623
  9701.672  9701.650  0.500  4.968068  101.131285  0.703527  0.175413
  9702.953  9702.940  0.500  5.032012  101.092103  0.659693  0.165288
  9704.255  9704.250  0.500  5.109852  101.064895  0.610126  0.154464
  9705.618  9705.580  0.500  5.191510  101.022879  0.562051  0.143513
  9706.965  9706.930  0.500  5.262398  100.979792  0.523364  0.134420
  9708.313  9708.300  0.500  5.330289  100.816085  0.488219  0.125871
  9709.694  9709.680  0.500  5.404197  99.470398  0.447384  0.115518
  9711.108  9711.090  0.500  5.487201  100.948144  0.417866  0.107650
  9712.530  9712.510  0.500  5.584570  100.960918  0.379145  0.096910
  9713.957  9713.950  0.500  5.694012  100.920278  0.339704  0.086099
  9715.429  9715.410  0.500  5.796931  100.882181  0.306365  0.077229
  9716.918  9716.890  0.500  5.832349  100.845123  0.295596  0.074158
  9718.412  9718.390  0.500  5.769374  100.810808  0.314702  0.079388
  9719.930  9719.910  0.500  5.653261  100.775453  0.353325  0.089682
  9721.494  9721.450  0.500  5.550659  100.744841  0.391383  0.099480
  9722.997  9723.010  0.500  5.501262  100.695923  0.411002  0.104762
  9724.603  9724.580  0.500  5.485393  100.652534  0.417396  0.106430
  9726.389  9726.180  0.500  5.475209  100.601162  0.421454  0.107665
  9727.816  9727.790  0.500  5.466318  100.563321  0.425058  0.108072
  9729.439  9729.430  0.500  5.475588  100.542503  0.421048  0.106726
  9731.101  9731.080  0.500  5.510343  100.514529  0.406553  0.102567
  9732.774  9732.750  0.500  5.558262  100.476736  0.387385  0.097153
  9734.469  9734.440  0.500  5.595410  100.443252  0.373134  0.092914
  9736.173  9736.150  0.500  5.625536  100.406592  0.361929  0.089603
  9737.898  9737.880  0.500  5.658477  100.371892  0.350079  0.086144
  9739.652  9739.630  0.500  5.691245  100.340681  0.338689  0.083160
  9741.428  9741.390  0.500  5.702410  100.302289  0.334800  0.082386
  9743.155  9743.180  0.500  5.682138  100.247699  0.341470  0.084671
  9744.956  9744.980  0.500  5.641549  100.210846  0.355485  0.088898
  9746.791  9746.810  0.500  5.590640  100.174402  0.373915  0.094455
  9748.639  9748.650  0.500  5.536108  100.129151  0.394693  0.100941
  9750.495  9750.510  0.500  5.480226  100.087621  0.417204  0.107582
  9752.378  9752.390  0.500  5.422799  100.041577  0.441661  0.114432
  9754.281  9754.290  0.500  5.361952  100.000258  0.469175  0.122268
  9756.193  9756.210  0.500  5.306899  99.957917  0.495519  0.129890
  9758.152  9758.150  0.500  5.262107  99.917262  0.518008  0.136495
  9760.124  9760.110  0.500  5.232477  99.869906  0.533333  0.141015
  9762.076  9762.080  0.500  5.216887  99.832508  0.541510  0.143673
  9764.069  9764.080  0.500  5.215638  99.784507  0.541926  0.143686
  9766.097  9766.090  0.500  5.230581  99.734827  0.533623  0.141135
  9768.117  9768.120  0.500  5.257604  99.685394  0.519138  0.136548
  9770.176  9770.180  0.500  5.294382  99.605703  0.499992  0.130608
  9772.239  9772.250  0.500  5.338994  99.403601  0.477207  0.123901
  9774.336  9774.340  0.500  5.387704  99.079191  0.453036  0.116995
  9776.438  9776.450  0.500  5.426771  99.522100  0.437626  0.112130
  9778.571  9778.580  0.500  5.452969  99.448852  0.425996  0.108286
  9780.712  9780.720  0.500  5.469051  99.361332  0.418831  0.105997
  9782.887  9782.890  0.500  5.478121  98.133986  0.409923  0.103117
  9785.068  9785.080  0.500  5.475450  99.378861  0.416233  0.104724
  9787.278  9787.280  0.500  5.467964  99.316022  0.419095  0.105731
  9789.506  9789.500  0.500  5.463607  99.195045  0.420412  0.106363
  9791.760  9791.750  0.500  5.468849  97.632906  0.411628  0.104397
  9794.015  9794.010  0.500  5.484412  99.243164  0.411956  0.104755
  9796.301  9796.290  0.500  5.502470  99.166842  0.404272  0.102833
  9798.599  9798.590  0.500  5.512547  99.094585  0.399927  0.101989
  9800.916  9800.910  0.500  5.507380  98.936197  0.401357  0.102910
  9803.250  9803.250  0.500  5.480248  98.431078  0.410290  0.105518
  9805.618  9805.600  0.500  5.447106  98.975807  0.426463  0.110538
  9807.984  9807.980  0.500  5.411325  98.922056  0.441758  0.115212
  9810.363  9810.370  0.500  5.380545  98.866444  0.455311  0.119452
  9812.798  9812.790  0.500  5.357887  98.817098  0.465512  0.122705
  9815.225  9815.220  0.500  5.345615  98.763038  0.471002  0.125109
  9817.687  9817.670  0.500  5.345792  98.714624  0.470688  0.125818
  9820.167  9820.150  0.500  5.361772  98.122830  0.460450  0.123497
  9822.652  9822.640  0.500  5.388017  98.555386  0.450499  0.120860
  9825.176  9825.150  0.500  5.415887  98.526915  0.437991  0.116864
  9827.677  9827.670  0.500  5.437700  98.010438  0.426294  0.113117
  9830.220  9830.220  0.500  5.452819  98.395769  0.421548  0.111272
  9832.815  9832.790  0.500  5.460823  98.354200  0.418011  0.109878
  9835.374  9835.370  0.500  5.457618  97.882853  0.417343  0.109393
  9838.001  9837.980  0.500  5.451675  98.265681  0.421473  0.110634
  9840.617  9840.600  0.500  5.444924  98.218424  0.424124  0.111504
  9843.255  9843.250  0.500  5.432902  97.584598  0.426483  0.112119
  9845.924  9845.910  0.500  5.411957  98.074642  0.437697  0.114874
  9848.608  9848.590  0.500  5.389070  98.033935  0.447644  0.117646
  9851.292  9851.290  0.500  5.368800  97.988314  0.456598  0.119888
  9854.033  9854.010  0.500  5.348149  97.924515  0.465822  0.122309
  9856.759  9856.750  0.500  5.326148  97.866851  0.475904  0.124934
  9859.519  9859.500  0.500  5.302349  97.804947  0.487057  0.127607
  9862.302  9862.280  0.500  5.281065  97.747555  0.497243  0.130677
  9865.075  9865.070  0.500  5.266312  97.681184  0.504290  0.132725
  9867.912  9867.890  0.500  5.258750  97.626463  0.507833  0.133858
  9870.725  9870.720  0.500  5.260626  97.558443  0.506529  0.133859
  9873.591  9873.570  0.500  5.269202  97.498859  0.501896  0.133185
  9876.466  9876.450  0.500  5.281406  97.438854  0.495504  0.132208
  9879.361  9879.340  0.500  5.298060  97.281964  0.486535  0.130500
  9882.265  9882.250  0.500  5.313055  95.569068  0.470855  0.127109
  9885.193  9885.170  0.500  5.326333  97.141533  0.472289  0.128087
  9888.135  9888.120  0.500  5.339154  97.128861  0.466212  0.126827
  9891.104  9891.090  0.500  5.352459  97.083099  0.459833  0.125352
  9894.096  9894.070  0.500  5.361098  97.019653  0.455580  0.124226
  9897.098  9897.080  0.500  5.361793  96.952441  0.454948  0.124183
  9900.111  9900.100  0.500  5.357954  96.891811  0.456412  0.124575
  9903.176  9903.150  0.500  5.349233  96.820989  0.460074  0.125226
  9906.222  9906.210  0.500  5.338783  96.754804  0.464588  0.126522
  9909.313  9909.290  0.500  5.327319  96.681942  0.469591  0.127794
  9912.409  9912.390  0.500  5.317434  96.617497  0.473940  0.128878
  9915.538  9915.510  0.500  5.313101  96.552515  0.475678  0.129447
  9918.673  9918.650  0.500  5.307916  96.478525  0.477784  0.130058
  9921.822  9921.800  0.500  5.299031  96.401527  0.481664  0.131349
