# XDI/1.0 BlueSky/1.10.0 BMM/2023-1.0-py310-tiled
# Beamline.name: BMM (06BM) -- Beamline for Materials Measurement (NIST)
# Beamline.xray_source: NSLS-II three-pole wiggler
# Beamline.collimation: paraboloid mirror, 5 nm Rh on 30 nm Pt
# Beamline.focusing: not in use
# Beamline.harmonic_rejection: flat mirror, Pt stripe, pitch = 7.0 mrad relative to beam
# Beamline.software: Bluesky 1.10.0, Ophyd 1.7.0, DataBroker 2.0.0b13, Python 3.10.8, 2023-1.0-py310-tiled
# Detector.I0: 10 cm N2
# Detector.I1: 25 cm N2
# Detector.I2: 25 cm N2
# Element.symbol: Zn
# Element.edge: K
# Element.reference: Zn
# Element.reference_material: Zn foil
# Facility.name: NSLS-II
# Facility.energy: 3.0
# Facility.current: 398.6
# Facility.mode: top-off
# Facility.GUP: 123456
# Facility.SAF: 301027
# Facility.cycle: 2023-2
# Mono.name: Si(111)
# Mono.d_spacing: 3.1351860
# Mono.encoder_resolution: 0.0000050 deg/ct
# Mono.angle_offset: 16.0754326 deg
# Mono.scan_mode: pseudo channel cut
# Mono.scan_type: step
# Mono.direction: forward in energy
# Sample.name: Zn metal
# Sample.prep: reference metal
# Sample.x: 116.329 mm
# Sample.y: 114.126 mm
# Sample.SDD_position: 205.000 mm
# Scan.experimenters: Bruce Ravel
# Scan.edge_energy: 9658.6
# Scan.start_time: 2023-05-07T08:48:26
# Scan.end_time: 2023-05-07T08:56:18
# Scan.transient_id: 74850
# Scan.uid: 65de7d81-53ef-489d-9cd7-321bdd96a004
# Scan.plot_hint: ln(It/Ir)  --  ln($6/$7)
# Column.1: energy eV
# Column.2: requested_energy eV
# Column.3: measurement_time seconds
# Column.4: xmu 
# Column.5: I0 nA
# Column.6: It nA
# Column.7: Ir nA
# ///////////
# reference foil
# -----------
# energy  requested_energy  measurement_time  xmu  I0  It  Ir
  9458.615  9458.600  0.500  0.592883  83.121242  108.850940  60.165320
  9468.673  9468.600  0.500  0.590983  82.723372  108.467968  60.067690
  9478.633  9478.600  0.500  0.589180  82.403339  108.180192  60.016404
  9488.614  9488.600  0.500  0.587334  82.162453  107.995392  60.024615
  9498.628  9498.600  0.500  0.585562  81.934368  107.841261  60.045271
  9508.629  9508.600  0.500  0.583779  81.645063  107.582824  60.008223
  9518.604  9518.600  0.500  0.581951  81.417454  107.411554  60.022309
  9528.612  9528.600  0.500  0.580236  81.167299  107.212728  60.014054
  9538.650  9538.600  0.500  0.578430  80.866344  106.955494  59.978285
  9548.698  9548.600  0.500  0.576704  80.561577  106.684774  59.929828
  9558.657  9558.600  0.500  0.575005  80.263718  106.423752  59.884862
  9568.681  9568.600  0.500  0.573347  79.930233  106.113041  59.809126
  9578.635  9578.600  0.500  0.571755  79.732555  105.984864  59.832027
  9588.614  9588.600  0.500  0.570214  79.477104  105.769788  59.802694
  9598.607  9598.600  0.500  0.568715  79.180191  105.503544  59.741667
  9608.621  9608.600  0.500  0.567399  78.931625  105.308394  59.709682
  9618.628  9618.600  0.500  0.566269  78.681268  105.079546  59.647297
  9628.612  9628.600  0.500  0.565785  78.295257  104.688167  59.453881
  9630.595  9630.600  0.500  0.565724  78.346767  104.781741  59.510687
  9632.587  9632.600  0.500  0.565878  78.323914  104.785843  59.503820
  9634.579  9634.600  0.500  0.565945  78.077137  104.465143  59.317769
  9636.580  9636.600  0.500  0.566166  78.180892  104.635700  59.401453
  9638.582  9638.600  0.500  0.566453  78.186159  104.660204  59.398310
  9640.585  9640.600  0.500  0.566876  78.104795  104.579585  59.327447
  9642.581  9642.600  0.500  0.567438  78.176029  104.706955  59.366341
  9644.581  9644.600  0.500  0.568264  78.067379  104.582158  59.246641
  9646.583  9646.600  0.500  0.569469  78.058470  104.589940  59.179680
  9648.573  9648.600  0.500  0.571130  77.854034  104.344405  58.942754
  9648.858  9648.900  0.500  0.571447  77.814896  104.279886  58.887679
  9649.160  9649.200  0.500  0.571783  77.813341  104.294764  58.876293
  9649.462  9649.500  0.500  0.572030  77.868220  104.373476  58.906141
  9649.767  9649.800  0.500  0.572421  77.932396  104.445013  58.923507
  9650.069  9650.100  0.500  0.572768  78.065287  104.648896  59.018053
  9650.367  9650.400  0.500  0.573207  78.100919  104.702505  59.022350
  9650.673  9650.700  0.500  0.573597  78.072522  104.663119  58.977118
  9650.978  9651.000  0.500  0.574047  78.104077  104.704305  58.973817
  9651.272  9651.300  0.500  0.574564  78.058161  104.658965  58.917782
  9651.582  9651.600  0.500  0.575146  78.077733  104.685110  58.898216
  9651.872  9651.900  0.500  0.575665  78.147097  104.788040  58.925564
  9652.190  9652.200  0.500  0.576376  78.215563  104.871464  58.930515
  9652.483  9652.500  0.500  0.576949  78.232443  104.898970  58.912256
  9652.781  9652.800  0.500  0.577714  78.236870  104.918259  58.878006
  9653.091  9653.100  0.500  0.578318  78.198202  104.854933  58.806928
  9653.381  9653.400  0.500  0.579154  78.151735  104.782859  58.717397
  9653.687  9653.700  0.500  0.580134  78.120310  104.759194  58.646665
  9653.981  9654.000  0.500  0.581044  78.133343  104.778478  58.604097
  9654.291  9654.300  0.500  0.582162  78.124670  104.781887  58.540492
  9654.585  9654.600  0.500  0.583232  78.101883  104.747432  58.458684
  9654.883  9654.900  0.500  0.584528  78.149824  104.820352  58.423593
  9655.189  9655.200  0.500  0.585981  78.154914  104.831506  58.344986
  9655.475  9655.500  0.500  0.587398  78.169413  104.856952  58.276498
  9655.789  9655.800  0.500  0.589250  78.189546  104.896277  58.190482
  9656.083  9656.100  0.500  0.590999  78.149014  104.834836  58.054760
  9656.381  9656.400  0.500  0.593206  78.144888  104.819323  57.918202
  9656.683  9656.700  0.500  0.595572  78.115958  104.787518  57.763811
  9656.985  9657.000  0.500  0.598335  78.059738  104.722704  57.568806
  9657.283  9657.300  0.500  0.601374  78.112166  104.785511  57.428524
  9657.586  9657.600  0.500  0.604860  78.123686  104.814078  57.244305
  9657.892  9657.900  0.500  0.609212  78.121171  104.814169  56.995759
  9658.182  9658.200  0.500  0.614054  78.088774  104.776560  56.700121
  9658.492  9658.500  0.500  0.620348  78.113395  104.821936  56.368738
  9658.790  9658.800  0.500  0.627950  78.153538  104.878910  55.972275
  9659.097  9659.100  0.500  0.638115  78.177333  104.917980  55.426856
  9659.391  9659.400  0.500  0.650406  78.140343  104.873933  54.726768
  9659.701  9659.700  0.500  0.668326  78.117509  104.853520  53.744317
  9659.996  9660.000  0.500  0.691125  78.111488  104.846620  52.529415
  9660.298  9660.300  0.500  0.723353  78.123225  104.875059  50.877282
  9660.592  9660.600  0.500  0.762701  78.137692  104.900575  48.926170
  9660.903  9660.900  0.500  0.811222  78.093018  104.852051  46.587323
  9661.197  9661.200  0.500  0.864047  78.109446  104.886118  44.204572
  9661.495  9661.500  0.500  0.919186  78.054041  104.814583  41.804638
  9661.802  9661.800  0.500  0.971209  78.108871  104.898331  39.717144
  9662.092  9662.100  0.500  1.019175  78.070656  104.861372  37.843697
  9662.387  9662.400  0.500  1.061550  78.062378  104.851195  36.270061
  9662.693  9662.700  0.500  1.101843  77.923671  104.682826  34.781710
  9662.992  9663.000  0.500  1.136607  77.939111  104.705475  33.600624
  9663.294  9663.300  0.500  1.168546  78.044798  104.851640  32.589845
  9663.581  9663.600  0.500  1.195993  78.025084  104.827086  31.700086
  9663.895  9663.900  0.500  1.221736  78.014645  104.827935  30.894677
  9664.186  9664.200  0.500  1.242683  78.045200  104.871215  30.266761
  9664.497  9664.500  0.500  1.261036  78.036610  104.865523  29.714714
  9664.799  9664.800  0.500  1.276109  77.992042  104.809073  29.254449
  9665.102  9665.100  0.500  1.289248  78.061246  104.900290  28.897704
  9665.400  9665.400  0.500  1.300701  78.005522  104.834645  28.550764
  9665.699  9665.700  0.500  1.311559  77.905280  104.702821  28.206921
  9666.010  9666.000  0.500  1.323899  77.864132  104.656007  27.848524
  9666.305  9666.300  0.500  1.336477  77.705276  104.441776  27.444136
  9666.603  9666.600  0.500  1.350884  77.713729  104.459720  27.056245
  9666.902  9666.900  0.500  1.366680  77.679453  104.424103  26.623143
  9667.201  9667.200  0.500  1.382872  77.716257  104.458877  26.204242
  9667.500  9667.500  0.500  1.399395  77.766281  104.545670  25.796258
  9667.802  9667.800  0.500  1.416326  77.809254  104.609493  25.378658
  9668.085  9668.100  0.500  1.431618  77.803017  104.603025  24.991962
  9668.400  9668.400  0.500  1.447163  77.875520  104.707156  24.630971
  9668.695  9668.700  0.500  1.461632  77.845384  104.655807  24.265238
  9668.990  9669.000  0.500  1.475136  77.809267  104.628082  23.933420
  9669.284  9669.300  0.500  1.487905  77.752824  104.552581  23.612698
  9669.604  9669.600  0.500  1.500310  77.753824  104.555507  23.322256
  9669.898  9669.900  0.500  1.511056  77.762193  104.583260  23.079094
  9670.193  9670.200  0.500  1.520384  77.745711  104.541988  22.855790
  9670.513  9670.500  0.500  1.528447  77.692767  104.487198  22.660370
  9670.807  9670.800  0.500  1.533762  77.635350  104.413996  22.524467
  9671.102  9671.100  0.500  1.536345  77.631388  104.414411  22.466441
  9671.410  9671.400  0.500  1.535546  77.663222  104.464679  22.495234
  9671.717  9671.700  0.500  1.530869  77.635104  104.427167  22.592572
  9672.008  9672.000  0.500  1.522554  77.601076  104.381263  22.771186
  9672.295  9672.300  0.500  1.510876  77.627401  104.418107  23.046802
  9672.594  9672.600  0.500  1.496513  77.586017  104.370414  23.369540
  9672.901  9672.900  0.500  1.479684  77.612834  104.411183  23.775431
  9673.192  9673.200  0.500  1.463200  77.583073  104.374962  24.162201
  9673.483  9673.500  0.500  1.446483  77.561424  104.338995  24.561068
  9673.798  9673.800  0.500  1.429751  77.521751  104.295968  24.965175
  9674.102  9674.100  0.500  1.415095  77.525783  104.308612  25.336829
  9674.397  9674.400  0.500  1.402050  77.510703  104.283922  25.663437
  9674.704  9674.700  0.500  1.390677  77.485944  104.241631  25.946452
  9675.011  9675.000  0.500  1.381228  77.500602  104.255167  26.196175
  9675.311  9675.300  0.500  1.373524  77.459979  104.204269  26.385871
  9675.606  9675.600  0.500  1.367535  77.416590  104.179927  26.538194
  9675.901  9675.900  0.500  1.362506  77.429231  104.192072  26.675075
  9676.213  9676.200  0.500  1.358329  77.392369  104.148649  26.775565
  9676.504  9676.500  0.500  1.355318  77.398651  104.150111  26.856687
  9676.799  9676.800  0.500  1.352927  77.361888  104.098186  26.907568
  9677.086  9677.100  0.500  1.351179  77.356642  104.089576  26.952402
  9677.402  9677.400  0.500  1.350057  77.332542  104.062934  26.975757
  9677.693  9677.700  0.500  1.349389  77.378863  104.133213  27.012025
  9677.993  9678.000  0.500  1.349112  77.304893  104.029524  26.992613
  9678.296  9678.300  0.500  1.348860  77.320656  104.065114  27.008628
  9678.604  9678.600  0.500  1.348617  77.262218  103.996839  26.997488
  9678.907  9678.900  0.500  1.347830  77.238178  103.965713  27.010658
  9679.199  9679.200  0.500  1.346794  77.269575  104.016293  27.051792
  9679.502  9679.500  0.500  1.345011  77.264271  104.010010  27.098452
  9679.810  9679.800  0.500  1.342326  77.239184  103.982312  27.164061
  9680.114  9680.100  0.500  1.338858  77.248106  103.994989  27.261739
  9680.413  9680.400  0.500  1.334907  77.218051  103.961431  27.360835
  9680.705  9680.700  0.500  1.330361  77.188461  103.905627  27.470754
  9681.000  9681.000  0.500  1.325242  77.256839  104.005199  27.638198
  9681.304  9681.300  0.500  1.319995  77.376401  104.175337  27.829053
  9681.600  9681.600  0.500  1.314657  77.389233  104.203596  27.985595
  9681.895  9681.900  0.500  1.309071  77.332030  104.118110  28.119263
  9682.199  9682.200  0.500  1.303592  77.272558  104.048712  28.254896
  9682.495  9682.500  0.500  1.298379  77.334390  104.128203  28.424275
  9682.794  9682.800  0.500  1.293606  77.333432  104.122811  28.558786
  9683.098  9683.100  0.500  1.289339  77.326988  104.125640  28.681707
  9683.410  9683.400  0.500  1.285622  77.375881  104.180558  28.803679
  9683.601  9683.600  0.500  1.283712  77.376249  104.196161  28.863086
  9684.609  9684.590  0.500  1.277372  77.337842  104.157582  29.035892
  9685.610  9685.590  0.500  1.275260  77.312434  104.145187  29.093830
  9686.624  9686.610  0.500  1.275967  77.325926  104.172668  29.080925
  9687.674  9687.660  0.500  1.279989  77.319300  104.179815  28.966194
  9688.740  9688.720  0.500  1.287085  77.301445  104.162186  28.756500
  9689.803  9689.800  0.500  1.296314  77.312538  104.176416  28.496215
  9690.919  9690.900  0.500  1.307705  77.286136  104.175245  28.173145
  9692.047  9692.020  0.500  1.320554  77.245655  104.131812  27.801886
  9693.175  9693.160  0.500  1.334004  77.227674  104.121403  27.427710
  9694.324  9694.310  0.500  1.346987  77.218467  104.118769  27.073223
  9695.514  9695.490  0.500  1.358932  77.192279  104.112357  26.750117
  9696.700  9696.680  0.500  1.368297  77.233058  104.182128  26.518517
  9697.903  9697.900  0.500  1.374953  77.168582  104.114794  26.325585
  9699.143  9699.130  0.500  1.379060  77.207467  104.171779  26.232030
  9700.403  9700.380  0.500  1.380218  77.139246  104.096316  26.182692
  9701.672  9701.650  0.500  1.377548  77.075005  104.027106  26.235239
  9702.957  9702.940  0.500  1.370228  77.100078  104.044229  26.432338
  9704.271  9704.250  0.500  1.359720  77.096406  104.057472  26.714955
  9705.598  9705.580  0.500  1.350384  77.066829  104.042262  26.961597
  9706.941  9706.930  0.500  1.343480  77.033178  104.011142  27.140259
  9708.309  9708.300  0.500  1.338206  76.956827  103.920732  27.260063
  9709.710  9709.680  0.500  1.335407  75.932777  102.554187  26.976984
  9711.104  9711.090  0.500  1.335859  77.021270  104.041480  27.355853
  9712.514  9712.510  0.500  1.339797  77.020486  104.070089  27.255834
  9713.973  9713.950  0.500  1.345187  77.003601  104.070594  27.109465
  9715.425  9715.410  0.500  1.349558  76.986791  104.065351  26.989849
  9716.894  9716.890  0.500  1.351604  76.914357  103.992072  26.915734
  9718.403  9718.390  0.500  1.350680  76.906704  103.995656  26.941531
  9719.934  9719.910  0.500  1.348613  76.892692  103.996768  26.997569
  9721.461  9721.450  0.500  1.346824  76.849771  103.954929  27.035034
  9723.030  9723.010  0.500  1.345766  76.825428  103.942593  27.060423
  9724.599  9724.580  0.500  1.345178  76.767375  103.883694  27.061004
  9726.188  9726.180  0.500  1.345279  76.745560  103.871997  27.055222
  9727.808  9727.790  0.500  1.346976  76.706229  103.839366  27.000868
  9729.444  9729.430  0.500  1.350235  76.676587  103.808289  26.904964
  9731.092  9731.080  0.500  1.354544  76.616407  103.747482  26.773598
  9732.762  9732.750  0.500  1.360214  76.567770  103.701118  26.610326
  9734.449  9734.440  0.500  1.366547  76.565363  103.717691  26.446548
  9736.153  9736.150  0.500  1.372266  76.519632  103.683821  26.287154
  9737.890  9737.880  0.500  1.376405  76.461594  103.628404  26.164571
  9739.652  9739.630  0.500  1.378188  76.456065  103.638864  26.120603
  9741.391  9741.390  0.500  1.376421  76.440949  103.639135  26.166868
  9743.196  9743.180  0.500  1.370960  76.399204  103.596020  26.299213
  9744.976  9744.980  0.500  1.362240  76.326438  103.519427  26.509936
  9746.815  9746.810  0.500  1.352043  76.288359  103.493330  26.774876
  9748.659  9748.650  0.500  1.342384  76.205831  103.414434  27.014150
  9750.512  9750.510  0.500  1.334530  76.195475  103.418384  27.228190
  9752.402  9752.390  0.500  1.328797  76.138730  103.357127  27.368503
  9754.302  9754.290  0.500  1.324218  76.091545  103.311571  27.482009
  9756.218  9756.210  0.500  1.320044  76.054082  103.264916  27.584502
  9758.177  9758.150  0.500  1.315825  75.983840  103.190475  27.681138
  9760.124  9760.110  0.500  1.311901  75.962291  103.189425  27.789685
  9762.092  9762.080  0.500  1.309232  75.914435  103.143564  27.851585
  9764.090  9764.080  0.500  1.309591  75.846801  103.088435  27.826708
  9766.101  9766.090  0.500  1.312680  75.815045  103.059515  27.733111
  9768.130  9768.120  0.500  1.317376  75.710245  102.945293  27.572579
  9770.205  9770.180  0.500  1.322827  75.596159  102.830231  27.392031
  9772.264  9772.250  0.500  1.328260  75.384631  102.561211  27.172347
  9774.361  9774.340  0.500  1.334137  74.984000  102.036517  26.874938
  9776.467  9776.450  0.500  1.340511  75.585156  102.864315  26.920825
  9778.599  9778.580  0.500  1.347604  75.488496  102.758255  26.702979
  9780.745  9780.720  0.500  1.353626  75.339016  102.581002  26.496886
  9782.916  9782.890  0.500  1.357250  74.910739  102.025603  26.258091
  9785.126  9785.080  0.500  1.357782  75.327904  102.621068  26.397295
  9787.291  9787.280  0.500  1.356111  75.241831  102.544587  26.421734
  9789.490  9789.500  0.500  1.353461  75.149441  102.434201  26.463309
  9792.088  9791.750  0.500  1.350611  74.090477  101.020959  26.172698
  9794.086  9794.010  0.500  1.348679  75.042132  102.325126  26.561846
  9796.330  9796.290  0.500  1.346591  74.974522  102.256139  26.599443
  9798.579  9798.590  0.500  1.343650  74.887124  102.168314  26.654863
  9800.899  9800.910  0.500  1.339889  74.622402  101.836789  26.668483
  9803.246  9803.250  0.500  1.334978  74.091183  101.136913  26.615588
  9805.598  9805.600  0.500  1.329894  74.744558  102.058881  26.995128
  9807.971  9807.980  0.500  1.324432  74.550317  101.820771  27.079648
  9810.371  9810.370  0.500  1.318796  74.380373  101.616678  27.178106
  9812.793  9812.790  0.500  1.312646  74.547520  101.858559  27.410870
  9815.212  9815.220  0.500  1.306260  74.416977  101.710691  27.546427
  9817.670  9817.670  0.500  1.300670  74.415317  101.748615  27.711169
  9820.146  9820.150  0.500  1.297005  73.972277  101.174134  27.655861
  9822.631  9822.640  0.500  1.296666  74.272604  101.613817  27.785469
  9825.151  9825.150  0.500  1.299903  74.235578  101.584319  27.687640
  9827.668  9827.670  0.500  1.305208  73.899638  101.170144  27.428853
  9830.216  9830.220  0.500  1.310073  73.971363  101.282588  27.326091
  9832.790  9832.790  0.500  1.313490  73.953342  101.284363  27.233335
  9835.374  9835.370  0.500  1.315327  73.435448  100.604231  27.000820
  9837.976  9837.980  0.500  1.315706  73.790444  101.116092  27.127904
  9840.600  9840.600  0.500  1.315373  73.719931  101.043850  27.117557
  9843.251  9843.250  0.500  1.315385  73.213325  100.380282  26.939168
  9845.904  9845.910  0.500  1.315857  73.618431  100.970006  27.084636
  9848.591  9848.590  0.500  1.316679  73.506899  100.848414  27.029792
  9851.288  9851.290  0.500  1.317381  73.470822  100.829364  27.005709
  9854.016  9854.010  0.500  1.318166  73.379547  100.731017  26.958217
  9856.759  9856.750  0.500  1.319001  73.343618  100.718580  26.932367
  9859.519  9859.500  0.500  1.319283  73.242866  100.594676  26.891672
  9862.277  9862.280  0.500  1.318670  73.176368  100.545924  26.895105
  9865.066  9865.070  0.500  1.317514  73.130196  100.517842  26.918711
  9867.891  9867.890  0.500  1.315558  73.014152  100.370511  26.931885
  9870.734  9870.720  0.500  1.312386  72.943123  100.301531  26.998881
  9873.582  9873.570  0.500  1.307760  72.841292  100.186612  27.092965
  9876.441  9876.450  0.500  1.302708  72.738723  100.097755  27.206042
  9879.352  9879.340  0.500  1.297179  72.515006  99.821409  27.281366
  9882.248  9882.250  0.500  1.291794  71.398191  98.321884  27.016629
  9885.172  9885.170  0.500  1.286833  72.550620  99.920891  27.592550
  9888.126  9888.120  0.500  1.282877  72.458951  99.828423  27.676285
  9891.099  9891.090  0.500  1.279984  72.382021  99.755727  27.736248
  9894.079  9894.070  0.500  1.278503  72.280885  99.655793  27.749548
  9897.089  9897.080  0.500  1.278146  72.230970  99.613118  27.747566
  9900.123  9900.100  0.500  1.278788  72.136960  99.524083  27.704974
  9903.159  9903.150  0.500  1.279949  72.058929  99.446101  27.651131
