# XDI/1.0 BlueSky/1.10.0 BMM/2023-1.0-py310-tiled
# Beamline.name: BMM (06BM) -- Beamline for Materials Measurement (NIST)
# Beamline.xray_source: NSLS-II three-pole wiggler
# Beamline.collimation: paraboloid mirror, 5 nm Rh on 30 nm Pt
# Beamline.focusing: not in use
# Beamline.harmonic_rejection: flat mirror, Pt stripe, pitch = 7.0 mrad relative to beam
# Beamline.software: Bluesky 1.10.0, Ophyd 1.7.0, DataBroker 2.0.0b13, Python 3.10.8, 2023-1.0-py310-tiled
# Detector.I0: 10 cm N2
# Detector.I1: 25 cm N2
# Detector.I2: 25 cm N2
# Element.symbol: Zn
# Element.edge: K
# Element.reference: Zn
# Element.reference_material: Zn foil
# Facility.name: NSLS-II
# Facility.energy: 3.0
# Facility.current: 400.5
# Facility.mode: top-off
# Facility.GUP: 123456
# Facility.SAF: 301027
# Facility.cycle: 2023-2
# Mono.name: Si(111)
# Mono.d_spacing: 3.1351860
# Mono.encoder_resolution: 0.0000050 deg/ct
# Mono.angle_offset: 16.0754326 deg
# Mono.scan_mode: pseudo channel cut
# Mono.scan_type: step
# Mono.direction: forward in energy
# Sample.name: ZnO
# Sample.prep: powder in PEG pellet
# Sample.x: 116.329 mm
# Sample.y: 114.126 mm
# Sample.SDD_position: 205.000 mm
# Scan.experimenters: Bruce Ravel
# Scan.edge_energy: 9658.6
# Scan.start_time: 2023-05-06T13:22:44
# Scan.end_time: 2023-05-06T13:30:48
# Scan.transient_id: 74820
# Scan.uid: e69f54dd-8baf-4b93-b4c4-774bb4ebc383
# Scan.plot_hint: ln(I0/It)  --  ln($5/$6)
# Column.1: energy eV
# Column.2: requested_energy eV
# Column.3: measurement_time seconds
# Column.4: xmu 
# Column.5: I0 nA
# Column.6: It nA
# Column.7: Ir nA
# ///////////
# sample courtesy Martin Stennett, University of Sheffield
# -----------
# energy  requested_energy  measurement_time  xmu  I0  It  Ir
  9458.627  9458.600  0.500  1.792240  104.655921  17.434282  9.572479
  9468.704  9468.600  0.500  1.784772  104.532019  17.544157  9.651727
  9478.660  9478.600  0.500  1.777615  104.358310  17.640808  9.724061
  9488.629  9488.600  0.500  1.770450  104.186724  17.738455  9.797023
  9498.655  9498.600  0.500  1.763181  104.003130  17.836378  9.868900
  9508.660  9508.600  0.500  1.756241  103.822946  17.929483  9.938727
  9518.627  9518.600  0.500  1.749130  103.671428  18.031080  10.011902
  9528.640  9528.600  0.500  1.742435  103.477901  18.118311  10.078533
  9538.631  9538.600  0.500  1.735625  103.302216  18.211137  10.150258
  9548.635  9548.600  0.500  1.729376  103.328931  18.330048  10.235175
  9558.594  9558.600  0.500  1.723506  103.602264  18.486735  10.340140
  9568.602  9568.600  0.500  1.717769  103.434359  18.562957  10.401642
  9578.575  9578.600  0.500  1.712397  103.248327  18.629383  10.454698
  9588.594  9588.600  0.500  1.707897  103.072516  18.681546  10.502340
  9598.595  9598.600  0.500  1.704730  102.899271  18.709302  10.534623
  9608.597  9608.600  0.500  1.703358  102.717817  18.701938  10.544484
  9618.604  9618.600  0.500  1.705575  102.511120  18.622979  10.513417
  9628.596  9628.600  0.500  1.713981  102.346269  18.437397  10.414786
  9630.571  9630.600  0.500  1.717021  102.309257  18.374788  10.380026
  9632.575  9632.600  0.500  1.720622  102.254864  18.299008  10.335653
  9634.571  9634.600  0.500  1.725145  102.046666  18.179327  10.266529
  9636.572  9636.600  0.500  1.730776  102.183883  18.101556  10.222786
  9638.566  9638.600  0.500  1.737473  102.149536  17.974688  10.147945
  9640.569  9640.600  0.500  1.745892  102.115256  17.818010  10.056325
  9642.569  9642.600  0.500  1.756260  102.073708  17.627067  9.942835
  9644.573  9644.600  0.500  1.769655  102.032441  17.385493  9.799420
  9646.579  9646.600  0.500  1.786439  102.000242  17.090729  9.620974
  9648.585  9648.600  0.500  1.808901  101.741284  16.668683  9.366960
  9648.862  9648.900  0.500  1.812550  101.739333  16.607656  9.329256
  9649.164  9649.200  0.500  1.816532  101.760725  16.545134  9.293383
  9649.466  9649.500  0.500  1.820700  101.801447  16.482911  9.253802
  9649.763  9649.800  0.500  1.825138  101.847754  16.417383  9.215971
  9650.069  9650.100  0.500  1.829923  101.878948  16.344026  9.170526
  9650.363  9650.400  0.500  1.834664  101.881197  16.267073  9.122467
  9650.664  9650.700  0.500  1.839955  101.890111  16.182661  9.071060
  9650.966  9651.000  0.500  1.845514  101.889860  16.092909  9.016338
  9651.276  9651.300  0.500  1.851471  101.891313  15.997554  8.959191
  9651.574  9651.600  0.500  1.857778  101.886156  15.896174  8.897573
  9651.876  9651.900  0.500  1.864275  101.881434  15.792498  8.834439
  9652.169  9652.200  0.500  1.871202  101.876995  15.682795  8.767183
  9652.479  9652.500  0.500  1.878403  101.867944  15.568876  8.697604
  9652.789  9652.800  0.500  1.886195  101.863516  15.447366  8.622577
  9653.083  9653.100  0.500  1.894083  101.857246  15.325057  8.549579
  9653.385  9653.400  0.500  1.902643  101.850891  15.193489  8.467599
  9653.675  9653.700  0.500  1.911486  101.841965  15.058399  8.384929
  9653.993  9654.000  0.500  1.921668  101.834033  14.904697  8.290103
  9654.295  9654.300  0.500  1.931879  101.828134  14.752423  8.197580
  9654.593  9654.600  0.500  1.943330  101.821244  14.583468  8.095454
  9654.891  9654.900  0.500  1.955292  101.815166  14.409197  7.987823
  9655.189  9655.200  0.500  1.968273  101.806798  14.222190  7.870217
  9655.499  9655.500  0.500  1.982731  101.798095  14.016853  7.746394
  9655.789  9655.800  0.500  1.997911  101.793499  13.805063  7.613871
  9656.091  9656.100  0.500  2.014364  101.783702  13.578476  7.474329
  9656.377  9656.400  0.500  2.031486  101.773882  13.346681  7.329547
  9656.691  9656.700  0.500  2.051157  101.766596  13.085768  7.168492
  9656.977  9657.000  0.500  2.071026  101.761043  12.827629  7.006791
  9657.291  9657.300  0.500  2.094203  101.749274  12.532294  6.822481
  9657.586  9657.600  0.500  2.118459  101.748875  12.231912  6.634316
  9657.892  9657.900  0.500  2.146756  101.738090  11.889378  6.418690
  9658.182  9658.200  0.500  2.177356  101.729035  11.530051  6.190295
  9658.492  9658.500  0.500  2.213655  101.725526  11.118641  5.929468
  9658.790  9658.800  0.500  2.253434  101.718058  10.684250  5.649366
  9659.101  9659.100  0.500  2.301368  101.712106  10.183600  5.324340
  9659.391  9659.400  0.500  2.353992  101.703579  9.660740  4.981534
  9659.697  9659.700  0.500  2.420383  101.692125  9.039164  4.569195
  9659.992  9660.000  0.500  2.494451  101.689119  8.393602  4.137788
  9660.302  9660.300  0.500  2.587924  101.682911  7.644108  3.641847
  9660.596  9660.600  0.500  2.694553  101.673605  6.870346  3.146743
  9660.903  9660.900  0.500  2.827902  101.665780  6.012187  2.629159
  9661.197  9661.200  0.500  2.981160  101.660832  5.157657  2.152224
  9661.508  9661.500  0.500  3.176212  101.654858  4.243428  1.683126
  9661.798  9661.800  0.500  3.398620  101.648562  3.397030  1.288815
  9662.100  9662.100  0.500  3.677793  101.896233  2.575805  0.936075
  9662.395  9662.400  0.500  3.998093  101.926807  1.870418  0.655093
  9662.701  9662.700  0.500  4.392072  101.922280  1.261294  0.425614
  9662.992  9663.000  0.500  4.824484  101.915026  0.818448  0.267500
  9663.290  9663.300  0.500  5.339472  101.909262  0.489002  0.154466
  9663.593  9663.600  0.500  5.927668  101.903295  0.271541  0.082961
  9663.891  9663.900  0.500  6.564728  101.897739  0.143595  0.042106
  9664.190  9664.200  0.500  7.218667  101.892449  0.074665  0.020637
  9664.484  9664.500  0.500  7.841906  101.878267  0.040030  0.009887
  9664.795  9664.800  0.500  8.384577  101.874147  0.023264  0.004867
  9665.086  9665.100  0.500  8.730535  101.859139  0.016458  0.002858
  9665.400  9665.400  0.500  8.942580  101.836522  0.013310  0.002106
  9665.695  9665.700  0.500  9.039232  101.779698  0.012077  0.001625
  9666.002  9666.000  0.500  9.068960  101.715402  0.011716  0.001561
  9666.301  9666.300  0.500  9.089369  101.644846  0.011472  0.001380
  9666.603  9666.600  0.500  9.111344  101.605529  0.011218  0.001461
  9666.902  9666.900  0.500  9.132678  101.581985  0.010979  0.001275
  9667.201  9667.200  0.500  9.163298  101.603855  0.010650  0.001056
  9667.504  9667.500  0.500  9.198516  101.650397  0.010286  0.001105
  9667.802  9667.800  0.500  9.235378  101.719740  0.009920  0.000889
  9668.109  9668.100  0.500  9.280514  101.743649  0.009485  0.000776
  9668.404  9668.400  0.500  9.315267  101.749425  0.009161  0.000720
  9668.703  9668.700  0.500  9.344968  101.746462  0.008893  0.000537
  9668.998  9669.000  0.500  9.367229  101.744733  0.008697  0.000538
  9669.301  9669.300  0.500  9.382171  101.734522  0.008567  0.000528
  9669.591  9669.600  0.500  9.401767  101.734843  0.008401  0.000582
  9669.886  9669.900  0.500  9.412141  101.725656  0.008314  0.000592
  9670.193  9670.200  0.500  9.420518  101.716466  0.008244  0.000539
  9670.488  9670.500  0.500  9.418227  101.713828  0.008262  0.000484
  9670.791  9670.800  0.500  9.418186  101.705557  0.008262  0.000649
  9671.094  9671.100  0.500  9.430053  101.701401  0.008164  0.000535
  9671.406  9671.400  0.500  9.436988  101.688927  0.008107  0.000585
  9671.696  9671.700  0.500  9.435569  101.682721  0.008118  0.000464
  9672.000  9672.000  0.500  9.422315  101.676609  0.008225  0.000563
  9672.299  9672.300  0.500  9.431806  101.671519  0.008147  0.000366
  9672.606  9672.600  0.500  9.422499  101.658146  0.008222  0.000536
  9672.905  9672.900  0.500  9.427143  101.654635  0.008184  0.000407
  9673.200  9673.200  0.500  9.410973  101.647705  0.008317  0.000548
  9673.511  9673.500  0.500  9.398782  101.641196  0.008418  0.000456
  9673.802  9673.800  0.500  9.380648  101.635134  0.008572  0.000520
  9674.114  9674.100  0.500  9.370513  101.624951  0.008658  0.000616
  9674.401  9674.400  0.500  9.338395  101.610988  0.008940  0.000595
  9674.712  9674.700  0.500  9.316633  101.606388  0.009136  0.000741
  9674.995  9675.000  0.500  9.300617  101.603110  0.009283  0.000688
  9675.299  9675.300  0.500  9.254757  101.585153  0.009717  0.000816
  9675.594  9675.600  0.500  9.218857  101.578038  0.010072  0.000911
  9675.893  9675.900  0.500  9.170163  101.563071  0.010573  0.001128
  9676.192  9676.200  0.500  9.098567  101.557299  0.011357  0.001173
  9676.488  9676.500  0.500  9.033505  101.550928  0.012119  0.001407
  9676.807  9676.800  0.500  8.955618  101.543053  0.013100  0.001658
  9677.099  9677.100  0.500  8.899707  101.538519  0.013853  0.001991
  9677.402  9677.400  0.500  8.852631  101.532801  0.014520  0.002113
  9677.701  9677.700  0.500  8.832543  101.517467  0.014812  0.002187
  9678.009  9678.000  0.500  8.828940  101.517152  0.014865  0.002213
  9678.304  9678.300  0.500  8.826938  101.509738  0.014894  0.002222
  9678.604  9678.600  0.500  8.861184  101.496163  0.014391  0.002002
  9678.903  9678.900  0.500  8.901808  101.492141  0.013817  0.001997
  9679.203  9679.200  0.500  8.943925  101.485183  0.013247  0.001785
  9679.510  9679.500  0.500  9.007438  101.474824  0.012430  0.001600
  9679.802  9679.800  0.500  9.066634  101.470449  0.011715  0.001454
  9680.110  9680.100  0.500  9.136362  101.460949  0.010925  0.001180
  9680.397  9680.400  0.500  9.184050  101.455277  0.010416  0.001095
  9680.697  9680.700  0.500  9.220029  101.447732  0.010047  0.000935
  9680.996  9681.000  0.500  9.253192  101.436692  0.009718  0.000872
  9681.304  9681.300  0.500  9.284106  101.430530  0.009422  0.000775
  9681.600  9681.600  0.500  9.289184  101.423215  0.009373  0.000800
  9681.895  9681.900  0.500  9.307953  101.412797  0.009198  0.000665
  9682.199  9682.200  0.500  9.310376  101.404263  0.009175  0.000778
  9682.495  9682.500  0.500  9.294376  101.399325  0.009323  0.000771
  9682.794  9682.800  0.500  9.301273  101.388296  0.009258  0.000843
  9683.098  9683.100  0.500  9.279316  101.382162  0.009462  0.000814
  9683.390  9683.400  0.500  9.261363  101.373265  0.009633  0.000779
  9683.601  9683.600  0.500  9.258165  101.368138  0.009663  0.000868
  9684.614  9684.590  0.500  9.219696  101.349935  0.010041  0.000870
  9685.615  9685.590  0.500  9.191209  101.336040  0.010329  0.001117
  9686.636  9686.610  0.500  9.134488  101.308146  0.010929  0.001222
  9687.674  9687.660  0.500  9.050089  101.284160  0.011889  0.001483
  9688.732  9688.720  0.500  8.965405  101.261459  0.012937  0.001809
  9689.823  9689.800  0.500  8.915417  101.240049  0.013597  0.002006
  9690.927  9690.900  0.500  8.875428  101.211473  0.014148  0.002039
  9692.039  9692.020  0.500  8.773958  101.171373  0.015652  0.002468
  9693.167  9693.160  0.500  8.611201  101.172539  0.018419  0.003230
  9694.316  9694.310  0.500  8.456518  101.145444  0.021494  0.003813
  9695.498  9695.490  0.500  8.380340  101.121712  0.023190  0.004300
  9696.700  9696.680  0.500  8.325248  101.091371  0.024497  0.004526
  9697.923  9697.900  0.500  8.275874  101.064493  0.025730  0.004833
  9699.139  9699.130  0.500  8.265277  101.038356  0.025997  0.004990
  9700.391  9700.380  0.500  8.295211  101.011407  0.025224  0.004659
  9701.668  9701.650  0.500  8.384010  100.979332  0.023073  0.004203
  9702.957  9702.940  0.500  8.494596  100.946278  0.020651  0.003694
  9704.271  9704.250  0.500  8.614671  100.918921  0.018309  0.003057
  9705.585  9705.580  0.500  8.735049  100.885968  0.016227  0.002492
  9706.953  9706.930  0.500  8.819032  100.834518  0.014913  0.002129
  9708.325  9708.300  0.500  8.903626  100.642801  0.013677  0.001894
  9709.706  9709.680  0.500  8.974161  99.376596  0.012585  0.001537
  9711.100  9711.090  0.500  9.060401  100.808345  0.011712  0.001372
  9712.522  9712.510  0.500  9.128125  100.806935  0.010945  0.001194
  9713.965  9713.950  0.500  9.212968  100.767419  0.010050  0.001038
  9715.429  9715.410  0.500  9.262181  100.731979  0.009564  0.000804
  9716.898  9716.890  0.500  9.291820  100.691514  0.009281  0.000773
  9718.391  9718.390  0.500  9.250455  100.662577  0.009670  0.000866
  9719.926  9719.910  0.500  9.194327  100.630957  0.010226  0.000993
  9721.465  9721.450  0.500  9.111787  100.597943  0.011102  0.001173
  9723.013  9723.010  0.500  9.066723  100.562967  0.011609  0.001228
  9724.586  9724.580  0.500  9.060404  100.524222  0.011679  0.001384
  9726.201  9726.180  0.500  9.054953  100.489268  0.011738  0.001373
  9727.803  9727.790  0.500  9.035777  100.450403  0.011961  0.001532
  9729.435  9729.430  0.500  9.042264  100.426924  0.011881  0.001541
  9731.101  9731.080  0.500  9.070075  100.389986  0.011551  0.001287
  9732.770  9732.750  0.500  9.113643  100.357636  0.011055  0.001121
  9734.449  9734.440  0.500  9.146730  100.322754  0.010691  0.001101
  9736.169  9736.150  0.500  9.161720  100.283129  0.010528  0.000926
  9737.902  9737.880  0.500  9.189006  100.247244  0.010241  0.000962
  9739.644  9739.630  0.500  9.205488  100.215804  0.010070  0.000992
  9741.399  9741.390  0.500  9.219833  100.181062  0.009923  0.000835
  9743.192  9743.180  0.500  9.213408  100.138776  0.009983  0.000826
  9744.985  9744.980  0.500  9.179243  100.104845  0.010327  0.001004
  9746.811  9746.810  0.500  9.152221  100.059416  0.010605  0.001063
  9748.663  9748.650  0.500  9.109853  100.017244  0.011059  0.001060
  9750.524  9750.510  0.500  9.069542  99.976996  0.011509  0.001316
  9752.402  9752.390  0.500  9.005388  99.940022  0.012267  0.001404
  9754.310  9754.290  0.500  8.942102  99.899056  0.013063  0.001686
  9756.210  9756.210  0.500  8.888590  99.854599  0.013775  0.001911
  9758.152  9758.150  0.500  8.827475  99.809376  0.014637  0.002184
  9760.136  9760.110  0.500  8.790903  99.764606  0.015175  0.002218
  9762.084  9762.080  0.500  8.774224  99.720050  0.015424  0.002392
  9764.094  9764.080  0.500  8.771290  99.673184  0.015462  0.002367
  9766.101  9766.090  0.500  8.777715  99.622626  0.015355  0.002243
  9768.121  9768.120  0.500  8.816162  99.568829  0.014768  0.002182
  9770.209  9770.180  0.500  8.872347  99.483698  0.013949  0.001961
  9772.272  9772.250  0.500  8.914748  99.240045  0.013337  0.001821
  9774.353  9774.340  0.500  8.969343  99.058975  0.012605  0.001574
  9776.463  9776.450  0.500  9.007866  99.411087  0.012172  0.001390
  9778.579  9778.580  0.500  9.039250  99.339907  0.011788  0.001350
  9780.724  9780.720  0.500  9.058439  99.231504  0.011551  0.001280
  9782.904  9782.890  0.500  9.062429  97.886462  0.011349  0.001153
  9785.084  9785.080  0.500  9.064082  99.268177  0.011490  0.001312
  9787.291  9787.280  0.500  9.049750  99.200243  0.011648  0.001317
  9789.511  9789.500  0.500  9.039925  99.072037  0.011748  0.001309
  9791.760  9791.750  0.500  9.046412  97.512597  0.011488  0.001302
  9794.044  9794.010  0.500  9.065618  99.123344  0.011456  0.001235
  9796.292  9796.290  0.500  9.089916  99.046086  0.011172  0.001224
  9798.608  9798.590  0.500  9.082292  98.969195  0.011249  0.001147
  9800.920  9800.910  0.500  9.077559  98.797132  0.011283  0.001140
  9803.275  9803.250  0.500  9.059603  98.431314  0.011445  0.001235
  9805.606  9805.600  0.500  9.031967  98.845223  0.011815  0.001343
  9807.976  9807.980  0.500  8.996424  98.835264  0.012241  0.001405
  9810.384  9810.370  0.500  8.951911  99.022672  0.012822  0.001650
  9812.785  9812.790  0.500  8.930961  98.968959  0.013087  0.001780
  9815.229  9815.220  0.500  8.919303  98.909654  0.013232  0.001721
  9817.679  9817.670  0.500  8.915471  98.861899  0.013277  0.001792
  9820.150  9820.150  0.500  8.942604  98.248346  0.012841  0.001851
  9822.660  9822.640  0.500  8.968430  98.698629  0.012571  0.001627
  9825.143  9825.150  0.500  8.994525  98.666527  0.012243  0.001518
  9827.681  9827.670  0.500  9.022704  98.116445  0.011837  0.001439
  9830.237  9830.220  0.500  9.026934  98.537984  0.011837  0.001263
  9832.794  9832.790  0.500  9.034951  98.490785  0.011737  0.001255
  9835.391  9835.370  0.500  9.045141  98.067840  0.011568  0.001343
  9837.980  9837.980  0.500  9.035152  98.401373  0.011724  0.001443
  9840.613  9840.600  0.500  9.041415  98.351471  0.011645  0.001264
  9843.260  9843.250  0.500  9.022158  97.711707  0.011794  0.001405
  9845.929  9845.910  0.500  8.999073  98.213795  0.012132  0.001543
  9848.612  9848.590  0.500  8.976321  98.167769  0.012405  0.001475
  9851.297  9851.290  0.500  8.946621  98.115611  0.012772  0.001583
  9854.029  9854.010  0.500  8.923579  98.055566  0.013062  0.001626
  9856.763  9856.750  0.500  8.906730  97.996665  0.013276  0.001697
  9859.523  9859.500  0.500  8.882746  97.935355  0.013590  0.001873
  9862.281  9862.280  0.500  8.857254  97.871465  0.013932  0.001969
  9865.083  9865.070  0.500  8.834227  97.820533  0.014249  0.002194
  9867.899  9867.890  0.500  8.821199  97.762210  0.014427  0.002066
  9870.725  9870.720  0.500  8.830527  97.705826  0.014285  0.002090
  9873.587  9873.570  0.500  8.845204  97.649105  0.014068  0.002019
  9876.458  9876.450  0.500  8.857756  97.587543  0.013884  0.001909
  9879.361  9879.340  0.500  8.874202  97.397918  0.013631  0.001861
  9882.248  9882.250  0.500  8.896896  95.871437  0.013116  0.001832
  9885.188  9885.170  0.500  8.913743  97.296825  0.013089  0.001630
  9888.135  9888.120  0.500  8.912998  97.281346  0.013097  0.001638
  9891.120  9891.090  0.500  8.941947  97.242046  0.012718  0.001732
  9894.096  9894.070  0.500  8.950373  97.174319  0.012602  0.001587
  9897.094  9897.080  0.500  8.946362  97.108403  0.012644  0.001665
  9900.127  9900.100  0.500  8.942724  97.041844  0.012682  0.001542
  9903.155  9903.150  0.500  8.939412  96.980581  0.012716  0.001583
  9906.252  9906.210  0.500  8.918165  96.918108  0.012981  0.001696
  9909.321  9909.290  0.500  8.901862  96.853809  0.013185  0.001682
  9912.422  9912.390  0.500  8.903874  96.790966  0.013150  0.001757
  9915.525  9915.510  0.500  8.888817  96.721526  0.013340  0.001808
  9918.668  9918.650  0.500  8.900007  96.652313  0.013182  0.001771
  9921.826  9921.800  0.500  8.879757  96.575871  0.013441  0.001839
