# XDI/1.0 BlueSky/1.10.0 BMM/2023-1.0-py310-tiled
# Beamline.name: BMM (06BM) -- Beamline for Materials Measurement (NIST)
# Beamline.xray_source: NSLS-II three-pole wiggler
# Beamline.collimation: paraboloid mirror, 5 nm Rh on 30 nm Pt
# Beamline.focusing: not in use
# Beamline.harmonic_rejection: flat mirror, Pt stripe, pitch = 7.0 mrad relative to beam
# Beamline.software: Bluesky 1.10.0, Ophyd 1.7.0, DataBroker 2.0.0b13, Python 3.10.8, 2023-1.0-py310-tiled
# Detector.I0: 10 cm N2
# Detector.I1: 25 cm N2
# Detector.I2: 25 cm N2
# Element.symbol: Zr
# Element.edge: K
# Element.reference: Zr
# Element.reference_material: Zr foil
# Facility.name: NSLS-II
# Facility.energy: 3.0
# Facility.current: 400.1
# Facility.mode: top-off
# Facility.GUP: 301027
# Facility.SAF: 310583
# Facility.cycle: 2023-2
# Mono.name: Si(111)
# Mono.d_spacing: 3.1351860
# Mono.encoder_resolution: 0.0000050 deg/ct
# Mono.angle_offset: 16.0754326 deg
# Mono.scan_mode: pseudo channel cut
# Mono.scan_type: step
# Mono.direction: forward in energy
# Sample.name: CaZrTi2O7
# Sample.prep: powder in PEG pellet
# Sample.x: 117.785 mm
# Sample.y: 114.695 mm
# Sample.SDD_position: 205.000 mm
# Scan.experimenters: Bruce Ravel
# Scan.edge_energy: 17997.6
# Scan.start_time: 2023-06-23T19:48:31
# Scan.end_time: 2023-06-23T19:56:18
# Scan.transient_id: 84984
# Scan.uid: 4b699b96-a2f8-44ff-a3af-93b541923c15
# Scan.plot_hint: ln(I0/It)  --  ln($5/$6)
# Column.1: energy eV
# Column.2: requested_energy eV
# Column.3: measurement_time seconds
# Column.4: xmu 
# Column.5: I0 nA
# Column.6: It nA
# Column.7: Ir nA
# ///////////
# sample courtesy Martin Stennett, University of Sheffield
# -----------
# energy  requested_energy  measurement_time  xmu  I0  It  Ir
  17797.622  17797.600  0.500  0.023022  13.416632  13.111281  9.872785
  17807.687  17807.600  0.500  0.021730  13.361953  13.074735  9.850532
  17817.693  17817.600  0.500  0.020897  13.314300  13.038956  9.827792
  17827.668  17827.600  0.500  0.019704  13.275362  13.016342  9.810519
  17837.697  17837.600  0.500  0.018717  13.235126  12.989704  9.790206
  17847.710  17847.600  0.500  0.018004  13.202071  12.966507  9.779872
  17857.733  17857.600  0.500  0.016846  13.165447  12.945516  9.763735
  17867.712  17867.600  0.500  0.016097  13.136228  12.926467  9.751604
  17877.730  17877.600  0.500  0.015301  13.082399  12.883753  9.724822
  17887.717  17887.600  0.500  0.014611  13.035011  12.845947  9.696490
  17897.744  17897.600  0.500  0.013664  13.021975  12.845252  9.696305
  17907.627  17907.600  0.500  0.013274  13.004052  12.832581  9.687982
  17917.592  17917.600  0.500  0.012549  12.958803  12.797194  9.657566
  17927.610  17927.600  0.500  0.012168  12.914216  12.758027  9.623179
  17937.611  17937.600  0.500  0.012087  12.885808  12.730999  9.595485
  17947.581  17947.600  0.500  0.012155  12.841657  12.686513  9.551090
  17957.563  17957.600  0.500  0.012661  12.805657  12.644552  9.501344
  17967.612  17967.600  0.500  0.014495  12.729512  12.546326  9.394996
  17969.552  17969.600  0.500  0.015038  12.702645  12.513046  9.357949
  17971.564  17971.600  0.500  0.015365  12.732600  12.538460  9.366498
  17973.576  17973.600  0.500  0.016129  12.743695  12.539802  9.354986
  17975.560  17975.600  0.500  0.016992  12.740702  12.526044  9.330005
  17977.601  17977.600  0.500  0.017738  12.730642  12.506817  9.298353
  17979.586  17979.600  0.500  0.018968  12.716961  12.478021  9.259033
  17981.543  17981.600  0.500  0.020017  12.702748  12.451006  9.213024
  17983.558  17983.600  0.500  0.021770  12.700440  12.426942  9.164884
  17985.572  17985.600  0.500  0.023589  12.684904  12.389187  9.098362
  17987.502  17987.600  0.500  0.025804  12.694205  12.370829  9.035634
  17987.800  17987.900  0.500  0.026177  12.690085  12.362208  9.022685
  17988.127  17988.200  0.500  0.026605  12.695604  12.362288  9.010742
  17988.439  17988.500  0.500  0.027011  12.685270  12.347210  8.990480
  17988.737  17988.800  0.500  0.027498  12.688249  12.344098  8.979366
  17989.007  17989.100  0.500  0.028016  12.690342  12.339743  8.969016
  17989.319  17989.400  0.500  0.028158  12.684405  12.332224  8.947552
  17989.646  17989.700  0.500  0.028723  12.682500  12.323400  8.930346
  17989.915  17990.000  0.500  0.029071  12.690069  12.326463  8.920106
  17990.199  17990.300  0.500  0.029736  12.685974  12.314302  8.898367
  17990.540  17990.600  0.500  0.030151  12.690314  12.313398  8.881468
  17990.867  17990.900  0.500  0.030740  12.685701  12.301674  8.859225
  17991.136  17991.200  0.500  0.031405  12.689358  12.297047  8.840257
  17991.420  17991.500  0.500  0.031911  12.678814  12.280611  8.814202
  17991.733  17991.800  0.500  0.032673  12.690400  12.282468  8.795066
  17992.045  17992.100  0.500  0.033336  12.685075  12.269182  8.768761
  17992.329  17992.400  0.500  0.033747  12.677710  12.257012  8.738848
  17992.656  17992.700  0.500  0.034573  12.684076  12.253041  8.712739
  17992.997  17993.000  0.500  0.035353  12.682643  12.242109  8.677418
  17993.267  17993.300  0.500  0.036096  12.665552  12.216523  8.637788
  17993.579  17993.600  0.500  0.036806  12.676179  12.218104  8.608766
  17993.891  17993.900  0.500  0.037616  12.675581  12.207629  8.568136
  17994.204  17994.200  0.500  0.038886  12.673359  12.190001  8.524561
  17994.488  17994.500  0.500  0.039594  12.664107  12.172486  8.475252
  17994.744  17994.800  0.500  0.040407  12.668276  12.166591  8.432405
  17995.085  17995.100  0.500  0.041826  12.666035  12.147187  8.371185
  17995.397  17995.400  0.500  0.042772  12.659220  12.129180  8.303914
  17995.695  17995.700  0.500  0.044079  12.656809  12.111028  8.240386
  17995.965  17996.000  0.500  0.045239  12.667728  12.107418  8.176002
  17996.278  17996.300  0.500  0.046734  12.711219  12.130845  8.118880
  17996.576  17996.600  0.500  0.048128  12.690883  12.094563  8.012240
  17996.860  17996.900  0.500  0.049696  12.700443  12.084711  7.914418
  17997.201  17997.200  0.500  0.051419  12.695604  12.059307  7.789341
  17997.329  17997.500  0.500  0.052558  12.695250  12.045242  7.731505
  17997.926  17997.800  0.500  0.056423  12.685191  11.989278  7.443234
  17997.940  17998.100  0.500  0.056650  12.678699  11.980417  7.434127
  17998.253  17998.400  0.500  0.058709  12.678891  11.955959  7.276257
  17998.566  17998.700  0.500  0.061366  12.680346  11.925604  7.092324
  17998.892  17999.000  0.500  0.064585  12.670615  11.878147  6.892420
  17999.191  17999.300  0.500  0.067698  12.666580  11.837459  6.701450
  17999.475  17999.600  0.500  0.071060  12.678987  11.809282  6.512827
  17999.788  17999.900  0.500  0.075257  12.674943  11.756070  6.320879
  18000.072  18000.200  0.500  0.079729  12.676221  11.704797  6.131210
  18000.413  18000.500  0.500  0.085160  12.675615  11.640851  5.934684
  18000.683  18000.800  0.500  0.090764  12.666404  11.567380  5.756486
  18001.039  18001.100  0.500  0.097061  12.663553  11.492178  5.596035
  18001.351  18001.400  0.500  0.104699  12.669733  11.410307  5.446921
  18001.621  18001.700  0.500  0.112278  12.667712  11.322351  5.319904
  18001.920  18002.000  0.500  0.120256  12.665002  11.229976  5.207929
  18002.218  18002.300  0.500  0.128662  12.662385  11.133675  5.109989
  18002.517  18002.600  0.500  0.138089  12.655626  11.023320  5.013001
  18002.830  18002.900  0.500  0.148020  12.659758  10.917951  4.927053
  18003.171  18003.200  0.500  0.157945  12.651240  10.802858  4.844370
  18003.455  18003.500  0.500  0.168720  12.661757  10.695956  4.766968
  18003.782  18003.800  0.500  0.178963  12.661997  10.587165  4.687771
  18004.053  18004.100  0.500  0.188768  12.654633  10.477760  4.606465
  18004.380  18004.400  0.500  0.198625  12.650153  10.371320  4.523556
  18004.636  18004.700  0.500  0.207685  12.651828  10.279143  4.444091
  18004.934  18005.000  0.500  0.216772  12.650217  10.184860  4.356989
  18005.247  18005.300  0.500  0.226025  12.635338  10.079190  4.254002
  18005.588  18005.600  0.500  0.234667  12.645459  10.000465  4.164784
  18005.887  18005.900  0.500  0.242914  12.641606  9.915308  4.066470
  18006.200  18006.200  0.500  0.250801  12.643058  9.838540  3.967099
  18006.484  18006.500  0.500  0.258114  12.640040  9.764517  3.868263
  18006.769  18006.800  0.500  0.264873  12.639424  9.698278  3.770922
  18007.039  18007.100  0.500  0.271804  12.625166  9.620420  3.671104
  18007.338  18007.400  0.500  0.279159  12.631965  9.555067  3.569160
  18007.665  18007.700  0.500  0.287530  12.637274  9.479398  3.456326
  18007.978  18008.000  0.500  0.296174  12.634741  9.395930  3.344429
  18008.319  18008.300  0.500  0.305074  12.633072  9.311442  3.229439
  18008.618  18008.600  0.500  0.314757  12.619371  9.211718  3.112970
  18008.888  18008.900  0.500  0.324431  12.617316  9.121542  3.005641
  18009.173  18009.200  0.500  0.335247  12.626280  9.029824  2.898922
  18009.472  18009.500  0.500  0.347129  12.624374  8.921823  2.788532
  18009.785  18009.800  0.500  0.359560  12.625027  8.812057  2.683553
  18010.098  18010.100  0.500  0.373936  12.619864  8.682727  2.573185
  18010.368  18010.400  0.500  0.388788  12.612479  8.549718  2.464984
  18010.695  18010.700  0.500  0.404823  12.620344  8.418970  2.364500
  18011.008  18011.000  0.500  0.422556  12.615899  8.268075  2.260824
  18011.293  18011.300  0.500  0.440897  12.605629  8.111204  2.165245
  18011.578  18011.600  0.500  0.459332  12.611318  7.966642  2.080708
  18011.862  18011.900  0.500  0.478548  12.609489  7.813877  1.999951
  18012.175  18012.200  0.500  0.501104  12.608983  7.639293  1.914677
  18012.474  18012.500  0.500  0.523969  12.614486  7.469867  1.836867
  18012.787  18012.800  0.500  0.549198  12.613053  7.282933  1.761440
  18013.086  18013.100  0.500  0.576436  12.612927  7.087171  1.687723
  18013.414  18013.400  0.500  0.603530  12.604942  6.893364  1.620339
  18013.684  18013.700  0.500  0.631754  12.604328  6.701194  1.559068
  18013.997  18014.000  0.500  0.661416  12.598393  6.502281  1.500212
  18014.268  18014.300  0.500  0.691077  12.599158  6.312633  1.447404
  18014.581  18014.600  0.500  0.724353  12.606429  6.109552  1.393561
  18014.866  18014.900  0.500  0.758933  12.605289  5.901367  1.342075
  18015.179  18015.200  0.500  0.793498  12.583891  5.691191  1.293645
  18015.492  18015.500  0.500  0.830396  12.599757  5.491938  1.249258
  18015.791  18015.800  0.500  0.867762  12.602217  5.291546  1.206667
  18016.076  18016.100  0.500  0.901636  12.600207  5.114489  1.169656
  18016.361  18016.400  0.500  0.935098  12.593352  4.943488  1.135195
  18016.646  18016.700  0.500  0.967548  12.583747  4.781996  1.103843
  18016.959  18017.000  0.500  1.000666  12.578637  4.624342  1.072851
  18017.272  18017.300  0.500  1.032062  12.596131  4.487642  1.047316
  18017.571  18017.600  0.500  1.063881  12.590748  4.345240  1.021107
  18017.899  18017.900  0.500  1.091119  12.588527  4.227736  0.999444
  18018.198  18018.200  0.500  1.114660  12.583127  4.127601  0.980951
  18018.497  18018.500  0.500  1.134723  12.582237  4.045331  0.966564
  18018.810  18018.800  0.500  1.151321  12.581777  3.978596  0.954505
  18019.081  18019.100  0.500  1.165207  12.577902  3.922521  0.943880
  18019.351  18019.400  0.500  1.176971  12.579508  3.877142  0.935587
  18019.665  18019.700  0.500  1.186565  12.579433  3.840098  0.928700
  18019.978  18020.000  0.500  1.194085  12.570922  3.808750  0.922835
  18020.263  18020.300  0.500  1.199942  12.588274  3.791736  0.920544
  18020.576  18020.600  0.500  1.204447  12.582588  3.772987  0.917221
  18020.876  18020.900  0.500  1.207390  12.578145  3.760571  0.913808
  18021.189  18021.200  0.500  1.209544  12.572022  3.750652  0.912434
  18021.474  18021.500  0.500  1.211506  12.568206  3.742165  0.911248
  18021.773  18021.800  0.500  1.212923  12.571877  3.737956  0.909676
  18022.072  18022.100  0.500  1.214158  12.563834  3.730955  0.908069
  18022.372  18022.400  0.500  1.215192  12.565789  3.727681  0.906966
  18022.585  18022.600  0.500  1.215645  12.567910  3.726621  0.906382
  18023.597  18023.590  0.500  1.217048  12.555649  3.717765  0.902186
  18024.595  18024.590  0.500  1.215703  12.555058  3.722593  0.898981
  18025.649  18025.610  0.500  1.208928  12.550631  3.746579  0.896525
  18026.676  18026.660  0.500  1.196698  12.542300  3.790163  0.893943
  18027.773  18027.720  0.500  1.181185  12.541975  3.849317  0.890580
  18028.857  18028.800  0.500  1.164033  12.540518  3.915455  0.888301
  18029.941  18029.900  0.500  1.144847  12.531851  3.988545  0.890589
  18031.053  18031.020  0.500  1.123997  12.518918  4.068375  0.900406
  18032.208  18032.160  0.500  1.099651  12.527706  4.171565  0.922975
  18033.350  18033.310  0.500  1.073027  12.520572  4.281685  0.955660
  18034.505  18034.490  0.500  1.046643  12.514119  4.393889  0.996429
  18035.704  18035.680  0.500  1.020635  12.515761  4.510257  1.044623
  18036.945  18036.900  0.500  0.997878  12.508980  4.611569  1.090911
  18038.173  18038.130  0.500  0.979694  12.498965  4.692435  1.131252
  18039.386  18039.380  0.500  0.965304  12.492583  4.758017  1.161686
  18040.671  18040.650  0.500  0.951728  12.469622  4.814188  1.182891
  18041.956  18041.940  0.500  0.939257  12.437806  4.862164  1.197619
  18043.256  18043.250  0.500  0.927436  12.423727  4.914412  1.211856
  18044.570  18044.580  0.500  0.915883  12.439748  4.977930  1.228501
  18045.927  18045.930  0.500  0.903340  12.463992  5.050584  1.248354
  18047.298  18047.300  0.500  0.890290  12.459458  5.115063  1.270421
  18048.699  18048.680  0.500  0.876387  12.456319  5.185371  1.293669
  18050.099  18050.090  0.500  0.862804  12.446698  5.252224  1.315298
  18051.486  18051.510  0.500  0.851410  12.451098  5.314285  1.330949
  18052.987  18052.950  0.500  0.842975  12.428285  5.349482  1.336289
  18054.417  18054.410  0.500  0.838392  12.433526  5.376320  1.332955
  18055.918  18055.890  0.500  0.836452  12.432045  5.386118  1.321016
  18057.434  18057.390  0.500  0.836983  12.425744  5.380532  1.301449
  18058.922  18058.910  0.500  0.840462  12.420285  5.359490  1.279781
  18060.510  18060.450  0.500  0.847149  12.413913  5.321041  1.256672
  18062.027  18062.010  0.500  0.856977  12.396997  5.261822  1.234442
  18063.630  18063.580  0.500  0.870845  12.391370  5.186997  1.217178
  18065.191  18065.180  0.500  0.886155  12.395597  5.109933  1.207332
  18066.823  18066.790  0.500  0.902470  12.380005  5.020915  1.200466
  18068.470  18068.430  0.500  0.917742  12.367387  4.939778  1.198218
  18070.103  18070.080  0.500  0.929915  12.373752  4.882526  1.199185
  18071.736  18071.750  0.500  0.939824  12.372620  4.833942  1.197628
  18073.441  18073.440  0.500  0.947927  12.360823  4.790356  1.192083
  18075.146  18075.150  0.500  0.955939  12.356600  4.750508  1.185689
  18076.866  18076.880  0.500  0.963718  12.342355  4.708263  1.177513
  18078.630  18078.630  0.500  0.970781  12.338044  4.673493  1.170258
  18080.408  18080.390  0.500  0.976542  12.330093  4.643651  1.165807
  18082.201  18082.180  0.500  0.979372  12.312638  4.623974  1.163558
  18083.994  18083.980  0.500  0.979578  12.311126  4.622455  1.162110
  18085.845  18085.810  0.500  0.976929  12.299079  4.630179  1.161593
  18087.710  18087.650  0.500  0.972024  12.279865  4.645678  1.158884
  18089.533  18089.510  0.500  0.965279  12.258205  4.668870  1.156856
  18091.414  18091.390  0.500  0.957556  12.217606  4.689483  1.153790
  18093.353  18093.290  0.500  0.949581  12.243529  4.737058  1.159658
  18095.249  18095.210  0.500  0.941901  12.279026  4.787420  1.167182
  18097.174  18097.150  0.500  0.934819  12.271609  4.818533  1.173615
  18099.099  18099.110  0.500  0.928389  12.248483  4.840476  1.182685
  18101.068  18101.080  0.500  0.922659  12.251804  4.869613  1.196943
  18103.081  18103.080  0.500  0.917348  12.241342  4.891361  1.214566
  18105.108  18105.090  0.500  0.912133  12.232166  4.913253  1.232384
  18107.136  18107.120  0.500  0.907385  12.210090  4.927727  1.250280
  18109.164  18109.180  0.500  0.902675  12.184103  4.940451  1.264006
  18111.251  18111.250  0.500  0.898872  12.211334  4.970362  1.278057
  18113.366  18113.340  0.500  0.895750  12.199219  4.980958  1.282674
  18115.497  18115.450  0.500  0.892949  12.186011  4.989521  1.282026
  18117.642  18117.580  0.500  0.891254  12.178616  4.994951  1.279834
  18119.759  18119.720  0.500  0.889448  12.150944  4.992612  1.273772
  18121.935  18121.890  0.500  0.887552  12.067331  4.967664  1.262180
  18124.067  18124.080  0.500  0.884991  12.088950  4.989328  1.262082
  18126.301  18126.280  0.500  0.880964  12.146601  5.033346  1.269491
  18128.492  18128.500  0.500  0.877234  12.153807  5.055157  1.271909
  18130.756  18130.750  0.500  0.873439  12.141851  5.069381  1.272836
  18132.977  18133.010  0.500  0.871512  12.130141  5.074261  1.271870
  18135.300  18135.290  0.500  0.871647  12.099656  5.060829  1.268042
  18137.623  18137.590  0.500  0.873654  12.088313  5.045946  1.263723
  18139.947  18139.910  0.500  0.876984  12.088702  5.029335  1.261334
  18142.272  18142.250  0.500  0.880780  12.084023  5.008336  1.259982
  18144.611  18144.600  0.500  0.885046  12.113514  4.999188  1.264377
  18146.966  18146.980  0.500  0.888758  12.105281  4.977282  1.268053
  18149.379  18149.370  0.500  0.892655  12.086379  4.950180  1.271174
  18151.778  18151.790  0.500  0.895657  12.058988  4.924156  1.274886
  18154.236  18154.220  0.500  0.897838  12.077994  4.921176  1.283838
  18156.680  18156.670  0.500  0.898990  12.070629  4.912513  1.289567
  18159.182  18159.150  0.500  0.898467  12.054755  4.908617  1.293378
  18161.685  18161.640  0.500  0.897669  12.050791  4.910920  1.296440
  18164.160  18164.150  0.500  0.895839  12.036640  4.914136  1.297884
  18166.650  18166.670  0.500  0.894121  12.030954  4.920261  1.299176
  18169.257  18169.220  0.500  0.891957  12.021125  4.926890  1.298779
  18171.763  18171.790  0.500  0.889422  12.003073  4.931983  1.295787
  18174.356  18174.370  0.500  0.886482  11.993416  4.942523  1.292560
  18177.038  18176.980  0.500  0.883019  11.974478  4.951838  1.287561
  18179.604  18179.600  0.500  0.879914  11.979145  4.969172  1.284574
  18182.272  18182.250  0.500  0.877664  11.963047  4.973670  1.280542
  18184.970  18184.910  0.500  0.875405  11.943442  4.976751  1.276381
  18187.582  18187.590  0.500  0.873701  11.942933  4.985024  1.275614
  18190.282  18190.290  0.500  0.871697  11.930704  4.989914  1.276093
  18192.982  18193.010  0.500  0.868543  11.927555  5.004355  1.281754
  18195.756  18195.750  0.500  0.866801  11.914400  5.007549  1.288233
  18198.531  18198.500  0.500  0.865904  11.889887  5.001732  1.294364
  18201.292  18201.280  0.500  0.865490  11.887569  5.002827  1.302239
  18204.127  18204.070  0.500  0.865564  11.881876  5.000062  1.308269
  18206.890  18206.890  0.500  0.865857  11.872493  4.994649  1.313732
  18209.741  18209.720  0.500  0.866658  11.853834  4.982807  1.316126
  18212.578  18212.570  0.500  0.865427  11.824567  4.976625  1.319087
  18215.460  18215.450  0.500  0.864203  11.821561  4.981457  1.326943
  18218.343  18218.340  0.500  0.861911  11.814501  4.989902  1.333287
  18221.270  18221.250  0.500  0.860796  11.743316  4.965373  1.331479
  18224.228  18224.170  0.500  0.860194  11.785927  4.986389  1.338714
  18227.186  18227.120  0.500  0.860255  11.795141  4.989983  1.338963
  18230.116  18230.090  0.500  0.860439  11.764350  4.976042  1.331785
  18233.062  18233.070  0.500  0.860290  11.774424  4.981043  1.328182
  18236.082  18236.080  0.500  0.858531  11.754461  4.981356  1.321629
  18239.132  18239.100  0.500  0.857158  11.739678  4.981927  1.313529
  18242.154  18242.150  0.500  0.855601  11.722049  4.982196  1.306279
  18245.235  18245.210  0.500  0.855146  11.716833  4.982247  1.300097
