# XDI/1.0 BlueSky/1.10.0 BMM/2023-1.0-py310-tiled
# Beamline.name: BMM (06BM) -- Beamline for Materials Measurement (NIST)
# Beamline.xray_source: NSLS-II three-pole wiggler
# Beamline.collimation: paraboloid mirror, 5 nm Rh on 30 nm Pt
# Beamline.focusing: not in use
# Beamline.harmonic_rejection: flat mirror, Pt stripe, pitch = 7.0 mrad relative to beam
# Beamline.software: Bluesky 1.10.0, Ophyd 1.7.0, DataBroker 2.0.0b13, Python 3.10.8, 2023-1.0-py310-tiled
# Detector.I0: 10 cm N2
# Detector.I1: 25 cm N2
# Detector.I2: 25 cm N2
# Element.symbol: Zr
# Element.edge: K
# Element.reference: Zr
# Element.reference_material: Zr foil
# Facility.name: NSLS-II
# Facility.energy: 3.0
# Facility.current: 400.7
# Facility.mode: top-off
# Facility.GUP: 301027
# Facility.SAF: 310583
# Facility.cycle: 2023-2
# Mono.name: Si(111)
# Mono.d_spacing: 3.1351860
# Mono.encoder_resolution: 0.0000050 deg/ct
# Mono.angle_offset: 16.0754326 deg
# Mono.scan_mode: pseudo channel cut
# Mono.scan_type: step
# Mono.direction: forward in energy
# Sample.name: Li2ZrO3
# Sample.prep: powder in BN pellet
# Sample.x: 117.785 mm
# Sample.y: 114.695 mm
# Sample.SDD_position: 205.000 mm
# Scan.experimenters: Bruce Ravel
# Scan.edge_energy: 17997.6
# Scan.start_time: 2023-06-23T19:56:48
# Scan.end_time: 2023-06-23T20:04:44
# Scan.transient_id: 84989
# Scan.uid: ef646e9b-705e-44d3-a3f7-bd6585b6fa45
# Scan.plot_hint: ln(I0/It)  --  ln($5/$6)
# Column.1: energy eV
# Column.2: requested_energy eV
# Column.3: measurement_time seconds
# Column.4: xmu 
# Column.5: I0 nA
# Column.6: It nA
# Column.7: Ir nA
# ///////////
# BMM standards collection
# -----------
# energy  requested_energy  measurement_time  xmu  I0  It  Ir
  17797.442  17797.600  0.500  0.553422  13.467334  7.743433  5.831738
  17807.673  17807.600  0.500  0.551956  13.415239  7.724793  5.821530
  17817.665  17817.600  0.500  0.550364  13.362437  7.706647  5.807230
  17827.696  17827.600  0.500  0.548946  13.330081  7.698897  5.805433
  17837.683  17837.600  0.500  0.547842  13.291674  7.685197  5.795769
  17847.710  17847.600  0.500  0.546662  13.246747  7.668259  5.786579
  17857.733  17857.600  0.500  0.545890  13.214911  7.655738  5.778128
  17867.656  17867.600  0.500  0.544968  13.168515  7.635903  5.765869
  17877.702  17877.600  0.500  0.544300  13.121626  7.613796  5.747749
  17887.689  17887.600  0.500  0.543711  13.075412  7.591453  5.730570
  17897.716  17897.600  0.500  0.543734  13.059582  7.582087  5.723783
  17907.712  17907.600  0.500  0.544208  13.016177  7.553306  5.702090
  17917.719  17917.600  0.500  0.545116  12.971420  7.520502  5.676860
  17927.709  17927.600  0.500  0.547104  12.918321  7.474838  5.639964
  17937.682  17937.600  0.500  0.550028  12.883572  7.432964  5.604671
  17947.723  17947.600  0.500  0.554985  12.853161  7.378757  5.555537
  17957.704  17957.600  0.500  0.562780  12.812289  7.298177  5.483007
  17967.739  17967.600  0.500  0.575451  12.726779  7.158191  5.359369
  17969.467  17969.600  0.500  0.578706  12.695289  7.117276  5.325305
  17971.464  17971.600  0.500  0.583016  12.729941  7.106007  5.309882
  17973.476  17973.600  0.500  0.587563  12.741717  7.080319  5.284621
  17975.517  17975.600  0.500  0.592824  12.742551  7.043625  5.249502
  17977.502  17977.600  0.500  0.598167  12.730314  6.999365  5.206290
  17979.473  17979.600  0.500  0.604544  12.711357  6.944515  5.153566
  17981.501  17981.600  0.500  0.612204  12.706591  6.888940  5.099415
  17983.515  17983.600  0.500  0.621876  12.699606  6.818879  5.029772
  17985.473  17985.600  0.500  0.632764  12.697369  6.743847  4.954588
  17987.516  17987.600  0.500  0.646232  12.696396  6.653124  4.860492
  17987.786  17987.900  0.500  0.648178  12.680240  6.631737  4.839556
  17988.113  17988.200  0.500  0.650770  12.688479  6.618869  4.825248
  17988.397  17988.500  0.500  0.653077  12.686570  6.602621  4.809022
  17988.695  17988.800  0.500  0.655155  12.682774  6.586947  4.790911
  17988.993  17989.100  0.500  0.657725  12.675917  6.566485  4.772360
  17989.319  17989.400  0.500  0.660676  12.681586  6.550065  4.751374
  17989.617  17989.700  0.500  0.662910  12.682265  6.535798  4.737017
  17989.901  17990.000  0.500  0.666038  12.679532  6.513984  4.715378
  17990.185  17990.300  0.500  0.668546  12.674250  6.494957  4.692876
  17990.498  17990.600  0.500  0.671751  12.675020  6.474570  4.672360
  17990.796  17990.900  0.500  0.674704  12.674986  6.455463  4.651142
  17991.094  17991.200  0.500  0.677602  12.653052  6.425640  4.622092
  17991.406  17991.500  0.500  0.680975  12.671358  6.413271  4.603251
  17991.719  17991.800  0.500  0.685012  12.677657  6.390608  4.577356
  17992.003  17992.100  0.500  0.687988  12.671077  6.368306  4.551165
  17992.301  17992.400  0.500  0.692133  12.664683  6.338764  4.522239
  17992.642  17992.700  0.500  0.696240  12.659699  6.310304  4.488883
  17992.940  17993.000  0.500  0.700200  12.663503  6.287249  4.459794
  17993.224  17993.300  0.500  0.704271  12.663911  6.261909  4.430352
  17993.551  17993.600  0.500  0.709303  12.650409  6.223836  4.388216
  17993.863  17993.900  0.500  0.714439  12.652084  6.192775  4.351418
  17994.133  17994.200  0.500  0.718983  12.662790  6.169912  4.317879
  17994.445  17994.500  0.500  0.724397  12.659561  6.135036  4.273910
  17994.758  17994.800  0.500  0.730261  12.655554  6.097236  4.227857
  17995.056  17995.100  0.500  0.736033  12.657877  6.063255  4.181551
  17995.355  17995.400  0.500  0.742073  12.637467  6.017027  4.127422
  17995.667  17995.700  0.500  0.749105  12.649604  5.980602  4.071198
  17995.994  17996.000  0.500  0.756763  12.644973  5.932805  4.006736
  17996.278  17996.300  0.500  0.763754  12.653836  5.895601  3.949172
  17996.562  17996.600  0.500  0.771459  12.648381  5.847826  3.879856
  17996.889  17996.900  0.500  0.780780  12.647634  5.793234  3.799211
  17997.173  17997.200  0.500  0.789714  12.639063  5.737814  3.717936
  17997.457  17997.500  0.500  0.799312  12.643985  5.685218  3.634210
  17997.784  17997.800  0.500  0.811754  12.644094  5.614973  3.524335
  17998.097  17998.100  0.500  0.824538  12.646984  5.544913  3.418906
  17998.381  17998.400  0.500  0.835894  12.638745  5.478727  3.316960
  17998.679  17998.700  0.500  0.850789  12.632951  5.395253  3.195511
  17999.006  17999.000  0.500  0.867639  12.631092  5.304324  3.068689
  17999.276  17999.300  0.500  0.883506  12.631845  5.221138  2.956145
  17999.575  17999.600  0.500  0.904545  12.640505  5.115939  2.817566
  17999.901  17999.900  0.500  0.928291  12.631352  4.992271  2.675729
  18000.186  18000.200  0.500  0.950913  12.630369  4.880226  2.555372
  18000.456  18000.500  0.500  0.975493  12.626862  4.760406  2.437441
  18000.768  18000.800  0.500  1.006141  12.626289  4.616514  2.306469
  18001.081  18001.100  0.500  1.038976  12.620340  4.465290  2.183582
  18001.365  18001.400  0.500  1.070961  12.625024  4.326330  2.079495
  18001.650  18001.700  0.500  1.105880  12.617778  4.175470  1.975010
  18001.963  18002.000  0.500  1.147352  12.613201  4.004392  1.866030
  18002.261  18002.300  0.500  1.188268  12.617527  3.845173  1.770642
  18002.560  18002.600  0.500  1.228229  12.622081  3.695880  1.687514
  18002.844  18002.900  0.500  1.271266  12.613359  3.537750  1.603158
  18003.171  18003.200  0.500  1.316922  12.619176  3.381418  1.521998
  18003.470  18003.500  0.500  1.360869  12.617940  3.235717  1.447423
  18003.740  18003.800  0.500  1.404111  12.618925  3.099023  1.379257
  18004.081  18004.100  0.500  1.452115  12.621810  2.954445  1.304189
  18004.380  18004.400  0.500  1.498717  12.613274  2.818014  1.234325
  18004.678  18004.700  0.500  1.542665  12.609601  2.696065  1.171615
  18004.963  18005.000  0.500  1.585515  12.614876  2.584060  1.112856
  18005.261  18005.300  0.500  1.631654  12.616012  2.467766  1.050386
  18005.574  18005.600  0.500  1.677946  12.621256  2.357111  0.990329
  18005.873  18005.900  0.500  1.720076  12.620724  2.259772  0.937344
  18006.157  18006.200  0.500  1.765747  12.612270  2.157441  0.882222
  18006.484  18006.500  0.500  1.816481  12.613426  2.050903  0.823762
  18006.797  18006.800  0.500  1.867675  12.604701  1.947204  0.768181
  18007.082  18007.100  0.500  1.916118  12.615845  1.856764  0.719056
  18007.395  18007.400  0.500  1.965964  12.612556  1.766020  0.670145
  18007.722  18007.700  0.500  2.020705  12.608464  1.671403  0.620576
  18008.006  18008.000  0.500  2.075203  12.602690  1.582028  0.574754
  18008.277  18008.300  0.500  2.125511  12.612206  1.505543  0.535576
  18008.590  18008.600  0.500  2.187130  12.603663  1.414615  0.490413
  18008.903  18008.900  0.500  2.251548  12.599899  1.325966  0.447789
  18009.201  18009.200  0.500  2.309662  12.595891  1.250707  0.412580
  18009.500  18009.500  0.500  2.372916  12.595854  1.174042  0.377908
  18009.799  18009.800  0.500  2.440737  12.598312  1.097270  0.344338
  18010.098  18010.100  0.500  2.513103  12.599373  1.020756  0.311293
  18010.397  18010.400  0.500  2.588529  12.600073  0.946650  0.281399
  18010.695  18010.700  0.500  2.664293  12.582863  0.876379  0.253909
  18011.023  18011.000  0.500  2.752746  12.593707  0.802881  0.226366
  18011.307  18011.300  0.500  2.834546  12.590439  0.739627  0.203643
  18011.592  18011.600  0.500  2.918063  12.582393  0.679931  0.183315
  18011.877  18011.900  0.500  3.015814  12.580595  0.616524  0.162365
  18012.204  18012.200  0.500  3.118669  12.568629  0.555734  0.143130
  18012.474  18012.500  0.500  3.213924  12.569238  0.505265  0.127553
  18012.773  18012.800  0.500  3.316074  12.569563  0.456213  0.112932
  18013.072  18013.100  0.500  3.437525  12.567408  0.403969  0.098198
  18013.385  18013.400  0.500  3.556735  12.563912  0.358471  0.085438
  18013.670  18013.700  0.500  3.677919  12.563478  0.317548  0.074738
  18013.955  18014.000  0.500  3.801372  12.555954  0.280501  0.064995
  18014.268  18014.300  0.500  3.936957  12.554498  0.244907  0.055710
  18014.567  18014.600  0.500  4.068148  12.545746  0.214646  0.048406
  18014.866  18014.900  0.500  4.204264  12.544466  0.187311  0.041551
  18015.165  18015.200  0.500  4.340353  12.537845  0.163392  0.035940
  18015.478  18015.500  0.500  4.495503  12.534569  0.139874  0.030430
  18015.777  18015.800  0.500  4.627644  12.528908  0.122505  0.026487
  18016.062  18016.100  0.500  4.761144  12.522201  0.107138  0.022923
  18016.361  18016.400  0.500  4.899881  12.520382  0.093245  0.019671
  18016.688  18016.700  0.500  5.039810  12.519111  0.081061  0.016801
  18016.959  18017.000  0.500  5.159709  12.515146  0.071879  0.014945
  18017.258  18017.300  0.500  5.282949  12.508571  0.063511  0.012951
  18017.614  18017.600  0.500  5.418588  12.497805  0.055408  0.011290
  18017.770  18017.900  0.500  5.469578  12.509702  0.052703  0.010636
  18018.084  18018.200  0.500  5.583812  12.479941  0.046902  0.009217
  18018.625  18018.500  0.500  5.780951  12.484986  0.038526  0.007347
  18018.668  18018.800  0.500  5.788710  12.484891  0.038228  0.007435
  18018.924  18019.100  0.500  5.870511  12.488261  0.035235  0.006627
  18019.266  18019.400  0.500  5.958511  12.484057  0.032256  0.005961
  18019.565  18019.700  0.500  6.039817  12.474679  0.029715  0.005266
  18019.864  18020.000  0.500  6.114742  12.474582  0.027569  0.004950
  18020.163  18020.300  0.500  6.178270  12.477467  0.025878  0.004461
  18020.462  18020.600  0.500  6.237507  12.472559  0.024380  0.004127
  18020.776  18020.900  0.500  6.293095  12.471206  0.023060  0.003907
  18021.089  18021.200  0.500  6.339939  12.474147  0.022010  0.003503
  18021.417  18021.500  0.500  6.376865  12.465610  0.021197  0.003411
  18021.730  18021.800  0.500  6.408509  12.462386  0.020532  0.003326
  18022.001  18022.100  0.500  6.434146  12.460907  0.020009  0.003152
  18022.329  18022.400  0.500  6.456200  12.462945  0.019576  0.002986
  18022.514  18022.600  0.500  6.462947  12.461955  0.019443  0.003049
  18023.526  18023.590  0.500  6.485995  12.455648  0.018990  0.002762
  18024.552  18024.590  0.500  6.480296  12.447337  0.019086  0.002917
  18025.578  18025.610  0.500  6.421024  12.445147  0.020248  0.003131
  18026.647  18026.660  0.500  6.368052  12.441646  0.021344  0.003327
  18027.702  18027.720  0.500  6.289381  12.440612  0.023089  0.003834
  18028.800  18028.800  0.500  6.224706  12.421480  0.024593  0.004046
  18029.855  18029.900  0.500  6.153739  12.421345  0.026402  0.004353
  18031.039  18031.020  0.500  6.086178  12.420080  0.028244  0.004659
  18032.137  18032.160  0.500  6.014150  12.411372  0.030332  0.005212
  18033.321  18033.310  0.500  5.924754  12.410757  0.033167  0.005799
  18034.477  18034.490  0.500  5.820110  12.394816  0.036779  0.006607
  18035.690  18035.680  0.500  5.703149  12.394969  0.041343  0.007896
  18036.903  18036.900  0.500  5.582944  12.386056  0.046590  0.009342
  18038.159  18038.130  0.500  5.470075  12.389888  0.052173  0.010828
  18039.358  18039.380  0.500  5.377273  12.386930  0.057233  0.012109
  18040.642  18040.650  0.500  5.295052  12.367183  0.062038  0.013516
  18041.913  18041.940  0.500  5.233895  12.326643  0.065734  0.014344
  18043.227  18043.250  0.500  5.181649  12.301121  0.069117  0.015328
  18044.513  18044.580  0.500  5.136724  12.331300  0.072470  0.015962
  18045.955  18045.930  0.500  5.094985  12.350581  0.075677  0.016986
  18047.241  18047.300  0.500  5.052588  12.359304  0.079010  0.017813
  18048.656  18048.680  0.500  5.003482  12.349067  0.082918  0.018865
  18050.056  18050.090  0.500  4.955704  12.345042  0.086948  0.020056
  18051.514  18051.510  0.500  4.920554  12.345499  0.090061  0.020800
  18052.944  18052.950  0.500  4.904345  12.324595  0.091378  0.021077
  18054.417  18054.410  0.500  4.894475  12.318254  0.092237  0.021012
  18055.904  18055.890  0.500  4.890854  12.321695  0.092598  0.020832
  18057.377  18057.390  0.500  4.893558  12.315242  0.092299  0.020530
  18058.936  18058.910  0.500  4.903187  12.308540  0.091365  0.020090
  18060.496  18060.450  0.500  4.920772  12.302424  0.089728  0.019547
  18062.013  18062.010  0.500  4.945541  12.286403  0.087419  0.018883
  18063.630  18063.580  0.500  4.977313  12.293541  0.084734  0.018160
  18065.176  18065.180  0.500  5.019725  12.283153  0.081147  0.017516
  18066.823  18066.790  0.500  5.070553  12.278161  0.077094  0.016621
  18068.441  18068.430  0.500  5.136025  12.272224  0.072173  0.015662
  18070.060  18070.080  0.500  5.210903  12.276833  0.066992  0.014662
  18071.764  18071.750  0.500  5.295787  12.263003  0.061470  0.013484
  18073.412  18073.440  0.500  5.380983  12.258286  0.056429  0.012169
  18075.146  18075.150  0.500  5.448501  12.252276  0.052718  0.011276
  18076.866  18076.880  0.500  5.511487  12.242216  0.049460  0.010533
  18078.644  18078.630  0.500  5.558338  12.228127  0.047142  0.009997
  18080.393  18080.390  0.500  5.588008  12.209198  0.045693  0.009678
  18082.201  18082.180  0.500  5.606648  12.211207  0.044856  0.009695
  18084.022  18083.980  0.500  5.602905  12.193922  0.044961  0.009534
  18085.859  18085.810  0.500  5.575775  12.198021  0.046213  0.009762
  18087.667  18087.650  0.500  5.535878  12.187996  0.048054  0.010075
  18089.548  18089.510  0.500  5.491264  12.149588  0.050088  0.010679
  18091.428  18091.390  0.500  5.437865  12.106926  0.052650  0.011110
  18093.310  18093.290  0.500  5.393219  12.142160  0.055214  0.011736
  18095.205  18095.210  0.500  5.343989  12.174427  0.058155  0.012515
  18097.145  18097.150  0.500  5.307784  12.172844  0.060291  0.012876
  18099.113  18099.110  0.500  5.279988  12.156520  0.061907  0.013482
  18101.097  18101.080  0.500  5.246688  12.159293  0.064018  0.013955
  18103.081  18103.080  0.500  5.215578  12.142979  0.065952  0.014504
  18105.094  18105.090  0.500  5.183698  12.138243  0.068062  0.015112
  18107.107  18107.120  0.500  5.164672  12.096566  0.069131  0.015790
  18109.222  18109.180  0.500  5.146165  12.089868  0.070383  0.016154
  18111.308  18111.250  0.500  5.139064  12.105885  0.070979  0.016397
  18113.395  18113.340  0.500  5.132751  12.103866  0.071417  0.016525
  18115.468  18115.450  0.500  5.131481  12.083649  0.071388  0.016411
  18117.599  18117.580  0.500  5.126712  12.083678  0.071729  0.016491
  18119.730  18119.720  0.500  5.117528  12.052991  0.072207  0.016540
  18121.935  18121.890  0.500  5.111018  11.992608  0.072315  0.016583
  18124.081  18124.080  0.500  5.093535  12.012464  0.073712  0.016755
  18126.301  18126.280  0.500  5.078455  12.061902  0.075140  0.017148
  18128.478  18128.500  0.500  5.065819  12.039544  0.075954  0.017194
  18130.756  18130.750  0.500  5.058111  12.047581  0.076593  0.017388
  18132.992  18133.010  0.500  5.048273  12.035952  0.077276  0.017559
  18135.300  18135.290  0.500  5.048286  11.997586  0.077028  0.017498
  18137.609  18137.590  0.500  5.053460  12.002919  0.076665  0.017528
  18139.904  18139.910  0.500  5.066314  12.002305  0.075682  0.017071
  18142.257  18142.250  0.500  5.084735  11.995059  0.074256  0.016852
  18144.626  18144.600  0.500  5.109629  11.974915  0.072308  0.016619
  18147.009  18146.980  0.500  5.129782  11.968483  0.070828  0.016141
  18149.393  18149.370  0.500  5.152292  11.949341  0.069140  0.015817
  18151.807  18151.790  0.500  5.176274  11.920484  0.067339  0.015501
  18154.192  18154.220  0.500  5.200193  11.947913  0.065899  0.015246
  18156.651  18156.670  0.500  5.221298  11.943648  0.064499  0.015098
  18159.124  18159.150  0.500  5.234996  11.919399  0.063493  0.014917
  18161.671  18161.640  0.500  5.238651  11.928261  0.063308  0.014931
  18164.175  18164.150  0.500  5.228000  11.915195  0.063916  0.015011
  18166.665  18166.670  0.500  5.212420  11.899221  0.064833  0.015271
  18169.242  18169.220  0.500  5.188812  11.884627  0.066300  0.015461
  18171.821  18171.790  0.500  5.169485  11.885720  0.067600  0.015987
  18174.356  18174.370  0.500  5.139929  11.869418  0.069532  0.016292
  18176.965  18176.980  0.500  5.109630  11.863601  0.071636  0.016829
  18179.604  18179.600  0.500  5.085506  11.850144  0.073302  0.017117
  18182.229  18182.250  0.500  5.068355  11.827657  0.074429  0.017313
  18184.956  18184.910  0.500  5.055393  11.833564  0.075437  0.017539
  18187.626  18187.590  0.500  5.044487  11.811530  0.076123  0.017783
  18190.354  18190.290  0.500  5.037020  11.807563  0.076667  0.017858
  18192.997  18193.010  0.500  5.027915  11.796763  0.077298  0.017862
  18195.756  18195.750  0.500  5.028316  11.776371  0.077133  0.018100
  18198.487  18198.500  0.500  5.028137  11.771315  0.077114  0.018186
  18201.278  18201.280  0.500  5.033371  11.765174  0.076671  0.018148
  18204.069  18204.070  0.500  5.039892  11.758162  0.076128  0.018070
  18206.904  18206.890  0.500  5.047048  11.733609  0.075427  0.018028
  18209.770  18209.720  0.500  5.053819  11.738253  0.074948  0.017762
  18212.578  18212.570  0.500  5.064474  11.724775  0.074068  0.017837
  18215.445  18215.450  0.500  5.069022  11.712509  0.073655  0.017670
  18218.328  18218.340  0.500  5.069738  11.707454  0.073570  0.017787
  18221.241  18221.250  0.500  5.058280  11.644869  0.074020  0.017922
  18224.213  18224.170  0.500  5.045587  11.663541  0.075086  0.018350
  18227.142  18227.120  0.500  5.027141  11.667465  0.076510  0.018673
  18230.116  18230.090  0.500  5.018418  11.654379  0.077094  0.018681
  18233.091  18233.070  0.500  5.012182  11.634737  0.077445  0.018749
  18236.111  18236.080  0.500  5.004439  11.633464  0.078039  0.018755
  18239.088  18239.100  0.500  5.006747  11.623689  0.077793  0.018705
  18242.154  18242.150  0.500  5.008210  11.602605  0.077538  0.018434
  18245.249  18245.210  0.500  5.009261  11.590448  0.077376  0.018416
  18248.332  18248.290  0.500  5.012846  11.581946  0.077042  0.018198
  18251.444  18251.390  0.500  5.019300  11.568409  0.076457  0.018120
