# XDI/1.0 BlueSky/1.10.0 BMM/2023-1.0-py310-tiled
# Beamline.name: BMM (06BM) -- Beamline for Materials Measurement (NIST)
# Beamline.xray_source: NSLS-II three-pole wiggler
# Beamline.collimation: paraboloid mirror, 5 nm Rh on 30 nm Pt
# Beamline.focusing: not in use
# Beamline.harmonic_rejection: flat mirror, Si stripe, pitch = 7.0 mrad relative to beam
# Beamline.software: Bluesky 1.10.0, Ophyd 1.7.0, DataBroker 2.0.0b13, Python 3.10.8, 2023-1.0-py310-tiled
# Detector.I0: 10 cm N2
# Detector.I1: 25 cm N2
# Detector.I2: 25 cm N2
# Element.symbol: Dy
# Element.edge: L3
# Element.reference: Dy
# Element.reference_material: Dy2O3
# Facility.name: NSLS-II
# Facility.energy: 3.0
# Facility.current: 399.3
# Facility.mode: top-off
# Facility.GUP: 301027
# Facility.SAF: 310583
# Facility.cycle: 2023-2
# Mono.name: Si(111)
# Mono.d_spacing: 3.1351860
# Mono.encoder_resolution: 0.0000050 deg/ct
# Mono.angle_offset: 16.0754326 deg
# Mono.scan_mode: pseudo channel cut
# Mono.scan_type: step
# Mono.direction: forward in energy
# Sample.name: Dy2O3
# Sample.prep: PEG pellet
# Sample.x: 109.138 mm
# Sample.y: 153.150 mm
# Sample.SDD_position: 205.000 mm
# Scan.experimenters: Bruce Ravel
# Scan.edge_energy: 7790.1
# Scan.start_time: 2023-05-28T14:21:54
# Scan.end_time: 2023-05-28T14:30:24
# Scan.transient_id: 78756
# Scan.uid: 1ba70c9e-abdc-4bf8-bb65-0da13854fc00
# Scan.plot_hint: ln(It/Ir)  --  ln($6/$7)
# Column.1: energy eV
# Column.2: requested_energy eV
# Column.3: measurement_time seconds
# Column.4: xmu 
# Column.5: I0 nA
# Column.6: It nA
# Column.7: Ir nA
# ///////////
# sample courtesy Martin Stennett, University of Sheffield
# -----------
# energy  requested_energy  measurement_time  xmu  I0  It  Ir
  7590.105  7590.100  0.500  2.156867  144.521396  161.089858  18.635997
  7600.117  7600.100  0.500  2.149104  144.448312  161.346562  18.811160
  7610.116  7610.100  0.500  2.141236  143.787523  160.996750  18.918643
  7620.109  7620.100  0.500  2.133498  143.956741  161.542642  19.130261
  7630.121  7630.100  0.500  2.125921  144.208978  162.198884  19.354052
  7640.205  7640.100  0.500  2.118299  144.138735  162.494638  19.537695
  7650.108  7650.100  0.500  2.110599  144.034681  162.714351  19.715352
  7660.107  7660.100  0.500  2.103166  143.934257  162.960495  19.892475
  7670.121  7670.100  0.500  2.095670  143.804787  163.173292  20.068325
  7680.121  7680.100  0.500  2.088392  143.660281  163.360541  20.238110
  7690.131  7690.100  0.500  2.080949  143.609784  163.650910  20.425559
  7700.110  7700.100  0.500  2.073704  143.379322  163.744894  20.585876
  7710.113  7710.100  0.500  2.066649  143.385620  164.093911  20.775822
  7720.102  7720.100  0.500  2.059798  142.743952  163.688947  20.867029
  7730.111  7730.100  0.500  2.053357  143.055312  164.398111  21.092844
  7740.113  7740.100  0.500  2.047682  141.415535  162.879145  21.016901
  7750.117  7750.100  0.500  2.043074  142.767386  164.773854  21.359567
  7760.101  7760.100  0.500  2.041419  142.620851  164.896391  21.410862
  7762.098  7762.100  0.500  2.041690  142.584715  164.948832  21.411878
  7764.094  7764.100  0.500  2.042382  142.549483  164.974202  21.400350
  7766.093  7766.100  0.500  2.043438  142.514532  164.989438  21.379734
  7768.094  7768.100  0.500  2.044933  142.477118  165.013650  21.350928
  7770.088  7770.100  0.500  2.047389  142.450559  165.056979  21.304154
  7772.091  7772.100  0.500  2.050723  142.412567  165.079588  21.236153
  7774.092  7774.100  0.500  2.055597  142.369962  165.084557  21.133537
  7776.099  7776.100  0.500  2.062499  142.323749  165.085141  20.988233
  7778.093  7778.100  0.500  2.072487  142.296302  165.147400  20.787488
  7780.094  7780.100  0.500  2.087195  142.259068  165.179222  20.487940
  7780.376  7780.400  0.500  2.090069  142.255812  165.199550  20.431650
  7780.673  7780.700  0.500  2.093052  142.244521  165.172616  20.367463
  7780.978  7781.000  0.500  2.096411  142.236401  165.161960  20.297858
  7781.283  7781.300  0.500  2.100126  142.221304  165.147081  20.220784
  7781.578  7781.600  0.500  2.103960  142.230882  165.173662  20.146644
  7781.883  7781.900  0.500  2.108090  142.204264  165.174181  20.063665
  7782.183  7782.200  0.500  2.112554  142.207444  165.174799  19.974385
  7782.475  7782.500  0.500  2.117470  142.206607  165.188557  19.878086
  7782.782  7782.800  0.500  2.123113  142.179649  165.176234  19.764743
  7783.080  7783.100  0.500  2.129068  142.168261  165.165677  19.646139
  7783.377  7783.400  0.500  2.135814  142.164617  165.178147  19.515526
  7783.680  7783.700  0.500  2.143469  142.155061  165.172868  19.366081
  7783.985  7784.000  0.500  2.151596  142.146923  165.167311  19.208685
  7784.280  7784.300  0.500  2.160373  142.143222  165.158649  19.039842
  7784.582  7784.600  0.500  2.169911  142.127638  165.165047  18.859832
  7784.888  7784.900  0.500  2.180087  142.116558  165.172705  18.669746
  7785.190  7785.200  0.500  2.190867  142.121639  165.195874  18.472166
  7785.490  7785.500  0.500  2.201993  142.118698  165.200427  18.268289
  7785.793  7785.800  0.500  2.213026  142.117588  165.199836  18.067769
  7786.091  7786.100  0.500  2.224306  142.107406  165.208134  17.866006
  7786.391  7786.400  0.500  2.235614  142.099500  165.209129  17.665230
  7786.691  7786.700  0.500  2.247144  142.080660  165.154686  17.456967
  7786.991  7787.000  0.500  2.259303  142.063613  165.127282  17.243123
  7787.292  7787.300  0.500  2.272855  142.059024  165.129745  17.011276
  7787.592  7787.600  0.500  2.287680  142.040553  165.136911  16.761665
  7787.885  7787.900  0.500  2.304030  142.035470  165.132506  16.489403
  7788.185  7788.200  0.500  2.322890  142.028100  165.140517  16.182117
  7788.490  7788.500  0.500  2.344330  142.022133  165.145689  15.839356
  7788.788  7788.800  0.500  2.367994  142.000298  165.167875  15.471021
  7789.086  7789.100  0.500  2.394947  141.995257  165.126435  15.055822
  7789.397  7789.400  0.500  2.426406  141.990784  165.104682  14.587631
  7789.697  7789.700  0.500  2.460332  141.994121  165.120040  14.102346
  7789.998  7790.000  0.500  2.499743  141.983540  165.123732  13.557671
  7790.301  7790.300  0.500  2.545885  141.976707  165.166312  12.949638
  7790.599  7790.600  0.500  2.598610  141.965008  165.168900  12.284751
  7790.899  7790.900  0.500  2.658836  141.963829  165.182734  11.567692
  7791.200  7791.200  0.500  2.725363  141.959535  165.184923  10.823310
  7791.498  7791.500  0.500  2.800029  141.935498  165.175198  10.044028
  7791.793  7791.800  0.500  2.877871  141.937073  165.187159  9.292501
  7792.089  7792.100  0.500  2.959774  141.921247  165.186508  8.561717
  7792.390  7792.400  0.500  3.045528  141.919470  165.195586  7.858554
  7792.688  7792.700  0.500  3.129585  141.919268  165.206980  7.225485
  7792.994  7793.000  0.500  3.216807  141.898746  165.192557  6.621387
  7793.294  7793.300  0.500  3.297453  141.894517  165.194081  6.108417
  7793.600  7793.600  0.500  3.372431  141.881013  165.192622  5.667123
  7793.901  7793.900  0.500  3.438666  141.879007  165.192396  5.303914
  7794.205  7794.200  0.500  3.494180  141.863552  165.198550  5.017683
  7794.500  7794.500  0.500  3.539842  141.876154  165.214643  4.794182
  7794.804  7794.800  0.500  3.576646  141.870349  165.228162  4.621325
  7795.094  7795.100  0.500  3.605579  141.865207  165.237613  4.489790
  7795.395  7795.400  0.500  3.629435  141.848320  165.191645  4.382726
  7795.694  7795.700  0.500  3.648418  141.840819  165.187918  4.300220
  7795.992  7796.000  0.500  3.661733  141.838795  165.205278  4.243787
  7796.293  7796.300  0.500  3.668826  141.825514  165.222016  4.214217
  7796.596  7796.600  0.500  3.668792  141.826821  165.248765  4.215042
  7796.895  7796.900  0.500  3.660422  141.808794  165.238095  4.250198
  7797.204  7797.200  0.500  3.644191  141.800159  165.230422  4.319546
  7797.497  7797.500  0.500  3.620678  141.795940  165.212642  4.421839
  7797.801  7797.800  0.500  3.588909  141.785860  165.217844  4.564716
  7798.099  7798.100  0.500  3.550309  141.770625  165.188643  4.743518
  7798.395  7798.400  0.500  3.505847  141.771771  165.164239  4.958451
  7798.694  7798.700  0.500  3.456285  141.775383  165.199521  5.211507
  7799.000  7799.000  0.500  3.401975  141.761150  165.220844  5.503082
  7799.296  7799.300  0.500  3.346962  141.752776  165.210933  5.813954
  7799.598  7799.600  0.500  3.292089  141.743209  165.198692  6.141443
  7799.901  7799.900  0.500  3.238475  141.727550  165.189787  6.479346
  7800.203  7800.200  0.500  3.187488  141.714873  165.168690  6.817405
  7800.504  7800.500  0.500  3.138423  141.716100  165.180322  7.160749
  7800.803  7800.800  0.500  3.092213  141.704658  165.172689  7.499063
  7801.107  7801.100  0.500  3.048226  141.694758  165.203280  7.837743
  7801.400  7801.400  0.500  3.009286  141.683716  165.175928  8.147614
  7801.702  7801.700  0.500  2.973514  141.681954  165.166365  8.443861
  7802.001  7802.000  0.500  2.942119  141.675803  165.205082  8.715199
  7802.297  7802.300  0.500  2.914780  141.676763  165.244344  8.958882
  7802.596  7802.600  0.500  2.890920  141.650032  165.222870  9.174015
  7802.900  7802.900  0.500  2.869623  141.642439  165.231287  9.371965
  7803.207  7803.200  0.500  2.850474  141.647382  165.215653  9.552261
  7803.506  7803.500  0.500  2.833781  141.627675  165.171831  9.710478
  7803.802  7803.800  0.500  2.818983  141.625163  165.201075  9.856981
  7804.104  7804.100  0.500  2.805380  141.609785  165.217004  9.992947
  7804.400  7804.400  0.500  2.793457  141.603071  165.215246  10.112705
  7804.702  7804.700  0.500  2.782472  141.598735  165.190182  10.222849
  7804.996  7805.000  0.500  2.772832  141.590181  165.181532  10.321331
  7805.300  7805.300  0.500  2.763840  141.579469  165.209489  10.416325
  7805.589  7805.600  0.500  2.755901  141.579381  165.230252  10.500666
  7805.893  7805.900  0.500  2.748235  141.570830  165.234605  10.581754
  7806.192  7806.200  0.500  2.741501  141.553166  165.229593  10.652929
  7806.504  7806.500  0.500  2.734993  141.558206  165.223434  10.722083
  7806.799  7806.800  0.500  2.729671  141.540734  165.223150  10.779283
  7807.098  7807.100  0.500  2.724777  141.545209  165.185646  10.829707
  7807.400  7807.400  0.500  2.720710  141.538596  165.206258  10.875197
  7807.702  7807.700  0.500  2.717314  141.543478  165.239503  10.914388
  7807.993  7808.000  0.500  2.714708  141.535413  165.242695  10.943082
  7808.292  7808.300  0.500  2.712533  141.519371  165.234081  10.966331
  7808.597  7808.600  0.500  2.710885  141.506966  165.237833  10.984677
  7808.891  7808.900  0.500  2.709995  141.496956  165.197740  10.991790
  7809.188  7809.200  0.500  2.709507  141.493494  165.209302  10.997918
  7809.490  7809.500  0.500  2.709683  141.478315  165.269543  10.999994
  7809.795  7809.800  0.500  2.710497  141.468399  165.246184  10.989486
  7810.097  7810.100  0.500  2.711594  141.461768  165.263452  10.978584
  7810.402  7810.400  0.500  2.713176  141.450610  165.240822  10.959733
  7810.701  7810.700  0.500  2.714854  141.447693  165.233470  10.940876
  7810.998  7811.000  0.500  2.716996  141.429820  165.228148  10.917107
  7811.292  7811.300  0.500  2.719045  141.424248  165.193278  10.892467
  7811.589  7811.600  0.500  2.721271  141.423043  165.213873  10.869596
  7811.889  7811.900  0.500  2.723290  141.416664  165.231186  10.848811
  7812.191  7812.200  0.500  2.725048  141.427567  165.260794  10.831700
  7812.496  7812.500  0.500  2.726409  141.419155  165.273535  10.817799
  7812.856  7812.800  0.500  2.727491  141.402239  165.257925  10.805079
  7813.077  7813.100  0.500  2.728144  141.776895  165.677466  10.825443
  7813.375  7813.400  0.500  2.728519  141.804303  165.702194  10.822997
  7813.719  7813.700  0.500  2.728322  141.791845  165.759850  10.828900
  7814.052  7814.000  0.500  2.727767  141.795366  165.722579  10.832467
  7814.287  7814.300  0.500  2.726825  141.792035  165.719737  10.842497
  7814.592  7814.600  0.500  2.725552  141.766293  165.753246  10.858498
  7814.879  7814.900  0.500  2.723988  141.742597  165.690467  10.871372
  7815.074  7815.100  0.500  2.722648  141.692588  165.677644  10.885114
  7816.063  7816.090  0.500  2.714980  141.625650  165.611344  10.964509
  7817.104  7817.090  0.500  2.705967  141.600450  165.629811  11.065019
  7818.095  7818.110  0.500  2.699052  141.577072  165.612841  11.140651
  7819.140  7819.160  0.500  2.696273  141.548677  165.617721  11.171987
  7820.202  7820.220  0.500  2.699764  141.529317  165.674978  11.136903
  7821.286  7821.300  0.500  2.708823  141.505593  165.674700  11.036447
  7822.383  7822.400  0.500  2.722347  141.495503  165.685227  10.888885
  7823.512  7823.520  0.500  2.738884  141.476598  165.687743  10.710463
  7824.652  7824.660  0.500  2.756564  141.453532  165.699408  10.523503
  7825.802  7825.810  0.500  2.775940  141.433767  165.735464  10.323813
  7826.982  7826.990  0.500  2.796996  141.422675  165.746239  10.109359
  7828.173  7828.180  0.500  2.819636  141.383804  165.708485  9.880811
  7829.384  7829.400  0.500  2.840575  141.375450  165.729331  9.677284
  7830.625  7830.630  0.500  2.857435  141.339124  165.729168  9.515480
  7831.877  7831.880  0.500  2.866397  140.355806  164.638058  9.368497
  7833.145  7833.150  0.500  2.867161  141.097177  165.557527  9.413619
  7834.437  7834.440  0.500  2.860244  141.206452  165.731877  9.488939
  7835.743  7835.750  0.500  2.847494  141.208030  165.792129  9.614198
  7837.083  7837.080  0.500  2.831949  141.184469  165.782516  9.764255
  7838.429  7838.430  0.500  2.815003  141.149964  165.790132  9.931577
  7839.794  7839.800  0.500  2.799395  140.218733  164.723730  10.022923
  7841.180  7841.180  0.500  2.785605  140.990720  165.650295  10.219255
  7842.587  7842.590  0.500  2.774673  141.066578  165.780782  10.339727
  7844.009  7844.010  0.500  2.765326  141.051197  165.838612  10.440465
  7845.447  7845.450  0.500  2.757015  140.800203  165.618183  10.513608
  7846.916  7846.910  0.500  2.749019  140.312955  165.088069  10.564081
  7848.395  7848.390  0.500  2.742312  140.940856  165.869845  10.685543
  7849.884  7849.890  0.500  2.736338  140.939767  165.941650  10.754219
  7851.403  7851.410  0.500  2.731446  140.917354  165.924710  10.805857
  7852.957  7852.950  0.500  2.727057  140.894297  165.971546  10.856454
  7854.506  7854.510  0.500  2.723132  140.016869  164.960763  10.832769
  7856.079  7856.080  0.500  2.719335  140.666756  165.770835  10.927378
  7857.688  7857.680  0.500  2.716396  140.744799  165.937780  10.970577
  7859.297  7859.290  0.500  2.714382  140.733398  165.987737  10.996005
  7860.935  7860.930  0.500  2.713656  140.713291  166.011242  11.005545
  7862.586  7862.580  0.500  2.714398  140.681563  166.046214  10.999698
  7864.255  7864.250  0.500  2.716607  140.648134  166.045956  10.975409
  7865.943  7865.940  0.500  2.720599  140.635435  166.056317  10.932374
  7867.654  7867.650  0.500  2.725749  140.602669  166.034510  10.874787
  7869.386  7869.380  0.500  2.731616  140.574003  166.048399  10.812073
  7871.130  7871.130  0.500  2.737752  140.539737  166.085660  10.748340
  7872.896  7872.890  0.500  2.743581  140.493360  166.108159  10.687321
  7874.683  7874.680  0.500  2.748349  140.467859  166.119203  10.637198
  7876.485  7876.480  0.500  2.752100  140.429733  166.134578  10.598344
  7878.306  7878.310  0.500  2.754171  140.379955  166.134560  10.576423
  7880.147  7880.150  0.500  2.754919  140.353713  166.153745  10.569733
  7882.015  7882.010  0.500  2.754452  140.317842  166.161829  10.575189
  7883.889  7883.890  0.500  2.752988  140.286119  166.187429  10.592309
  7885.797  7885.790  0.500  2.751119  140.255182  166.222496  10.614368
  7887.707  7887.710  0.500  2.749300  140.215658  166.263887  10.636334
  7889.656  7889.650  0.500  2.747893  140.171406  166.286869  10.652786
  7891.614  7891.610  0.500  2.746205  140.140446  166.303317  10.671834
  7893.584  7893.580  0.500  2.744647  140.116556  166.353093  10.691678
  7895.578  7895.580  0.500  2.742533  140.081668  166.405206  10.717659
  7897.585  7897.590  0.500  2.740423  140.034396  166.405083  10.740294
  7899.627  7899.620  0.500  2.738695  138.972219  165.214684  10.681895
  7901.680  7901.680  0.500  2.737471  139.824611  166.288539  10.764503
  7903.764  7903.750  0.500  2.736552  139.824481  166.302710  10.775310
  7905.842  7905.840  0.500  2.735579  139.813482  166.377380  10.790642
  7907.960  7907.950  0.500  2.734336  139.773765  166.392489  10.805049
  7910.085  7910.080  0.500  2.731608  139.731420  166.433045  10.837201
  7912.230  7912.220  0.500  2.727336  139.688241  166.428745  10.883320
  7914.395  7914.390  0.500  2.721175  139.648652  166.453400  10.952197
  7916.594  7916.580  0.500  2.714060  139.594525  166.472956  11.031695
  7918.788  7918.780  0.500  2.706224  139.551257  166.490174  11.119637
  7921.002  7921.000  0.500  2.698469  139.504542  166.460193  11.204182
  7923.258  7923.250  0.500  2.691316  139.461861  166.474400  11.285580
  7925.515  7925.510  0.500  2.686339  139.411802  166.506348  11.344061
  7927.803  7927.790  0.500  2.684233  138.976881  166.069897  11.338177
  7930.095  7930.090  0.500  2.684851  139.181842  166.344469  11.349914
  7932.420  7932.410  0.500  2.687072  139.200906  166.442045  11.331367
  7934.758  7934.750  0.500  2.689181  139.126113  166.456273  11.308460
  7937.113  7937.100  0.500  2.690836  138.963891  166.350371  11.282587
  7939.489  7939.480  0.500  2.692212  133.685747  160.112974  10.844599
  7941.880  7941.870  0.500  2.693422  139.166302  166.750025  11.280484
  7944.302  7944.290  0.500  2.695616  139.063962  166.718141  11.253608
  7946.736  7946.720  0.500  2.698907  138.983125  166.705540  11.215788
  7949.177  7949.170  0.500  2.702816  138.885884  166.661286  11.169061
  7951.663  7951.650  0.500  2.706627  137.981290  165.607732  11.056238
  7954.147  7954.140  0.500  2.709107  138.755071  166.616649  11.096040
  7956.664  7956.650  0.500  2.708947  138.709348  166.661219  11.100784
  7959.184  7959.170  0.500  2.706444  138.639706  166.645738  11.127575
  7961.739  7961.720  0.500  2.701473  138.570550  166.648541  11.183212
  7964.300  7964.290  0.500  2.695021  138.503758  166.655549  11.256078
  7966.880  7966.870  0.500  2.688259  138.421310  166.621870  11.330155
  7969.494  7969.480  0.500  2.682615  138.337331  166.606127  11.393205
  7972.105  7972.100  0.500  2.678205  138.228207  166.568330  11.440970
  7974.766  7974.750  0.500  2.674608  138.073670  166.466858  11.475206
  7977.418  7977.410  0.500  2.672279  137.899279  166.317235  11.491616
  7980.102  7980.090  0.500  2.671028  137.298634  165.674467  11.461534
  7982.798  7982.790  0.500  2.670561  137.647276  166.211157  11.504037
  7985.530  7985.510  0.500  2.670481  137.601785  166.205458  11.504562
  7988.260  7988.250  0.500  2.670067  137.561384  166.252383  11.512571
  7991.012  7991.000  0.500  2.669869  137.496963  166.223830  11.512882
  7993.795  7993.780  0.500  2.669770  137.425925  166.224864  11.514094
  7996.575  7996.570  0.500  2.669478  137.353772  166.225818  11.517514
  7999.401  7999.390  0.500  2.668393  137.283028  166.228287  11.530198
  8002.234  8002.220  0.500  2.665908  137.242298  166.245633  11.560092
  8005.086  8005.070  0.500  2.662078  137.167348  166.230036  11.603359
  8007.970  8007.950  0.500  2.657133  137.194175  166.377288  11.671213
  8010.854  8010.840  0.500  2.652004  137.248039  166.501096  11.739956
  8013.772  8013.750  0.500  2.647633  137.234530  166.578494  11.796866
  8016.677  8016.670  0.500  2.643771  137.206711  166.658392  11.848187
  8019.635  8019.620  0.500  2.640737  137.150339  166.681377  11.885829
  8022.599  8022.590  0.500  2.638583  137.086451  166.702530  11.912977
  8025.582  8025.570  0.500  2.637416  137.008148  166.703989  11.926990
