# XDI/1.0 BlueSky/1.10.0 BMM/2023-1.0-py310-tiled
# Beamline.name: BMM (06BM) -- Beamline for Materials Measurement (NIST)
# Beamline.xray_source: NSLS-II three-pole wiggler
# Beamline.collimation: paraboloid mirror, 5 nm Rh on 30 nm Pt
# Beamline.focusing: not in use
# Beamline.harmonic_rejection: flat mirror, Pt stripe, pitch = 7.0 mrad relative to beam
# Beamline.software: Bluesky 1.10.0, Ophyd 1.7.0, DataBroker 2.0.0b13, Python 3.10.8, 2023-1.0-py310-tiled
# Detector.I0: 10 cm N2
# Detector.I1: 25 cm N2
# Detector.I2: 25 cm N2
# Element.symbol: Tm
# Element.edge: L1
# Element.reference: Tm
# Element.reference_material: Tm2O3
# Facility.name: NSLS-II
# Facility.energy: 3.0
# Facility.current: 399.1
# Facility.mode: top-off
# Facility.GUP: 301027
# Facility.SAF: 310583
# Facility.cycle: 2023-2
# Mono.name: Si(111)
# Mono.d_spacing: 3.1351860
# Mono.encoder_resolution: 0.0000050 deg/ct
# Mono.angle_offset: 16.0754326 deg
# Mono.scan_mode: pseudo channel cut
# Mono.scan_type: step
# Mono.direction: forward in energy
# Sample.name: Tm2O3
# Sample.prep: PEG pellet
# Sample.x: 109.138 mm
# Sample.y: 153.150 mm
# Sample.SDD_position: 205.000 mm
# Scan.experimenters: Bruce Ravel
# Scan.edge_energy: 10115.7
# Scan.start_time: 2023-05-28T17:28:36
# Scan.end_time: 2023-05-28T17:37:41
# Scan.transient_id: 78875
# Scan.uid: 960233a9-57fd-46de-89e4-ffed7eb1a5c7
# Scan.plot_hint: ln(It/Ir)  --  ln($6/$7)
# Column.1: energy eV
# Column.2: requested_energy eV
# Column.3: measurement_time seconds
# Column.4: xmu 
# Column.5: I0 nA
# Column.6: It nA
# Column.7: Ir nA
# ///////////
# sample courtesy Martin Stennett, University of Sheffield
# -----------
# energy  requested_energy  measurement_time  xmu  I0  It  Ir
  9915.538  9915.700  0.500  0.989053  98.846292  150.527011  55.985348
  9925.732  9925.700  0.500  0.986475  98.662730  150.361001  56.067912
  9935.764  9935.700  0.500  0.984380  98.556912  150.325174  56.172111
  9945.783  9945.700  0.500  0.982506  98.343762  150.111796  56.197601
  9955.753  9955.700  0.500  0.981278  97.609920  149.112845  55.892207
  9965.732  9965.700  0.500  0.977476  97.815130  149.536243  56.264427
  9975.739  9975.700  0.500  0.975873  97.823531  149.674122  56.406694
  9985.741  9985.700  0.500  0.976402  95.557045  146.294789  55.103984
  9995.750  9995.700  0.500  0.971211  97.340321  149.129719  56.464152
  10005.706  10005.700  0.500  0.969556  97.316960  149.203713  56.585704
  10015.730  10015.700  0.500  0.967848  94.938517  145.675120  55.341916
  10025.719  10025.700  0.500  0.965676  96.889350  148.751094  56.633370
  10035.736  10035.700  0.500  0.963031  95.811446  147.225853  56.201152
  10045.726  10045.700  0.500  0.961051  96.576218  148.505690  56.802053
  10055.736  10055.700  0.500  0.958664  96.402314  148.347398  56.877119
  10065.731  10065.700  0.500  0.956400  96.186364  148.108079  56.914067
  10075.746  10075.700  0.500  0.954330  96.027929  147.958013  56.974185
  10085.743  10085.700  0.500  0.953040  95.832857  147.773507  56.976583
  10087.702  10087.700  0.500  0.952906  95.651672  147.519582  56.886331
  10089.680  10089.700  0.500  0.952449  93.382695  144.049368  55.573520
  10091.689  10091.700  0.500  0.952338  95.448377  147.249218  56.814327
  10093.691  10093.700  0.500  0.951924  95.602814  147.495534  56.932939
  10095.693  10095.700  0.500  0.951713  95.594732  147.531143  56.958705
  10097.692  10097.700  0.500  0.951472  95.570839  147.499859  56.960340
  10099.718  10099.700  0.500  0.951241  95.546898  147.490166  56.969774
  10101.736  10101.700  0.500  0.951039  95.825122  147.936319  57.153609
  10104.108  10103.700  0.500  0.950860  95.820780  147.965026  57.174973
  10105.725  10105.700  0.500  0.950485  95.839434  147.987338  57.205003
  10106.194  10106.000  0.500  0.950775  95.798131  147.935025  57.168230
  10106.256  10106.300  0.500  0.950790  95.801820  147.946317  57.171727
  10106.556  10106.600  0.500  0.950923  95.771170  147.887264  57.141297
  10106.861  10106.900  0.500  0.950577  95.807640  147.953887  57.186857
  10107.162  10107.200  0.500  0.950808  95.769186  147.918794  57.160071
  10107.458  10107.500  0.500  0.950758  95.771400  147.909465  57.159322
  10107.763  10107.800  0.500  0.950710  95.773214  147.910894  57.162596
  10108.069  10108.100  0.500  0.950793  95.749419  147.884273  57.147561
  10108.378  10108.400  0.500  0.950853  95.747811  147.876840  57.141303
  10108.679  10108.700  0.500  0.950775  95.740863  147.854593  57.137124
  10108.980  10109.000  0.500  0.950817  95.738821  147.858676  57.136322
  10109.280  10109.300  0.500  0.950950  95.719923  147.828761  57.117179
  10109.581  10109.600  0.500  0.950864  95.718403  147.832798  57.123620
  10109.962  10109.900  0.500  0.950892  95.714378  147.822642  57.118110
  10110.156  10110.200  0.500  0.950953  95.696889  147.811144  57.110164
  10110.488  10110.500  0.500  0.950931  95.687606  147.808204  57.110279
  10110.780  10110.800  0.500  0.951182  95.661802  147.783282  57.086332
  10111.143  10111.100  0.500  0.951128  95.670553  147.804284  57.097541
  10111.435  10111.400  0.500  0.951208  95.654105  147.775207  57.081710
  10111.749  10111.700  0.500  0.951180  95.656687  147.782177  57.086017
  10111.957  10112.000  0.500  0.951306  95.592828  147.686927  57.042070
  10112.347  10112.300  0.500  0.951419  95.572726  147.645472  57.019580
  10112.670  10112.600  0.500  0.951482  95.524603  147.592590  56.995578
  10112.856  10112.900  0.500  0.951368  95.523721  147.579632  56.997089
  10113.152  10113.200  0.500  0.951738  95.506593  147.553505  56.965917
  10113.471  10113.500  0.500  0.951785  95.521885  147.574693  56.971388
  10113.763  10113.800  0.500  0.951971  95.502488  147.547134  56.950178
  10114.073  10114.100  0.500  0.952235  95.476655  147.520407  56.924807
  10114.379  10114.400  0.500  0.952348  95.489834  147.548166  56.929126
  10114.666  10114.700  0.500  0.952815  95.458875  147.494365  56.881769
  10114.972  10115.000  0.500  0.952883  95.480645  147.527024  56.890487
  10115.269  10115.300  0.500  0.953375  95.449087  147.492076  56.849020
  10115.579  10115.600  0.500  0.953716  95.448445  147.497559  56.831764
  10115.884  10115.900  0.500  0.954253  95.440138  147.489940  56.798348
  10116.168  10116.200  0.500  0.954528  95.440281  147.490702  56.782996
  10116.473  10116.500  0.500  0.955167  95.425525  147.463468  56.736233
  10116.770  10116.800  0.500  0.955696  95.428090  147.468540  56.708178
  10117.072  10117.100  0.500  0.956326  95.414080  147.454626  56.667149
  10117.382  10117.400  0.500  0.957161  95.404802  147.446126  56.616565
  10117.679  10117.700  0.500  0.957794  95.407881  147.456889  56.584888
  10117.971  10118.000  0.500  0.958617  95.394839  147.430146  56.528071
  10118.272  10118.300  0.500  0.959342  95.396966  147.420106  56.483283
  10118.569  10118.600  0.500  0.960354  95.368913  147.389334  56.414360
  10118.884  10118.900  0.500  0.961108  95.372359  147.421112  56.383978
  10119.185  10119.200  0.500  0.961941  95.372690  147.422083  56.337431
  10119.482  10119.500  0.500  0.962585  95.375996  147.427057  56.303056
  10119.788  10119.800  0.500  0.963458  95.354407  147.374233  56.233730
  10120.076  10120.100  0.500  0.964306  95.346944  147.378989  56.187880
  10120.395  10120.400  0.500  0.965087  95.336901  147.363499  56.138161
  10120.688  10120.700  0.500  0.965667  95.336055  147.357433  56.103268
  10120.994  10121.000  0.500  0.966388  95.335748  147.372889  56.068743
  10121.295  10121.300  0.500  0.967164  95.320365  147.356331  56.018923
  10121.588  10121.600  0.500  0.967835  95.320089  147.344574  55.976875
  10121.903  10121.900  0.500  0.968740  95.295637  147.308081  55.912395
  10122.200  10122.200  0.500  0.969284  95.299574  147.336642  55.892842
  10122.497  10122.500  0.500  0.970174  95.279423  147.307510  55.832064
  10122.799  10122.800  0.500  0.970705  95.293870  147.331302  55.811442
  10123.096  10123.100  0.500  0.971623  95.273079  147.291993  55.745368
  10123.402  10123.400  0.500  0.972571  95.255848  147.285636  55.690106
  10123.699  10123.700  0.500  0.973389  95.249491  147.281122  55.642872
  10123.992  10124.000  0.500  0.974186  95.237481  147.240974  55.583402
  10124.294  10124.300  0.500  0.974933  95.247385  147.268419  55.552263
  10124.586  10124.600  0.500  0.975746  95.247088  147.282859  55.512565
  10124.888  10124.900  0.500  0.976755  95.234242  147.264322  55.449560
  10125.194  10125.200  0.500  0.977704  95.218755  147.250139  55.391636
  10125.492  10125.500  0.500  0.978685  95.204997  147.229872  55.329719
  10125.793  10125.800  0.500  0.979776  95.196200  147.216161  55.264212
  10126.082  10126.100  0.500  0.980663  95.195293  147.212423  55.213843
  10126.379  10126.400  0.500  0.981756  95.179624  147.197990  55.148132
  10126.690  10126.700  0.500  0.982698  95.182659  147.202091  55.097733
  10126.987  10127.000  0.500  0.983790  95.172700  147.194196  55.034646
  10127.289  10127.300  0.500  0.985114  95.167157  147.185183  54.958453
  10127.596  10127.600  0.500  0.986262  95.158878  147.172409  54.890638
  10127.893  10127.900  0.500  0.987654  95.153123  147.167296  54.812402
  10128.204  10128.200  0.500  0.989124  95.147346  147.167358  54.731895
  10128.497  10128.500  0.500  0.990481  95.132995  147.145934  54.649701
  10128.803  10128.800  0.500  0.991928  95.127087  147.136552  54.567210
  10129.105  10129.100  0.500  0.993309  95.135392  147.153535  54.498168
  10129.398  10129.400  0.500  0.994980  95.095584  147.071137  54.376718
  10129.705  10129.700  0.500  0.996338  95.102024  147.089220  54.309614
  10130.002  10130.000  0.500  0.997610  95.109499  147.107381  54.247302
  10130.305  10130.300  0.500  0.998916  95.086398  147.087351  54.169087
  10130.607  10130.600  0.500  0.999974  95.086885  147.088186  54.112123
  10130.900  10130.900  0.500  1.000757  95.103527  147.099801  54.074057
  10131.202  10131.200  0.500  1.001736  95.054931  147.027887  53.994705
  10131.500  10131.500  0.500  1.002173  95.071064  147.047384  53.978269
  10131.797  10131.800  0.500  1.002697  95.340956  147.473865  54.106478
  10132.095  10132.100  0.500  1.003033  95.350288  147.496852  54.096716
  10132.402  10132.400  0.500  1.003163  95.350777  147.525141  54.100094
  10132.699  10132.700  0.500  1.003096  95.356265  147.531440  54.105995
  10133.011  10133.000  0.500  1.002861  95.357255  147.530038  54.118235
  10133.291  10133.300  0.500  1.002649  95.353596  147.536770  54.132167
  10133.597  10133.600  0.500  1.002333  95.350337  147.525176  54.145033
  10133.891  10133.900  0.500  1.001940  95.336003  147.496879  54.155898
  10134.193  10134.200  0.500  1.001580  95.327185  147.476362  54.167855
  10134.504  10134.500  0.500  1.001127  95.324496  147.478616  54.193238
  10134.789  10134.800  0.500  1.000809  95.306131  147.462871  54.204706
  10135.091  10135.100  0.500  1.000337  95.292471  147.452626  54.226533
  10135.393  10135.400  0.500  1.000103  95.258020  147.406800  54.222343
  10135.682  10135.700  0.500  0.999816  95.245177  147.386704  54.230504
  10135.994  10136.000  0.500  0.999329  95.260894  147.416680  54.267992
  10136.287  10136.300  0.500  0.999373  95.242157  147.376223  54.250713
  10136.598  10136.600  0.500  0.999574  95.228484  147.354092  54.231648
  10136.901  10136.900  0.500  0.999590  95.226437  147.351824  54.229957
  10137.199  10137.200  0.500  0.999646  95.239660  147.387515  54.240011
  10137.501  10137.500  0.500  0.999615  95.247189  147.390310  54.242757
  10137.808  10137.800  0.500  0.999617  95.242915  147.389699  54.242394
  10138.102  10138.100  0.500  0.999739  95.236024  147.390198  54.235954
  10138.405  10138.400  0.500  0.999934  95.237345  147.400993  54.229391
  10138.703  10138.700  0.500  0.999904  95.232302  147.405825  54.232801
  10139.001  10139.000  0.500  1.000114  95.216377  147.378315  54.211280
  10139.299  10139.300  0.500  1.000211  95.206952  147.366967  54.201841
  10139.602  10139.600  0.500  1.000310  95.199261  147.350476  54.190435
  10139.904  10139.900  0.500  1.000130  95.213417  147.358637  54.203165
  10140.202  10140.200  0.500  1.000219  95.190953  147.330319  54.187940
  10140.501  10140.500  0.500  1.000271  95.174666  147.305158  54.175841
  10140.705  10140.700  0.500  1.000314  95.169812  147.319220  54.178692
  10141.712  10141.690  0.500  0.999902  95.147128  147.297159  54.192904
  10142.696  10142.690  0.500  0.999274  95.134661  147.294210  54.225870
  10143.720  10143.710  0.500  0.998386  95.103231  147.253961  54.259184
  10144.780  10144.760  0.500  0.996921  95.085206  147.230768  54.330210
  10145.827  10145.820  0.500  0.995273  95.075606  147.215132  54.414003
  10146.919  10146.900  0.500  0.993394  95.036868  147.161812  54.496645
  10148.015  10148.000  0.500  0.991532  95.014486  147.142985  54.591211
  10149.135  10149.120  0.500  0.989603  94.995708  147.136559  54.694248
  10150.281  10150.260  0.500  0.987784  94.982469  147.124892  54.789439
  10151.405  10151.410  0.500  0.985967  94.957073  147.102965  54.880914
  10152.591  10152.590  0.500  0.984443  94.926921  147.075886  54.954527
  10153.783  10153.780  0.500  0.983129  94.902665  147.045048  55.015242
  10155.015  10155.000  0.500  0.981887  94.876953  147.011427  55.070983
  10156.261  10156.230  0.500  0.980947  94.854716  146.988861  55.114354
  10157.502  10157.480  0.500  0.980375  94.834368  146.976605  55.141287
  10158.771  10158.750  0.500  0.980088  94.801499  146.930522  55.139827
  10160.040  10160.040  0.500  0.979880  94.785696  146.914443  55.145263
  10161.349  10161.350  0.500  0.979814  94.751539  146.879090  55.135634
  10162.690  10162.680  0.500  0.979774  94.716689  146.840254  55.123260
  10164.036  10164.030  0.500  0.979725  94.699527  146.832032  55.122830
  10165.409  10165.400  0.500  0.979965  94.664361  146.798004  55.096833
  10166.774  10166.780  0.500  0.980042  94.599018  146.706212  55.058182
  10168.188  10168.190  0.500  0.980227  94.600611  146.717037  55.052023
  10169.621  10169.610  0.500  0.980384  94.593230  146.716638  55.043259
  10171.072  10171.050  0.500  0.980604  94.580094  146.697588  55.023996
  10172.518  10172.510  0.500  0.981035  94.529507  146.646933  54.981305
  10173.997  10173.990  0.500  0.981537  94.506950  146.622466  54.944508
  10175.507  10175.490  0.500  0.982125  94.479705  146.578596  54.895816
  10177.032  10177.010  0.500  0.982621  94.449297  146.561221  54.862097
  10178.561  10178.550  0.500  0.983010  94.423156  146.538660  54.832266
  10180.122  10180.110  0.500  0.983477  94.404502  146.516409  54.798383
  10181.684  10181.680  0.500  0.984126  94.367832  146.464418  54.743366
  10183.282  10183.280  0.500  0.984857  94.319766  146.413012  54.684187
  10184.907  10184.890  0.500  0.985155  94.308053  146.432701  54.675251
  10186.538  10186.530  0.500  0.985486  94.271842  146.394504  54.642860
  10188.196  10188.180  0.500  0.985605  94.233522  146.337932  54.615290
  10189.850  10189.850  0.500  0.985338  94.200041  146.300950  54.616035
  10191.554  10191.540  0.500  0.984719  94.172168  146.271145  54.638751
  10193.259  10193.250  0.500  0.984065  94.086589  146.152525  54.630137
  10194.982  10194.980  0.500  0.982911  93.839317  145.782877  54.554901
  10196.728  10196.730  0.500  0.981845  94.039957  146.118286  54.738704
  10198.511  10198.490  0.500  0.980421  94.047851  146.138494  54.824293
  10200.299  10200.280  0.500  0.978966  94.014011  146.105719  54.891836
  10202.083  10202.080  0.500  0.977728  93.966645  146.052223  54.939710
  10203.918  10203.910  0.500  0.976576  93.933320  146.019169  54.990593
  10205.771  10205.750  0.500  0.975926  93.878482  145.968207  55.007144
  10207.620  10207.610  0.500  0.975260  93.847489  145.948984  55.036535
  10209.480  10209.490  0.500  0.974628  93.822890  145.928511  55.063609
  10211.389  10211.390  0.500  0.974365  93.777840  145.876644  55.058526
  10213.326  10213.310  0.500  0.974041  93.749787  145.842482  55.063428
  10215.260  10215.250  0.500  0.973674  93.723257  145.799279  55.067322
  10217.212  10217.210  0.500  0.973541  93.677787  145.746242  55.054640
  10219.179  10219.180  0.500  0.973182  93.636256  145.703556  55.058293
  10221.187  10221.180  0.500  0.972603  93.603715  145.688836  55.084571
  10223.191  10223.190  0.500  0.972025  93.558446  145.646270  55.100353
  10225.237  10225.220  0.500  0.971149  93.525469  145.605838  55.133314
  10227.302  10227.280  0.500  0.970757  93.439240  145.512222  55.119485
  10229.372  10229.350  0.500  0.969953  93.430841  145.498260  55.158496
  10231.443  10231.440  0.500  0.969368  93.394710  145.452977  55.173640
  10233.552  10233.550  0.500  0.968730  93.352080  145.402007  55.189469
  10235.702  10235.680  0.500  0.968176  93.303118  145.346020  55.198778
  10237.835  10237.820  0.500  0.967569  93.232281  145.271755  55.204109
  10239.986  10239.990  0.500  0.967153  92.916196  144.798058  55.047004
  10242.203  10242.180  0.500  0.966708  93.209418  145.287931  55.257776
  10244.406  10244.380  0.500  0.966712  93.141544  145.202744  55.225168
  10246.593  10246.600  0.500  0.966713  93.100867  145.158556  55.208293
  10248.876  10248.850  0.500  0.966511  93.061630  145.113926  55.202486
  10251.119  10251.110  0.500  0.966653  93.011994  145.068932  55.177537
  10253.390  10253.390  0.500  0.966918  92.969617  145.032449  55.149057
  10255.703  10255.690  0.500  0.967128  92.927103  144.954827  55.107961
  10258.027  10258.010  0.500  0.967135  92.885127  144.906870  55.089349
  10260.361  10260.350  0.500  0.966923  92.840755  144.864365  55.084869
  10262.718  10262.700  0.500  0.966360  92.790846  144.809746  55.095099
  10265.095  10265.080  0.500  0.965785  92.740749  144.766802  55.110432
  10267.473  10267.470  0.500  0.965258  92.694035  144.725424  55.123730
  10269.912  10269.890  0.500  0.964702  92.636549  144.663808  55.130921
  10272.334  10272.320  0.500  0.964255  92.585948  144.602578  55.132221
  10274.775  10274.770  0.500  0.963620  92.529441  144.549686  55.147055
  10277.262  10277.250  0.500  0.962675  92.210413  144.067336  55.015015
  10279.747  10279.740  0.500  0.962120  92.456375  144.466005  55.197885
  10282.251  10282.250  0.500  0.960992  92.413440  144.416013  55.241010
  10284.784  10284.770  0.500  0.959950  92.362337  144.364325  55.278843
  10287.327  10287.320  0.500  0.958982  92.299863  144.291298  55.304398
  10289.899  10289.890  0.500  0.957794  92.260803  144.253294  55.355547
  10292.486  10292.470  0.500  0.957088  92.195474  144.191175  55.370808
  10295.075  10295.080  0.500  0.956179  92.148587  144.128619  55.397097
  10297.706  10297.700  0.500  0.955927  92.090569  144.064316  55.386318
  10300.366  10300.350  0.500  0.955536  92.046633  144.009052  55.386749
  10303.018  10303.010  0.500  0.955129  92.003397  143.960615  55.390658
  10305.709  10305.690  0.500  0.954928  91.942327  143.896376  55.377073
  10308.391  10308.390  0.500  0.954454  91.885781  143.830113  55.377801
  10311.117  10311.110  0.500  0.953976  91.836361  143.781274  55.385483
  10313.848  10313.850  0.500  0.953367  91.790046  143.738594  55.402770
  10316.609  10316.600  0.500  0.952677  91.733696  143.675247  55.416589
  10319.385  10319.380  0.500  0.952091  91.679471  143.629329  55.431331
  10322.172  10322.170  0.500  0.951498  91.520038  143.398369  55.375016
  10324.998  10324.990  0.500  0.950764  91.590289  143.526409  55.465186
  10327.824  10327.820  0.500  0.950198  91.521504  143.459282  55.470604
  10330.685  10330.670  0.500  0.949556  91.456012  143.383876  55.477044
  10333.562  10333.550  0.500  0.948778  91.392800  143.320340  55.495618
  10336.449  10336.440  0.500  0.948056  91.343636  143.260015  55.512353
  10339.370  10339.350  0.500  0.947534  91.278684  143.186506  55.512841
