# XDI/1.0 BlueSky/1.10.0 BMM/2023-1.0-py310-tiled
# Beamline.name: BMM (06BM) -- Beamline for Materials Measurement (NIST)
# Beamline.xray_source: NSLS-II three-pole wiggler
# Beamline.collimation: paraboloid mirror, 5 nm Rh on 30 nm Pt
# Beamline.focusing: not in use
# Beamline.harmonic_rejection: flat mirror, Pt stripe, pitch = 7.0 mrad relative to beam
# Beamline.software: Bluesky 1.10.0, Ophyd 1.7.0, DataBroker 2.0.0b13, Python 3.10.8, 2023-1.0-py310-tiled
# Detector.I0: 10 cm N2
# Detector.I1: 25 cm N2
# Detector.I2: 25 cm N2
# Element.symbol: Lu
# Element.edge: L1
# Element.reference: Lu
# Element.reference_material: Lu2O3
# Facility.name: NSLS-II
# Facility.energy: 3.0
# Facility.current: 400.1
# Facility.mode: top-off
# Facility.GUP: 301027
# Facility.SAF: 310583
# Facility.cycle: 2023-2
# Mono.name: Si(111)
# Mono.d_spacing: 3.1351860
# Mono.encoder_resolution: 0.0000050 deg/ct
# Mono.angle_offset: 16.0754326 deg
# Mono.scan_mode: pseudo channel cut
# Mono.scan_type: step
# Mono.direction: forward in energy
# Sample.name: Lu2O3
# Sample.prep: PEG pellet
# Sample.x: 109.138 mm
# Sample.y: 153.150 mm
# Sample.SDD_position: 205.000 mm
# Scan.experimenters: Bruce Ravel
# Scan.edge_energy: 10870.4
# Scan.start_time: 2023-05-28T18:25:21
# Scan.end_time: 2023-05-28T18:33:05
# Scan.transient_id: 78910
# Scan.uid: d0d62fac-d52a-40db-b25b-639b955d80d8
# Scan.plot_hint: ln(It/Ir)  --  ln($6/$7)
# Column.1: energy eV
# Column.2: requested_energy eV
# Column.3: measurement_time seconds
# Column.4: xmu 
# Column.5: I0 nA
# Column.6: It nA
# Column.7: Ir nA
# ///////////
# sample courtesy Martin Stennett, University of Sheffield
# -----------
# energy  requested_energy  measurement_time  xmu  I0  It  Ir
  10670.415  10670.400  0.500  1.909557  84.567875  135.337146  20.049648
  10680.479  10680.400  0.500  1.906914  84.383673  135.124642  20.071148
  10690.487  10690.400  0.500  1.902687  84.238019  134.964265  20.132261
  10700.485  10700.400  0.500  1.898432  84.061968  134.745146  20.185266
  10710.442  10710.400  0.500  1.895193  83.866421  134.504718  20.214624
  10720.463  10720.400  0.500  1.892323  83.695051  134.315971  20.244271
  10730.393  10730.400  0.500  1.888271  83.479471  134.052356  20.286569
  10740.381  10740.400  0.500  1.885215  83.260732  133.765013  20.305059
  10750.404  10750.400  0.500  1.882590  83.103778  133.598376  20.333056
  10760.411  10760.400  0.500  1.879552  82.937503  133.381047  20.361742
  10770.406  10770.400  0.500  1.875833  82.758123  133.160118  20.403764
  10780.415  10780.400  0.500  1.871798  82.577555  132.948699  20.453725
  10790.423  10790.400  0.500  1.867606  82.392096  132.730282  20.505909
  10800.430  10800.400  0.500  1.863466  82.060627  132.271407  20.519797
  10810.440  10810.400  0.500  1.859309  82.072898  132.344899  20.616716
  10820.434  10820.400  0.500  1.856766  81.881227  132.116643  20.633558
  10830.467  10830.400  0.500  1.855468  81.397858  131.406236  20.549263
  10840.422  10840.400  0.500  1.853676  81.524605  131.675155  20.628264
  10842.380  10842.400  0.500  1.853151  81.492882  131.649478  20.635077
  10844.375  10844.400  0.500  1.852820  81.429915  131.567303  20.629020
  10846.376  10846.400  0.500  1.852394  81.374488  131.487135  20.625223
  10848.368  10848.400  0.500  1.851801  81.104712  131.055469  20.569721
  10850.375  10850.400  0.500  1.851687  81.324928  131.421774  20.629554
  10852.368  10852.400  0.500  1.851295  81.272897  131.358250  20.627662
  10854.372  10854.400  0.500  1.851156  81.015334  130.948301  20.566159
  10856.366  10856.400  0.500  1.850946  81.189519  131.257685  20.619062
  10858.366  10858.400  0.500  1.850851  81.176898  131.256869  20.620901
  10860.372  10860.400  0.500  1.851193  80.939709  130.873276  20.553616
  10860.654  10860.700  0.500  1.851194  80.864439  130.743032  20.533123
  10860.961  10861.000  0.500  1.851214  80.806460  130.653198  20.518620
  10861.253  10861.300  0.500  1.851095  80.813391  130.664512  20.522841
  10861.555  10861.600  0.500  1.851003  80.875209  130.763886  20.540321
  10861.857  10861.900  0.500  1.851109  80.963716  130.910321  20.561143
  10862.164  10862.200  0.500  1.851346  81.004438  130.989457  20.568703
  10862.451  10862.500  0.500  1.851419  81.064350  131.081995  20.581734
  10862.778  10862.800  0.500  1.851596  81.070945  131.094458  20.580041
  10863.065  10863.100  0.500  1.851707  81.068076  131.097912  20.578299
  10863.362  10863.400  0.500  1.851781  81.060357  131.088909  20.575372
  10863.659  10863.700  0.500  1.851905  81.058005  131.089132  20.572854
  10863.962  10864.000  0.500  1.852157  81.047367  131.073781  20.565266
  10864.264  10864.300  0.500  1.852192  81.037707  131.051282  20.561010
  10864.571  10864.600  0.500  1.852292  81.041638  131.062941  20.560788
  10864.873  10864.900  0.500  1.852646  81.024911  131.038283  20.549634
  10865.170  10865.200  0.500  1.852748  81.011604  131.026527  20.545702
  10865.468  10865.500  0.500  1.852862  81.014119  131.029075  20.543758
  10865.765  10865.800  0.500  1.853228  80.992636  130.993228  20.530622
  10866.062  10866.100  0.500  1.853473  80.990700  130.993397  20.525613
  10866.380  10866.400  0.500  1.853730  80.972405  130.969188  20.516555
  10866.677  10866.700  0.500  1.854011  80.969197  130.970631  20.511023
  10866.969  10867.000  0.500  1.854282  80.968221  130.959427  20.503700
  10867.276  10867.300  0.500  1.854561  80.927071  130.884567  20.486269
  10867.569  10867.600  0.500  1.855159  80.865590  130.800340  20.460847
  10867.871  10867.900  0.500  1.855610  80.766306  130.638582  20.426321
  10868.179  10868.200  0.500  1.856073  80.665999  130.486021  20.393020
  10868.476  10868.500  0.500  1.856480  80.614245  130.398505  20.371049
  10868.778  10868.800  0.500  1.856914  80.872673  130.814384  20.427161
  10869.081  10869.100  0.500  1.857565  80.954362  130.955451  20.435888
  10869.378  10869.400  0.500  1.858385  81.044815  131.098385  20.441415
  10869.681  10869.700  0.500  1.859187  81.106026  131.197466  20.440462
  10869.988  10870.000  0.500  1.860062  81.155691  131.285963  20.436365
  10870.296  10870.300  0.500  1.860989  81.162035  131.305152  20.420404
  10870.588  10870.600  0.500  1.862252  81.164371  131.299386  20.393752
  10870.896  10870.900  0.500  1.863471  81.159026  131.293397  20.367961
  10871.194  10871.200  0.500  1.864766  81.147690  131.293433  20.341623
  10871.491  10871.500  0.500  1.866317  81.143482  131.287379  20.309143
  10871.804  10871.800  0.500  1.868135  81.138525  131.278226  20.270852
  10872.101  10872.100  0.500  1.870180  81.132203  131.274385  20.228851
  10872.389  10872.400  0.500  1.872217  81.121009  131.249352  20.183839
  10872.696  10872.700  0.500  1.874731  81.111052  131.225262  20.129466
  10872.994  10873.000  0.500  1.877451  81.099633  131.208950  20.072280
  10873.292  10873.300  0.500  1.880302  81.089309  131.203458  20.014314
  10873.605  10873.600  0.500  1.883160  81.083507  131.186436  19.954601
  10873.902  10873.900  0.500  1.886087  81.075876  131.184455  19.895978
  10874.200  10874.200  0.500  1.888809  81.083790  131.197978  19.843935
  10874.498  10874.500  0.500  1.891718  81.062530  131.169708  19.782036
  10874.795  10874.800  0.500  1.894197  81.051562  131.147942  19.729769
  10875.088  10875.100  0.500  1.896770  81.022001  131.114590  19.674076
  10875.401  10875.400  0.500  1.899264  80.992760  131.062113  19.617203
  10875.699  10875.700  0.500  1.901511  80.952362  131.007436  19.565008
  10875.976  10876.000  0.500  1.903799  80.909591  130.936441  19.509723
  10876.289  10876.300  0.500  1.906155  80.901511  130.915754  19.460744
  10876.587  10876.600  0.500  1.908655  80.877722  130.882692  19.407245
  10876.884  10876.900  0.500  1.910961  80.858302  130.853481  19.358213
  10877.187  10877.200  0.500  1.913613  80.880250  130.903356  19.314311
  10877.490  10877.500  0.500  1.916337  80.888477  130.919782  19.264183
  10877.778  10877.800  0.500  1.919002  80.915343  130.954731  19.218041
  10878.081  10878.100  0.500  1.921819  80.943758  130.995819  19.169998
  10878.384  10878.400  0.500  1.924608  80.938027  130.984060  19.114883
  10878.687  10878.700  0.500  1.927471  80.933571  130.979708  19.059608
  10879.000  10879.000  0.500  1.930273  80.933750  130.981068  19.006481
  10879.303  10879.300  0.500  1.933149  80.933428  130.988988  18.953044
  10879.591  10879.600  0.500  1.935897  80.930572  130.985138  18.900475
  10879.894  10879.900  0.500  1.938890  80.920284  130.965692  18.841198
  10880.202  10880.200  0.500  1.941740  80.907414  130.955115  18.786042
  10880.495  10880.500  0.500  1.944668  80.904926  130.941990  18.729253
  10880.809  10880.800  0.500  1.947514  80.908564  130.955278  18.677919
  10881.117  10881.100  0.500  1.950831  80.894413  130.934794  18.613151
  10881.394  10881.400  0.500  1.953719  80.891253  130.937914  18.559916
  10881.708  10881.700  0.500  1.957286  80.868343  130.906018  18.489334
  10882.011  10882.000  0.500  1.960823  80.875471  130.919622  18.425961
  10882.299  10882.300  0.500  1.964499  80.862889  130.899119  18.355469
  10882.597  10882.600  0.500  1.968678  80.850062  130.882706  18.276632
  10882.916  10882.900  0.500  1.973332  80.860459  130.893946  18.193337
  10883.203  10883.200  0.500  1.977874  80.838121  130.867781  18.107271
  10883.502  10883.500  0.500  1.982866  80.831637  130.843335  18.013738
  10883.805  10883.800  0.500  1.987836  80.829186  130.845466  17.924732
  10884.103  10884.100  0.500  1.992893  80.820085  130.834593  17.832824
  10884.417  10884.400  0.500  1.998131  80.807093  130.826794  17.738602
  10884.715  10884.700  0.500  2.003136  80.805577  130.817896  17.648838
  10884.987  10885.000  0.500  2.007784  80.799168  130.804162  17.565152
  10885.286  10885.300  0.500  2.012157  80.798499  130.797154  17.487578
  10885.599  10885.600  0.500  2.016410  80.778413  130.783713  17.411569
  10885.887  10885.900  0.500  2.019908  80.779005  130.793107  17.352011
  10886.201  10886.200  0.500  2.023071  80.764599  130.775941  17.294957
  10886.505  10886.500  0.500  2.025666  80.761122  130.764264  17.248589
  10886.793  10886.800  0.500  2.027345  80.760571  130.758804  17.218937
  10887.091  10887.100  0.500  2.028787  80.743119  130.749612  17.192903
  10887.389  10887.400  0.500  2.029332  80.740800  130.733574  17.181439
  10887.683  10887.700  0.500  2.029567  80.746431  130.740736  17.178342
  10887.996  10888.000  0.500  2.029196  80.729935  130.722482  17.182307
  10888.300  10888.300  0.500  2.028433  80.731815  130.726347  17.195940
  10888.593  10888.600  0.500  2.027331  80.714910  130.707624  17.212434
  10888.892  10888.900  0.500  2.025952  80.711014  130.693728  17.234354
  10889.206  10889.200  0.500  2.024485  80.702497  130.687703  17.258861
  10889.494  10889.500  0.500  2.022968  80.700939  130.677434  17.283706
  10889.798  10889.800  0.500  2.021591  80.698238  130.671216  17.306691
  10890.117  10890.100  0.500  2.020010  80.695406  130.676137  17.334736
  10890.400  10890.400  0.500  2.018739  80.683880  130.663268  17.355066
  10890.703  10890.700  0.500  2.017814  80.687270  130.664770  17.371323
  10891.002  10891.000  0.500  2.017025  80.666532  130.644743  17.382371
  10891.306  10891.300  0.500  2.016261  80.665895  130.632405  17.394018
  10891.599  10891.600  0.500  2.016012  80.648178  130.616174  17.396189
  10891.918  10891.900  0.500  2.015678  80.647818  130.612952  17.401578
  10892.202  10892.200  0.500  2.015807  80.640097  130.604317  17.398178
  10892.505  10892.500  0.500  2.015964  80.631665  130.598805  17.394708
  10892.799  10892.800  0.500  2.016296  80.620765  130.580521  17.386508
  10893.092  10893.100  0.500  2.016642  80.615841  130.579623  17.380358
  10893.396  10893.400  0.500  2.017261  80.600533  130.554630  17.366292
  10893.711  10893.700  0.500  2.017498  80.598866  130.547448  17.361216
  10894.004  10894.000  0.500  2.018051  80.587425  130.529755  17.349264
  10894.298  10894.300  0.500  2.018334  80.580492  130.519391  17.342973
  10894.591  10894.600  0.500  2.018721  80.578690  130.530758  17.337787
  10894.890  10894.900  0.500  2.018891  80.566734  130.500482  17.330803
  10895.194  10895.200  0.500  2.019047  80.558456  130.493341  17.327163
  10895.395  10895.400  0.500  2.019083  80.556997  130.486610  17.325649
  10896.395  10896.390  0.500  2.018470  80.549648  130.475057  17.334738
  10897.405  10897.390  0.500  2.017083  80.518950  130.453976  17.355980
  10898.410  10898.410  0.500  2.014403  80.506999  130.437387  17.400358
  10899.467  10899.460  0.500  2.010228  80.491302  130.421608  17.471027
  10900.534  10900.520  0.500  2.005593  80.463595  130.374556  17.545868
  10901.622  10901.600  0.500  2.000301  80.440888  130.341614  17.634509
  10902.726  10902.700  0.500  1.995013  80.413948  130.310390  17.723766
  10903.841  10903.820  0.500  1.989922  80.397043  130.279095  17.809941
  10904.971  10904.960  0.500  1.984929  80.376501  130.257624  17.896143
  10906.117  10906.110  0.500  1.980218  80.353997  130.230174  17.976870
  10907.289  10907.290  0.500  1.975815  80.340245  130.221536  18.054986
  10908.477  10908.480  0.500  1.971667  80.313077  130.178181  18.124011
  10909.711  10909.700  0.500  1.967883  80.299353  130.155695  18.189573
  10910.946  10910.930  0.500  1.965078  80.272161  130.128916  18.236910
  10912.197  10912.180  0.500  1.963341  80.236673  130.086437  18.262654
  10913.468  10913.450  0.500  1.962331  80.215958  130.058513  18.277182
  10914.756  10914.740  0.500  1.962040  80.201713  130.033761  18.279023
  10916.064  10916.050  0.500  1.962019  80.138525  129.943819  18.266768
  10917.388  10917.380  0.500  1.962542  80.081432  129.864973  18.246140
  10918.744  10918.730  0.500  1.963333  80.110375  129.924746  18.240106
  10920.115  10920.100  0.500  1.964263  80.096797  129.909673  18.221025
  10921.482  10921.480  0.500  1.965102  80.080589  129.890688  18.203090
  10922.885  10922.890  0.500  1.965987  80.046412  129.854726  18.181947
  10924.309  10924.310  0.500  1.966901  80.023064  129.816894  18.160048
  10925.760  10925.750  0.500  1.967842  79.986529  129.771524  18.136624
  10927.237  10927.210  0.500  1.968845  79.965401  129.752208  18.115739
  10928.704  10928.690  0.500  1.969984  79.940548  129.717491  18.090275
  10930.202  10930.190  0.500  1.971735  79.917370  129.691276  18.054983
  10931.711  10931.710  0.500  1.973641  79.873492  129.618252  18.010455
  10933.263  10933.250  0.500  1.975583  79.849336  129.599088  17.972850
  10934.819  10934.810  0.500  1.977533  79.825918  129.585668  17.935993
  10936.392  10936.380  0.500  1.979358  79.791834  129.529548  17.895528
  10937.981  10937.980  0.500  1.981301  79.773843  129.506151  17.857563
  10939.586  10939.590  0.500  1.983163  79.733362  129.456711  17.817543
  10941.238  10941.230  0.500  1.984908  79.710472  129.420279  17.781480
  10942.896  10942.880  0.500  1.985694  79.682449  129.387637  17.763026
  10944.565  10944.550  0.500  1.985624  79.653424  129.357234  17.760086
  10946.260  10946.240  0.500  1.984895  79.623897  129.310863  17.766674
  10947.967  10947.950  0.500  1.983545  79.589656  129.271436  17.785253
  10949.684  10949.680  0.500  1.981627  79.528172  129.187458  17.807819
  10951.443  10951.430  0.500  1.978895  79.462761  129.085422  17.842426
  10953.203  10953.190  0.500  1.975432  79.483794  129.137567  17.911553
  10954.990  10954.980  0.500  1.971753  79.449525  129.088130  17.970691
  10956.787  10956.780  0.500  1.967844  79.416088  129.050966  18.035879
  10958.638  10958.610  0.500  1.964525  79.379825  129.002348  18.089023
  10960.457  10960.450  0.500  1.961977  79.348281  128.961451  18.129435
  10962.319  10962.310  0.500  1.960298  79.317777  128.927361  18.155089
  10964.187  10964.190  0.500  1.959386  79.279471  128.880061  18.164999
  10966.119  10966.090  0.500  1.958749  79.253894  128.841083  18.171063
  10968.014  10968.010  0.500  1.958403  79.215580  128.792860  18.170558
  10969.973  10969.950  0.500  1.958397  79.181418  128.752924  18.165021
  10971.911  10971.910  0.500  1.958277  79.164670  128.735718  18.164785
  10973.897  10973.880  0.500  1.958056  79.111484  128.651216  18.156861
  10975.900  10975.880  0.500  1.957324  79.068785  128.589813  18.161492
  10977.898  10977.890  0.500  1.956249  79.037896  128.569247  18.178126
  10979.934  10979.920  0.500  1.954808  78.944046  128.419601  18.183150
  10981.996  10981.980  0.500  1.953547  78.956324  128.457850  18.211516
  10984.065  10984.050  0.500  1.952186  78.936181  128.440033  18.233776
  10986.155  10986.140  0.500  1.951168  78.888314  128.378544  18.243613
  10988.257  10988.250  0.500  1.949888  78.863762  128.355247  18.263667
  10990.396  10990.380  0.500  1.949049  78.817612  128.288382  18.269482
  10992.541  10992.520  0.500  1.948207  78.772686  128.233381  18.277018
  10994.713  10994.690  0.500  1.947532  78.734987  128.184643  18.282413
  10996.897  10996.880  0.500  1.946790  78.692216  128.112015  18.285629
  10999.097  10999.080  0.500  1.946620  78.656296  128.075018  18.283457
  11001.319  11001.300  0.500  1.946896  78.618017  128.032657  18.272350
  11003.569  11003.550  0.500  1.947295  78.577111  127.982408  18.257892
  11005.809  11005.810  0.500  1.947769  78.540080  127.938777  18.243021
  11008.107  11008.090  0.500  1.948291  78.504479  127.895211  18.227298
  11010.407  11010.390  0.500  1.949312  78.454810  127.838213  18.200575
  11012.728  11012.710  0.500  1.950333  78.417496  127.775737  18.173124
  11015.035  11015.050  0.500  1.950896  78.306205  127.612786  18.139730
  11017.406  11017.400  0.500  1.950747  78.336751  127.680480  18.152064
  11019.794  11019.780  0.500  1.949718  78.292201  127.632811  18.163965
  11022.167  11022.170  0.500  1.948289  78.260621  127.591689  18.184079
  11024.605  11024.590  0.500  1.947238  78.442610  127.903814  18.247725
  11027.049  11027.020  0.500  1.945902  78.408916  127.852175  18.264736
  11029.473  11029.470  0.500  1.944571  78.384003  127.825031  18.285198
  11031.977  11031.950  0.500  1.943250  78.345863  127.781584  18.303137
  11034.450  11034.440  0.500  1.941769  78.301936  127.729053  18.322731
  11036.957  11036.950  0.500  1.939543  78.261861  127.685093  18.357241
  11039.475  11039.470  0.500  1.936980  78.215282  127.617689  18.394641
  11042.037  11042.020  0.500  1.934285  78.169188  127.553186  18.434947
  11044.616  11044.590  0.500  1.931590  78.127296  127.497250  18.476604
  11047.175  11047.170  0.500  1.928996  78.071344  127.428480  18.514596
  11049.809  11049.780  0.500  1.927002  78.023731  127.377453  18.544111
  11052.413  11052.400  0.500  1.925511  77.976214  127.311734  18.562215
  11055.044  11055.050  0.500  1.924865  77.936157  127.262024  18.566948
  11057.735  11057.710  0.500  1.924714  77.884995  127.198384  18.560460
  11060.412  11060.390  0.500  1.924815  77.763395  127.013500  18.531613
  11063.106  11063.090  0.500  1.924536  77.783108  127.061432  18.543786
  11065.833  11065.810  0.500  1.924263  77.732192  127.001997  18.540178
  11068.578  11068.550  0.500  1.923808  77.687948  126.939099  18.539418
  11071.302  11071.300  0.500  1.923062  77.643109  126.881553  18.544840
  11074.103  11074.080  0.500  1.922076  77.583980  126.799944  18.551194
  11076.883  11076.870  0.500  1.920921  77.463614  126.621186  18.546459
  11079.702  11079.690  0.500  1.919767  77.484773  126.670032  18.575040
  11082.539  11082.520  0.500  1.918561  77.431200  126.607503  18.588272
  11085.378  11085.370  0.500  1.917386  77.383789  126.545500  18.601004
  11088.249  11088.250  0.500  1.916216  77.334974  126.482695  18.613539
  11091.171  11091.140  0.500  1.914854  77.229253  126.330270  18.616457
