# XDI/1.0 BlueSky/1.5.0
# Beamline.name: 6BM
# Beamline.xray_source: NSLS-II three-pole wiggler
# Beamline.collimation: paraboloid mirror, 5 nm Rh on 30 nm Pt
# Beamline.focusing: not in use
# Beamline.harmonic_rejection: flat mirror, Si stripe, pitch = 7.0 mrad relative to beam
# Detector.i0: 10 cm N2
# Detector.i1: 25 cm N2
# Detector.i2: 25 cm N2
# Element.symbol: Ti
# Element.edge: K
# Facility.name: NSLS-II
# Facility.energy: 3.0
# Facility.current: 220.4
# Facility.mode: top-off
# Facility.gup: 301027
# Facility.saf: 304156
# Mono.name: Si(111)
# Mono.d_spacing: 3.1352584
# Mono.encoder_resolution: 0.0000050 deg/ct
# Mono.angle_offset: 16.0571090 deg
# Mono.scan_mode: pseudo channel cut
# Mono.scan_type: step
# Mono.direction: forward in energy
# Sample.name: Ti2O3
# Sample.prep: Powder in polyethylene glycol pellet
# Sample.x_position: -97.532 mm
# Sample.y_position: 117.543 mm
# Sample.wheel_position: -705.000 mm
# Scan.experimenters: Bruce Ravel, Martin Stennett
# Scan.edge_energy: 4966.0
# Scan.start_time: 2019-05-30T08:45:18
# Scan.end_time: 2019-05-30T09:28:15
# Scan.transient_id: 9809
# Scan.uid: 15d7abe1-6ad8-486c-9140-32319bb7e3b8
# Scan.plot_hint: ln(I0/It)  --  ln($5/$6)
# Scan.sequence: merge of 3 scans
# Column.1: energy eV
# Column.2: requested_energy eV
# Column.3: measurement_time seconds
# Column.4: mutrans
# Column.5: i0
# Column.6: itrans
# Column.7: irefer
# /////
#  sample disk prepared by Martin
# -----
# energy   requested_energy   measurement_time   mutrans   i0   itrans   irefer
4765.998000 4766.000000 0.500000 4.131557 11.006869 0.176753 0.014995
4776.008000 4776.000000 0.500000 4.102752 11.192458 0.184980 0.015835
4786.008000 4786.000000 0.500000 4.071948 11.405481 0.194396 0.016819
4796.009000 4796.000000 0.500000 4.042536 11.620365 0.203972 0.017838
4806.009000 4806.000000 0.500000 4.013594 11.838464 0.213901 0.018681
4816.010000 4816.000000 0.500000 3.984506 12.051165 0.224172 0.019940
4826.006000 4826.000000 0.500000 3.956179 12.260027 0.234609 0.021064
4836.004000 4836.000000 0.500000 3.927476 12.486819 0.245907 0.022276
4846.004000 4846.000000 0.500000 3.899828 12.706704 0.257253 0.023353
4856.002000 4856.000000 0.500000 3.872261 12.922668 0.268932 0.024653
4866.008000 4866.000000 0.500000 3.843628 13.141145 0.281427 0.026352
4876.013000 4876.000000 0.500000 3.816125 13.356266 0.294014 0.027604
4886.010000 4886.000000 0.500000 3.788973 13.567725 0.306889 0.029211
4896.007000 4896.000000 0.500000 3.761584 13.770263 0.320116 0.031021
4906.006000 4906.000000 0.500000 3.735833 13.967197 0.333163 0.032444
4916.005000 4916.000000 0.500000 3.709728 14.159617 0.346686 0.034125
4926.005000 4926.000000 0.500000 3.684798 14.353239 0.360300 0.035739
4936.002000 4936.000000 0.500000 3.660318 14.546479 0.374199 0.037672
4938.002000 4938.000000 0.500000 3.655236 14.583523 0.377064 0.038066
4940.000000 4940.000000 0.500000 3.651430 14.618437 0.379408 0.038446
4942.001000 4942.000000 0.500000 3.646772 14.654294 0.382119 0.038835
4943.997000 4944.000000 0.500000 3.641195 14.688855 0.385153 0.039188
4946.007000 4946.000000 0.500000 3.637917 14.719769 0.387235 0.039446
4948.007000 4948.000000 0.500000 3.633154 14.749711 0.389876 0.039700
4950.006000 4950.000000 0.500000 3.628564 14.785142 0.392610 0.040397
4952.005000 4952.000000 0.500000 3.625386 14.821969 0.394840 0.040497
4954.004000 4954.000000 0.500000 3.622299 14.852680 0.396882 0.040703
4956.004000 4956.000000 0.500000 3.619926 14.879200 0.398534 0.040862
4956.245000 4956.250000 0.500000 3.619560 14.883260 0.398789 0.040914
4956.496000 4956.500000 0.500000 3.619460 14.887219 0.398936 0.040673
4956.745000 4956.750000 0.500000 3.618418 14.888587 0.399386 0.041143
4956.995000 4957.000000 0.500000 3.618624 14.890971 0.399369 0.041186
4957.245000 4957.250000 0.500000 3.618776 14.895366 0.399427 0.040992
4957.495000 4957.500000 0.500000 3.617664 14.897753 0.399935 0.041183
4957.747000 4957.750000 0.500000 3.617447 14.902480 0.400149 0.041355
4957.996000 4958.000000 0.500000 3.617864 14.907301 0.400112 0.041175
4958.245000 4958.250000 0.500000 3.617186 14.909526 0.400443 0.041264
4958.495000 4958.500000 0.500000 3.617613 14.914339 0.400401 0.040846
4958.746000 4958.750000 0.500000 3.617100 14.918234 0.400709 0.041043
4958.998000 4959.000000 0.500000 3.616990 14.920974 0.400826 0.041306
4959.248000 4959.250000 0.500000 3.617265 14.921855 0.400743 0.040905
4959.497000 4959.500000 0.500000 3.616261 14.925065 0.401229 0.041370
4959.748000 4959.750000 0.500000 3.616949 14.929752 0.401082 0.040908
4959.997000 4960.000000 0.500000 3.616768 14.934609 0.401282 0.041111
4960.245000 4960.250000 0.500000 3.616809 14.938075 0.401365 0.041105
4960.494000 4960.500000 0.500000 3.617048 14.942889 0.401394 0.041103
4960.747000 4960.750000 0.500000 3.616918 14.947129 0.401560 0.041192
4960.995000 4961.000000 0.500000 3.617397 14.951691 0.401490 0.041277
4961.247000 4961.250000 0.500000 3.617037 14.952472 0.401656 0.040981
4961.498000 4961.500000 0.500000 3.617450 14.956022 0.401585 0.040962
4961.747000 4961.750000 0.500000 3.617666 14.961123 0.401635 0.040922
4961.997000 4962.000000 0.500000 3.617707 14.967302 0.401785 0.040886
4962.248000 4962.250000 0.500000 3.618753 15.004643 0.402366 0.041116
4962.495000 4962.500000 0.500000 3.619554 15.007605 0.402128 0.040654
4962.745000 4962.750000 0.500000 3.620015 15.014628 0.402126 0.040499
4962.997000 4963.000000 0.500000 3.620967 15.018371 0.401843 0.040361
4963.247000 4963.250000 0.500000 3.621449 15.022465 0.401758 0.040328
4963.498000 4963.500000 0.500000 3.623342 15.027575 0.401134 0.039938
4963.749000 4963.750000 0.500000 3.624886 15.030088 0.400581 0.039243
4963.999000 4964.000000 0.500000 3.627163 15.033473 0.399762 0.038518
4964.249000 4964.250000 0.500000 3.629048 15.036287 0.399086 0.037347
4964.497000 4964.500000 0.500000 3.631895 15.045614 0.398198 0.035371
4964.748000 4964.750000 0.500000 3.635763 15.051617 0.396817 0.033265
4964.994000 4965.000000 0.500000 3.642703 15.055209 0.394190 0.030187
4965.249000 4965.250000 0.500000 3.652178 15.079648 0.391085 0.028169
4965.502000 4965.500000 0.500000 3.667362 15.082822 0.385241 0.026963
4965.750000 4965.750000 0.500000 3.688002 15.088473 0.377519 0.026471
4966.001000 4966.000000 0.500000 3.712212 15.092285 0.368566 0.026429
4966.249000 4966.250000 0.500000 3.732775 15.096271 0.361238 0.027252
4966.499000 4966.500000 0.500000 3.748959 15.098441 0.355443 0.027685
4966.749000 4966.750000 0.500000 3.765509 15.100780 0.349686 0.027780
4966.998000 4967.000000 0.500000 3.783553 15.101891 0.343416 0.027532
4967.251000 4967.250000 0.500000 3.805111 15.102187 0.336078 0.026977
4967.499000 4967.500000 0.500000 3.826529 15.107298 0.329131 0.026435
4967.752000 4967.750000 0.500000 3.845361 15.112459 0.323045 0.025801
4968.003000 4968.000000 0.500000 3.860122 15.118686 0.318462 0.025080
4968.249000 4968.250000 0.500000 3.869840 15.125709 0.315557 0.024435
4968.500000 4968.500000 0.500000 3.880800 15.128590 0.312153 0.023857
4968.747000 4968.750000 0.500000 3.893202 15.127451 0.308309 0.023270
4968.998000 4969.000000 0.500000 3.903281 15.128022 0.305222 0.022964
4969.248000 4969.250000 0.500000 3.912451 15.128346 0.302456 0.022280
4969.498000 4969.500000 0.500000 3.916331 15.130299 0.301309 0.022167
4969.752000 4969.750000 0.500000 3.919723 15.133027 0.300339 0.021817
4969.999000 4970.000000 0.500000 3.923722 15.137182 0.299230 0.021622
4970.251000 4970.250000 0.500000 3.926493 15.143844 0.298526 0.021255
4970.499000 4970.500000 0.500000 3.930966 15.153765 0.297387 0.021364
4970.751000 4970.750000 0.500000 3.936635 15.166143 0.295937 0.021039
4971.002000 4971.000000 0.500000 3.944305 15.174515 0.293839 0.020921
4971.251000 4971.250000 0.500000 3.953603 15.180657 0.291239 0.020575
4971.502000 4971.500000 0.500000 3.965536 15.183625 0.287839 0.019830
4971.753000 4971.750000 0.500000 3.980470 15.188016 0.283624 0.019582
4972.001000 4972.000000 0.500000 3.997901 15.194151 0.278895 0.018811
4972.251000 4972.250000 0.500000 4.018300 15.199303 0.273336 0.018115
4972.499000 4972.500000 0.500000 4.041874 15.205093 0.267086 0.017643
4972.752000 4972.750000 0.500000 4.068735 15.206802 0.259932 0.016819
4973.001000 4973.000000 0.500000 4.101207 15.209796 0.251785 0.015890
4973.251000 4973.250000 0.500000 4.137553 15.213485 0.242835 0.015062
4973.503000 4973.500000 0.500000 4.176439 15.240401 0.234011 0.014191
4973.752000 4973.750000 0.500000 4.219555 15.254594 0.224318 0.013562
4973.998000 4974.000000 0.500000 4.269100 15.256221 0.213605 0.013063
4974.249000 4974.250000 0.500000 4.320880 15.255556 0.202747 0.011989
4974.500000 4974.500000 0.500000 4.373667 15.258333 0.192287 0.011528
4974.752000 4974.750000 0.500000 4.430360 15.260773 0.181693 0.010739
4975.004000 4975.000000 0.500000 4.487361 15.260535 0.171649 0.010103
4975.250000 4975.250000 0.500000 4.540392 15.262844 0.162880 0.009351
4975.503000 4975.500000 0.500000 4.590566 15.261508 0.154830 0.008882
4975.750000 4975.750000 0.500000 4.640162 15.263562 0.147419 0.008452
4976.000000 4976.000000 0.500000 4.689478 15.260983 0.140288 0.007941
4976.249000 4976.250000 0.500000 4.735317 15.262572 0.134000 0.007698
4976.501000 4976.500000 0.500000 4.779197 15.263782 0.128229 0.007433
4976.752000 4976.750000 0.500000 4.825645 15.263441 0.122435 0.007138
4977.004000 4977.000000 0.500000 4.868178 15.263969 0.117316 0.006527
4977.251000 4977.250000 0.500000 4.908646 15.264348 0.112720 0.006354
4977.501000 4977.500000 0.500000 4.947152 15.267049 0.108440 0.006098
4977.748000 4977.750000 0.500000 4.984606 15.272023 0.104551 0.005894
4978.002000 4978.000000 0.500000 5.017019 15.276521 0.101176 0.006110
4978.250000 4978.250000 0.500000 5.055109 15.278483 0.097445 0.005679
4978.504000 4978.500000 0.500000 5.087544 15.281523 0.094292 0.005391
4978.753000 4978.750000 0.500000 5.122959 15.281745 0.091046 0.005413
4979.003000 4979.000000 0.500000 5.156770 15.283108 0.088025 0.005253
4979.252000 4979.250000 0.500000 5.190977 15.282823 0.085090 0.004946
4979.499000 4979.500000 0.500000 5.226180 15.284031 0.082141 0.005207
4979.750000 4979.750000 0.500000 5.262161 15.281226 0.079227 0.004849
4980.001000 4980.000000 0.500000 5.304562 15.281192 0.075921 0.004687
4980.252000 4980.250000 0.500000 5.342998 15.277423 0.073049 0.004669
4980.500000 4980.500000 0.500000 5.380538 15.274410 0.070338 0.004571
4980.753000 4980.750000 0.500000 5.416946 15.273362 0.067825 0.004527
4981.002000 4981.000000 0.500000 5.452370 15.269296 0.065453 0.004291
4981.251000 4981.250000 0.500000 5.484800 15.270437 0.063371 0.004335
4981.500000 4981.500000 0.500000 5.516995 15.272497 0.061356 0.004122
4981.751000 4981.750000 0.500000 5.548424 15.274355 0.059473 0.003969
4982.002000 4982.000000 0.500000 5.576193 15.273313 0.057829 0.004076
4982.254000 4982.250000 0.500000 5.605832 15.277186 0.056165 0.003887
4982.502000 4982.500000 0.500000 5.630532 15.280125 0.054805 0.003796
4982.753000 4982.750000 0.500000 5.655779 15.281005 0.053438 0.003839
4982.998000 4983.000000 0.500000 5.681414 15.284179 0.052115 0.003698
4983.251000 4983.250000 0.500000 5.700437 15.284270 0.051125 0.004043
4983.500000 4983.500000 0.500000 5.722049 15.284140 0.050025 0.003629
4983.751000 4983.750000 0.500000 5.738747 15.281023 0.049188 0.003751
4984.000000 4984.000000 0.500000 5.756483 15.279425 0.048318 0.003702
4984.253000 4984.250000 0.500000 5.777018 15.278643 0.047334 0.003607
4984.500000 4984.500000 0.500000 5.787636 15.274187 0.046820 0.003306
4984.751000 4984.750000 0.500000 5.798795 15.279772 0.046320 0.003660
4984.998000 4985.000000 0.500000 5.806514 15.283397 0.045973 0.003537
4985.252000 4985.250000 0.500000 5.812920 15.282380 0.045674 0.003754
4985.501000 4985.500000 0.500000 5.819728 15.284197 0.045368 0.003638
4985.753000 4985.750000 0.500000 5.824922 15.284422 0.045134 0.003715
4986.001000 4986.000000 0.500000 5.831698 15.282307 0.044825 0.003467
4986.255000 4986.250000 0.500000 5.829200 15.283974 0.044942 0.003581
4986.501000 4986.500000 0.500000 5.822517 15.285819 0.045248 0.003690
4986.752000 4986.750000 0.500000 5.818580 15.280526 0.045409 0.003659
4986.999000 4987.000000 0.500000 5.814425 15.280064 0.045600 0.003586
4987.253000 4987.250000 0.500000 5.802594 15.277514 0.046135 0.003649
4987.500000 4987.500000 0.500000 5.794258 15.276277 0.046514 0.003880
4987.753000 4987.750000 0.500000 5.787217 15.275990 0.046843 0.003572
4988.004000 4988.000000 0.500000 5.774868 15.278684 0.047436 0.003823
4988.254000 4988.250000 0.500000 5.761008 15.286679 0.048121 0.003867
4988.500000 4988.500000 0.500000 5.748294 15.291621 0.048749 0.003699
4988.752000 4988.750000 0.500000 5.736085 15.299727 0.049380 0.003789
4989.000000 4989.000000 0.500000 5.724113 15.310674 0.050009 0.003869
4989.253000 4989.250000 0.500000 5.711375 15.322403 0.050692 0.003611
4989.501000 4989.500000 0.500000 5.701770 15.335064 0.051220 0.003570
4989.752000 4989.750000 0.500000 5.683032 15.348028 0.052236 0.003957
4990.005000 4990.000000 0.500000 5.666238 15.360585 0.053165 0.003904
4990.252000 4990.250000 0.500000 5.653502 15.367932 0.053869 0.003842
4990.501000 4990.500000 0.500000 5.636516 15.381647 0.054838 0.004109
4990.750000 4990.750000 0.500000 5.622305 15.390915 0.055658 0.004048
4991.003000 4991.000000 0.500000 5.606483 15.437150 0.056718 0.004103
4991.250000 4991.250000 0.500000 5.593787 15.444753 0.057471 0.004022
4991.500000 4991.500000 0.500000 5.583908 15.452303 0.058064 0.004160
4991.751000 4991.750000 0.500000 5.568826 15.461559 0.058980 0.004357
4992.003000 4992.000000 0.500000 5.563464 15.468862 0.059331 0.004099
4992.249000 4992.250000 0.500000 5.548232 15.478342 0.060268 0.004448
4992.502000 4992.500000 0.500000 5.541118 15.486453 0.060742 0.004461
4992.751000 4992.750000 0.500000 5.533105 15.489828 0.061243 0.004252
4993.003000 4993.000000 0.500000 5.527543 15.497743 0.061617 0.004435
4993.252000 4993.250000 0.500000 5.524013 15.500706 0.061845 0.004418
4993.505000 4993.500000 0.500000 5.520938 15.504822 0.062062 0.004387
4993.754000 4993.750000 0.500000 5.513407 15.511668 0.062546 0.004385
4994.003000 4994.000000 0.500000 5.515651 15.513649 0.062418 0.004210
4994.251000 4994.250000 0.500000 5.516449 15.550351 0.062515 0.004256
4994.501000 4994.500000 0.500000 5.517209 15.557099 0.062493 0.004289
4994.751000 4994.750000 0.500000 5.521575 15.560871 0.062235 0.004412
4994.999000 4995.000000 0.500000 5.526873 15.565476 0.061930 0.004231
4995.252000 4995.250000 0.500000 5.532179 15.567771 0.061606 0.004143
4995.502000 4995.500000 0.500000 5.536812 15.569892 0.061330 0.004246
4995.753000 4995.750000 0.500000 5.543769 15.588177 0.060975 0.004257
4995.999000 4996.000000 0.700000 5.552528 21.740900 0.084310 0.005913
4997.093000 4997.080000 0.710000 5.591355 22.122650 0.082513 0.005873
4998.182000 4998.180000 0.730000 5.621150 22.744294 0.082358 0.005723
4999.296000 4999.290000 0.740000 5.629605 23.069574 0.082821 0.005729
5000.437000 5000.430000 0.750000 5.607697 23.421120 0.085950 0.005729
5001.584000 5001.580000 0.760000 5.560337 23.775808 0.091471 0.006105
5002.767000 5002.760000 0.780000 5.499584 24.451978 0.099971 0.006497
5003.956000 5003.950000 0.790000 5.441090 24.821915 0.107601 0.006619
5005.165000 5005.160000 0.800000 5.387426 25.202672 0.115266 0.007287
5006.397000 5006.390000 0.810000 5.346764 25.583902 0.121871 0.007494
5007.647000 5007.640000 0.830000 5.310433 26.273528 0.129793 0.007979
5008.913000 5008.910000 0.840000 5.278634 26.645907 0.135871 0.008442
5010.205000 5010.200000 0.850000 5.246941 27.019808 0.142216 0.008993
5011.516000 5011.510000 0.860000 5.226880 27.395637 0.147123 0.009189
5012.833000 5012.830000 0.880000 5.223018 28.079089 0.151374 0.009383
5014.184000 5014.180000 0.890000 5.223878 28.454697 0.153269 0.009684
5015.545000 5015.540000 0.900000 5.226987 28.820496 0.154756 0.009545
5016.935000 5016.930000 0.910000 5.225652 29.200903 0.157008 0.010075
5018.333000 5018.330000 0.930000 5.217670 29.897774 0.162044 0.010479
5019.754000 5019.750000 0.940000 5.207357 30.304015 0.165949 0.010649
5021.190000 5021.190000 0.950000 5.197149 30.733049 0.170021 0.010777
5022.649000 5022.650000 0.960000 5.191578 31.123197 0.173143 0.011077
5024.129000 5024.130000 0.980000 5.196330 31.842341 0.176311 0.011518
5025.632000 5025.630000 0.990000 5.211448 32.230462 0.175782 0.011307
5027.143000 5027.140000 1.000000 5.225413 32.622684 0.175452 0.011455
5028.685000 5028.680000 1.010000 5.245659 33.024173 0.174048 0.011293
5030.242000 5030.240000 1.030000 5.264913 33.745398 0.174461 0.011475
5031.812000 5031.810000 1.040000 5.287892 34.142783 0.172510 0.010935
5033.401000 5033.400000 1.050000 5.307068 34.537131 0.171187 0.010897
5035.014000 5035.010000 1.060000 5.323939 34.934600 0.170257 0.010605
5036.656000 5036.650000 1.080000 5.337425 35.669514 0.171501 0.010926
5038.305000 5038.300000 1.090000 5.349372 36.082430 0.171433 0.010656
5039.965000 5039.970000 1.100000 5.355518 36.487216 0.172296 0.010800
5041.645000 5041.650000 1.110000 5.355392 36.898463 0.174258 0.011218
5043.357000 5043.360000 1.130000 5.350205 37.638070 0.178672 0.011223
5045.094000 5045.090000 1.140000 5.337834 38.060689 0.182939 0.011249
5046.825000 5046.830000 1.150000 5.324806 38.478841 0.187367 0.011944
5048.598000 5048.600000 1.160000 5.314579 38.896885 0.191349 0.012284
5050.377000 5050.380000 1.180000 5.307390 39.661629 0.196520 0.012913
5052.175000 5052.180000 1.190000 5.300282 40.084555 0.200028 0.013019
5053.995000 5054.000000 1.200000 5.289084 40.522804 0.204493 0.013713
5055.835000 5055.840000 1.210000 5.281611 40.953441 0.208217 0.013943
5057.695000 5057.700000 1.230000 5.270235 41.731604 0.214601 0.014120
5059.572000 5059.580000 1.240000 5.257624 42.173499 0.219620 0.014014
5061.474000 5061.480000 1.250000 5.238590 42.613141 0.226178 0.015264
5063.395000 5063.400000 1.260000 5.223062 43.057899 0.232111 0.015160
5065.326000 5065.330000 1.280000 5.207263 43.857491 0.240191 0.015923
5067.285000 5067.290000 1.290000 5.195619 44.302611 0.245469 0.016328
5069.257000 5069.260000 1.300000 5.188756 44.762048 0.249726 0.016598
5071.255000 5071.260000 1.310000 5.185336 45.218294 0.253134 0.017127
5073.266000 5073.270000 1.330000 5.181033 46.025316 0.258762 0.017014
5075.295000 5075.300000 1.340000 5.178987 46.528785 0.262131 0.017438
5077.347000 5077.350000 1.350000 5.171344 47.041402 0.267051 0.017749
5079.421000 5079.420000 1.360000 5.163913 47.516321 0.271762 0.017704
5081.506000 5081.510000 1.380000 5.151901 48.337725 0.279796 0.017860
5083.607000 5083.610000 1.390000 5.139732 48.807023 0.285975 0.017825
5085.737000 5085.740000 1.400000 5.124447 49.282290 0.293198 0.018296
5087.889000 5087.890000 1.410000 5.109260 49.762765 0.300596 0.018534
5090.054000 5090.050000 1.430000 5.095289 50.603652 0.309983 0.018629
5092.229000 5092.230000 1.440000 5.082565 51.098026 0.317010 0.018924
5094.441000 5094.440000 1.450000 5.072020 51.606435 0.323562 0.019346
5096.663000 5096.660000 1.460000 5.062953 52.101770 0.329644 0.020294
5098.901000 5098.900000 1.480000 5.056789 52.964177 0.337171 0.020877
5101.159000 5101.160000 1.490000 5.052302 53.457471 0.341839 0.022342
5103.442000 5103.440000 1.500000 5.049939 53.973692 0.345955 0.022644
5105.743000 5105.740000 1.510000 5.048769 54.524262 0.349895 0.023231
5108.048000 5108.050000 1.530000 5.051855 55.487658 0.354984 0.023379
5110.391000 5110.390000 1.540000 5.053212 56.008845 0.357828 0.023668
5112.739000 5112.740000 1.550000 5.056344 56.515872 0.359939 0.023580
5115.122000 5115.120000 1.560000 5.055858 57.032862 0.363408 0.024070
5117.515000 5117.510000 1.580000 5.054051 57.928617 0.369784 0.024644
5119.920000 5119.920000 1.590000 5.050405 58.469275 0.374598 0.024833
5122.349000 5122.350000 1.600000 5.047678 59.007088 0.379076 0.025312
5124.800000 5124.800000 1.610000 5.047311 59.540335 0.382642 0.025574
5127.272000 5127.270000 1.630000 5.047147 60.461217 0.388624 0.026105
5129.763000 5129.760000 1.640000 5.045921 61.021203 0.392705 0.026203
