# XDI/1.0 BlueSky/1.5.0
# Beamline.name: 6BM
# Beamline.xray_source: NSLS-II three-pole wiggler
# Beamline.collimation: paraboloid mirror, 5 nm Rh on 30 nm Pt
# Beamline.focusing: not in use
# Beamline.harmonic_rejection: flat mirror, Si stripe, pitch = 7.0 mrad relative to beam
# Detector.i0: 10 cm N2
# Detector.i1: 25 cm N2
# Detector.i2: 25 cm N2
# Element.symbol: Ti
# Element.edge: K
# Facility.name: NSLS-II
# Facility.energy: 3.0
# Facility.current: 219.7
# Facility.mode: top-off
# Facility.gup: 301027
# Facility.saf: 304156
# Mono.name: Si(111)
# Mono.d_spacing: 3.1353241
# Mono.encoder_resolution: 0.0000050 deg/ct
# Mono.angle_offset: 16.0576931 deg
# Mono.scan_mode: pseudo channel cut
# Mono.scan_type: step
# Mono.direction: forward in energy
# Sample.name: EuTiO3 perovskite
# Sample.prep: powder on tape
# Sample.x_position: -97.500 mm
# Sample.y_position: 115.250 mm
# Sample.wheel_position: 15.000 mm
# Scan.experimenters: Bruce Ravel
# Scan.edge_energy: 4966.0
# Scan.start_time: 2019-06-16T18:11:49
# Scan.end_time: 2019-06-16T20:38:50
# Scan.transient_id: 10630
# Scan.uid: 4e553338-dff6-46a6-ad8a-cdfee4f3e69d
# Scan.plot_hint: ln(I0/It)  --  ln($5/$6)
# Scan.sequence: merge of 9 scans
# Column.1: energy eV
# Column.2: requested_energy eV
# Column.3: measurement_time seconds
# Column.4: mutrans
# Column.5: i0
# Column.6: itrans
# Column.7: irefer
# /////
#  from Fatih Dogan, 1993
# -----
# energy   requested_energy   measurement_time   mutrans   i0   itrans   irefer
4765.994000 4766.000000 0.500000 2.835704 8.449051 0.495768 0.033460
4776.005000 4776.000000 0.500000 2.813994 8.651814 0.518802 0.035737
4786.009000 4786.000000 0.500000 2.792821 8.866882 0.543080 0.037946
4796.007000 4796.000000 0.500000 2.771439 9.081480 0.568244 0.040428
4806.006000 4806.000000 0.500000 2.750357 9.299916 0.594309 0.043088
4816.007000 4816.000000 0.500000 2.729166 9.513277 0.620967 0.045674
4826.005000 4826.000000 0.500000 2.708426 9.728670 0.648331 0.048500
4836.004000 4836.000000 0.500000 2.687651 9.935626 0.675935 0.051519
4846.109000 4846.000000 0.500000 2.667678 10.153870 0.704956 0.054512
4855.995000 4856.000000 0.500000 2.647162 10.378585 0.735327 0.057869
4866.002000 4866.000000 0.500000 2.626791 10.600815 0.766537 0.061327
4876.007000 4876.000000 0.500000 2.607098 10.825813 0.798390 0.064906
4886.002000 4886.000000 0.500000 2.587120 11.053535 0.831625 0.068754
4896.004000 4896.000000 0.500000 2.567660 11.292381 0.866291 0.072768
4906.007000 4906.000000 0.500000 2.548098 11.522269 0.901396 0.076826
4916.000000 4916.000000 0.500000 2.529040 11.752248 0.937070 0.081131
4926.001000 4926.000000 0.500000 2.509974 11.988422 0.974302 0.085701
4936.000000 4936.000000 0.500000 2.490881 12.215072 1.011859 0.090264
4937.997000 4938.000000 0.500000 2.487120 12.259232 1.019344 0.091203
4939.994000 4940.000000 0.500000 2.483457 12.305422 1.026922 0.092136
4942.005000 4942.000000 0.500000 2.479667 12.353747 1.034887 0.093115
4944.003000 4944.000000 0.500000 2.475838 12.403355 1.043026 0.094253
4946.004000 4946.000000 0.500000 2.472068 12.442660 1.050293 0.094948
4947.998000 4948.000000 0.500000 2.468334 12.476808 1.057105 0.095878
4949.996000 4950.000000 0.500000 2.464703 12.523460 1.064918 0.096718
4951.997000 4952.000000 0.500000 2.461213 12.561830 1.071917 0.097728
4953.995000 4954.000000 0.500000 2.457466 12.602422 1.079415 0.098412
4955.997000 4956.000000 0.500000 2.453638 12.640515 1.086831 0.099469
4956.246000 4956.250000 0.500000 2.453194 12.643450 1.087569 0.099307
4956.494000 4956.500000 0.500000 2.452789 12.650286 1.088596 0.099658
4956.743000 4956.750000 0.500000 2.452202 12.653211 1.089486 0.099721
4956.994000 4957.000000 0.500000 2.451801 12.656022 1.090168 0.099780
4957.244000 4957.250000 0.500000 2.451455 12.673406 1.092043 0.099637
4957.493000 4957.500000 0.500000 2.451121 12.678807 1.092871 0.099924
4957.744000 4957.750000 0.500000 2.450543 12.682864 1.093855 0.100035
4957.995000 4958.000000 0.500000 2.450125 12.688091 1.094764 0.100182
4958.244000 4958.250000 0.500000 2.449699 12.691427 1.095516 0.100187
4958.496000 4958.500000 0.500000 2.449115 12.695633 1.096522 0.100354
4958.746000 4958.750000 0.500000 2.448790 12.702110 1.097437 0.100356
4958.997000 4959.000000 0.500000 2.448238 12.703763 1.098187 0.100322
4959.246000 4959.250000 0.500000 2.447840 12.707224 1.098924 0.100574
4959.496000 4959.500000 0.500000 2.447416 12.724899 1.100919 0.100732
4959.746000 4959.750000 0.500000 2.446956 12.729950 1.101864 0.100746
4959.995000 4960.000000 0.500000 2.446453 12.734078 1.102773 0.100675
4960.245000 4960.250000 0.500000 2.446057 12.739555 1.103683 0.100825
4960.495000 4960.500000 0.500000 2.445615 12.743558 1.104520 0.100836
4960.745000 4960.750000 0.500000 2.445202 12.750398 1.105567 0.100917
4960.996000 4961.000000 0.500000 2.444713 12.754191 1.106438 0.100876
4961.247000 4961.250000 0.500000 2.444138 12.758996 1.107494 0.100923
4961.494000 4961.500000 0.500000 2.443722 12.761705 1.108187 0.100899
4961.748000 4961.750000 0.500000 2.443415 12.768349 1.109110 0.100813
4961.994000 4962.000000 0.500000 2.442937 12.773241 1.110059 0.100790
4962.245000 4962.250000 0.500000 2.442604 12.779627 1.110986 0.100628
4962.497000 4962.500000 0.500000 2.442120 12.784862 1.111981 0.100495
4962.746000 4962.750000 0.500000 2.441491 12.790127 1.113134 0.100194
4962.998000 4963.000000 0.500000 2.441262 12.794402 1.113763 0.099811
4963.246000 4963.250000 0.500000 2.440876 12.799014 1.114594 0.099395
4963.496000 4963.500000 0.500000 2.440364 12.805669 1.115745 0.098645
4963.748000 4963.750000 0.500000 2.439929 12.821687 1.117629 0.097296
4963.995000 4964.000000 0.500000 2.439666 12.828957 1.118554 0.095592
4964.247000 4964.250000 0.500000 2.439160 12.830603 1.119266 0.092625
4964.498000 4964.500000 0.500000 2.438804 12.844769 1.120900 0.087888
4964.747000 4964.750000 0.500000 2.438469 12.849503 1.121686 0.081283
4965.000000 4965.000000 0.500000 2.438030 12.854989 1.122662 0.074832
4965.249000 4965.250000 0.500000 2.437533 12.859138 1.123583 0.070502
4965.501000 4965.500000 0.500000 2.437200 12.863400 1.124329 0.068731
4965.745000 4965.750000 0.500000 2.437231 12.869971 1.124868 0.069367
4965.999000 4966.000000 0.500000 2.436899 12.873555 1.125556 0.071587
4966.251000 4966.250000 0.500000 2.436812 12.877691 1.126013 0.074458
4966.499000 4966.500000 0.500000 2.436908 12.882076 1.126288 0.076990
4966.751000 4966.750000 0.500000 2.437473 12.882934 1.125727 0.078574
4967.001000 4967.000000 0.500000 2.437999 12.886222 1.125422 0.079259
4967.249000 4967.250000 0.500000 2.438365 12.889719 1.125319 0.079454
4967.500000 4967.500000 0.500000 2.437601 12.894194 1.126575 0.079140
4967.747000 4967.750000 0.500000 2.436994 12.899103 1.127683 0.078209
4968.000000 4968.000000 0.500000 2.436309 12.904037 1.128886 0.077139
4968.246000 4968.250000 0.500000 2.436328 12.908383 1.129245 0.075840
4968.497000 4968.500000 0.500000 2.437115 12.912403 1.128717 0.074408
4968.751000 4968.750000 0.500000 2.438627 12.913940 1.127133 0.072917
4968.998000 4969.000000 0.500000 2.440520 12.916860 1.125280 0.071920
4969.252000 4969.250000 0.500000 2.441724 12.919772 1.124158 0.070911
4969.497000 4969.500000 0.500000 2.441983 12.930998 1.124847 0.070388
4969.748000 4969.750000 0.500000 2.440874 12.932100 1.126187 0.069827
4969.999000 4970.000000 0.500000 2.439404 12.937605 1.128322 0.069570
4970.250000 4970.250000 0.500000 2.438471 12.947015 1.130201 0.069391
4970.499000 4970.500000 0.500000 2.438050 12.958842 1.131707 0.069250
4970.753000 4970.750000 0.500000 2.437831 12.976076 1.133459 0.069132
4971.000000 4971.000000 0.500000 2.438132 12.982507 1.133685 0.068620
4971.252000 4971.250000 0.500000 2.438612 12.989287 1.133715 0.067930
4971.498000 4971.500000 0.500000 2.439742 12.997327 1.133152 0.066990
4971.749000 4971.750000 0.500000 2.441228 13.003158 1.131967 0.065852
4972.001000 4972.000000 0.500000 2.442820 13.008156 1.130607 0.064342
4972.250000 4972.250000 0.500000 2.444302 13.010428 1.129138 0.062970
4972.499000 4972.500000 0.500000 2.445836 13.014974 1.127806 0.061621
4972.753000 4972.750000 0.500000 2.446715 13.017800 1.127046 0.060069
4973.001000 4973.000000 0.500000 2.447319 13.022764 1.126798 0.058816
4973.248000 4973.250000 0.500000 2.447653 13.026883 1.126778 0.057544
4973.499000 4973.500000 0.500000 2.447564 13.029236 1.127081 0.056379
4973.748000 4973.750000 0.500000 2.447459 13.044068 1.128483 0.055147
4974.001000 4974.000000 0.500000 2.447084 13.048222 1.129265 0.054166
4974.250000 4974.250000 0.500000 2.446569 13.050466 1.130038 0.053227
4974.504000 4974.500000 0.500000 2.445685 13.054291 1.131381 0.052372
4974.751000 4974.750000 0.500000 2.444643 13.056149 1.132713 0.051276
4975.002000 4975.000000 0.500000 2.443575 13.057421 1.134040 0.050392
4975.246000 4975.250000 0.500000 2.442458 13.057556 1.135304 0.049458
4975.500000 4975.500000 0.500000 2.441401 13.058302 1.136577 0.048520
4975.750000 4975.750000 0.500000 2.440726 13.060094 1.137500 0.047562
4976.002000 4976.000000 0.500000 2.440108 13.061881 1.138359 0.046785
4976.251000 4976.250000 0.500000 2.439992 13.062608 1.138556 0.045945
4976.501000 4976.500000 0.500000 2.439922 13.061387 1.138530 0.045314
4976.750000 4976.750000 0.500000 2.440038 13.062457 1.138493 0.044480
4977.001000 4977.000000 0.500000 2.440419 13.064781 1.138259 0.043881
4977.249000 4977.250000 0.500000 2.440894 13.067966 1.137998 0.043372
4977.498000 4977.500000 0.500000 2.441403 13.069373 1.137547 0.042781
4977.753000 4977.750000 0.500000 2.442511 13.072372 1.136526 0.042349
4978.002000 4978.000000 0.500000 2.444022 13.088390 1.136216 0.041900
4978.252000 4978.250000 0.500000 2.445530 13.092844 1.134878 0.041694
4978.499000 4978.500000 0.500000 2.447772 13.095029 1.132549 0.041108
4978.749000 4978.750000 0.500000 2.450622 13.096234 1.129424 0.040816
4978.999000 4979.000000 0.500000 2.453760 13.096382 1.125901 0.040370
4979.251000 4979.250000 0.500000 2.457346 13.097412 1.121937 0.040130
4979.502000 4979.500000 0.500000 2.461435 13.097458 1.117359 0.039735
4979.751000 4979.750000 0.500000 2.466100 13.096126 1.112082 0.039371
4980.000000 4980.000000 0.500000 2.470865 13.093151 1.106555 0.039063
4980.253000 4980.250000 0.500000 2.476227 13.091478 1.100440 0.038661
4980.500000 4980.500000 0.500000 2.481873 13.090802 1.094212 0.038387
4980.749000 4980.750000 0.500000 2.488174 13.092486 1.087502 0.038099
4981.002000 4981.000000 0.500000 2.495292 13.104112 1.080670 0.037573
4981.253000 4981.250000 0.500000 2.502844 13.109115 1.072952 0.037121
4981.502000 4981.500000 0.500000 2.511563 13.108770 1.063634 0.036833
4981.752000 4981.750000 0.500000 2.521549 13.110738 1.053250 0.036322
4982.002000 4982.000000 0.500000 2.532129 13.114071 1.042395 0.035597
4982.252000 4982.250000 0.500000 2.543362 13.118967 1.031079 0.035302
4982.500000 4982.500000 0.500000 2.555265 13.123365 1.019259 0.034736
4982.748000 4982.750000 0.500000 2.567498 13.126718 1.007269 0.034253
4983.003000 4983.000000 0.500000 2.578748 13.126481 0.995828 0.033753
4983.252000 4983.250000 0.500000 2.588386 13.127146 0.986400 0.033310
4983.503000 4983.500000 0.500000 2.596567 13.127209 0.978344 0.033092
4983.752000 4983.750000 0.500000 2.601913 13.130085 0.973362 0.033032
4984.003000 4984.000000 0.500000 2.605108 13.130628 0.970286 0.032872
4984.249000 4984.250000 0.500000 2.606068 13.142372 0.970231 0.032961
4984.499000 4984.500000 0.500000 2.606023 13.143249 0.970338 0.033079
4984.749000 4984.750000 0.500000 2.604174 13.145430 0.972278 0.033256
4985.003000 4985.000000 0.500000 2.601976 13.147798 0.974614 0.033500
4985.254000 4985.250000 0.500000 2.599105 13.152178 0.977751 0.033716
4985.504000 4985.500000 0.500000 2.595497 13.154354 0.981466 0.034253
4985.750000 4985.750000 0.500000 2.591369 13.157418 0.985700 0.034508
4986.002000 4986.000000 0.500000 2.586829 13.159388 0.990383 0.034832
4986.251000 4986.250000 0.500000 2.582054 13.160769 0.995201 0.035142
4986.500000 4986.500000 0.500000 2.577398 13.158605 0.999673 0.035566
4986.750000 4986.750000 0.500000 2.572891 13.156443 1.004003 0.035882
4987.003000 4987.000000 0.500000 2.569120 13.157128 1.007880 0.036039
4987.251000 4987.250000 0.500000 2.566310 13.156494 1.010649 0.036273
4987.503000 4987.500000 0.500000 2.564135 13.168098 1.013760 0.036401
4987.748000 4987.750000 0.500000 2.562400 13.171009 1.015724 0.036595
4988.001000 4988.000000 0.500000 2.561240 13.173213 1.017091 0.036666
4988.249000 4988.250000 0.500000 2.560432 13.181283 1.018534 0.036745
4988.501000 4988.500000 0.500000 2.559694 13.189569 1.019929 0.036738
4988.751000 4988.750000 0.500000 2.558983 13.200290 1.021483 0.037004
4989.001000 4989.000000 0.500000 2.558402 13.209974 1.022826 0.036869
4989.252000 4989.250000 0.500000 2.557156 13.222342 1.025062 0.036955
4989.500000 4989.500000 0.500000 2.556430 13.233988 1.026704 0.037061
4989.749000 4989.750000 0.500000 2.555613 13.245489 1.028437 0.037197
4990.001000 4990.000000 0.500000 2.554881 13.258121 1.030175 0.037385
4990.249000 4990.250000 0.500000 2.554804 13.271426 1.031288 0.037443
4990.502000 4990.500000 0.500000 2.555038 13.282856 1.031934 0.037444
4990.751000 4990.750000 0.500000 2.555904 13.293133 1.031843 0.037398
4991.002000 4991.000000 0.500000 2.557440 13.305117 1.031189 0.037583
4991.252000 4991.250000 0.500000 2.558928 13.314499 1.030376 0.037603
4991.499000 4991.500000 0.500000 2.561014 13.323391 1.028932 0.037686
4991.748000 4991.750000 0.500000 2.563128 13.333603 1.027546 0.037719
4991.999000 4992.000000 0.500000 2.565205 13.351920 1.026812 0.037510
4992.252000 4992.250000 0.500000 2.566925 13.374015 1.026736 0.037553
4992.501000 4992.500000 0.500000 2.568384 13.377954 1.025546 0.037605
4992.753000 4992.750000 0.500000 2.569275 13.386583 1.025292 0.037616
4993.001000 4993.000000 0.500000 2.569671 13.392565 1.025345 0.037729
4993.252000 4993.250000 0.500000 2.569967 13.400031 1.025613 0.037614
4993.498000 4993.500000 0.500000 2.569749 13.404402 1.026169 0.037572
4993.751000 4993.750000 0.500000 2.569463 13.408313 1.026769 0.037509
4994.001000 4994.000000 0.500000 2.568443 13.414938 1.028320 0.037737
4994.253000 4994.250000 0.500000 2.567649 13.418328 1.029402 0.037650
4994.502000 4994.500000 0.500000 2.566352 13.423793 1.031147 0.037663
4994.752000 4994.750000 0.500000 2.565244 13.426849 1.032527 0.037416
4995.004000 4995.000000 0.500000 2.563849 13.430518 1.034263 0.037513
4995.249000 4995.250000 0.500000 2.562716 13.434245 1.035699 0.037208
4995.500000 4995.500000 0.500000 2.561605 13.439639 1.037279 0.037130
4995.751000 4995.750000 0.500000 2.560446 13.458961 1.039980 0.037086
4996.003000 4996.000000 0.700000 2.559566 18.817100 1.455283 0.051662
4997.092000 4997.080000 0.710000 2.558372 19.108628 1.479592 0.050884
4998.188000 4998.180000 0.730000 2.558962 19.681147 1.523034 0.051095
4999.295000 4999.290000 0.740000 2.556653 19.978563 1.549619 0.051376
5000.436000 5000.430000 0.750000 2.552066 20.288432 1.580879 0.052246
5001.590000 5001.580000 0.760000 2.547771 20.608503 1.612749 0.053630
5002.765000 5002.760000 0.780000 2.544390 21.199783 1.664623 0.055810
5003.957000 5003.950000 0.790000 2.540341 21.527325 1.697207 0.057068
5005.167000 5005.160000 0.800000 2.533843 21.861264 1.734774 0.059027
5006.396000 5006.390000 0.810000 2.523869 22.196340 1.779041 0.062129
5007.646000 5007.640000 0.830000 2.513198 22.804721 1.847370 0.066386
5008.919000 5008.910000 0.840000 2.504011 23.133857 1.891373 0.069766
5010.206000 5010.200000 0.850000 2.495700 23.465873 1.934514 0.072728
5011.514000 5011.510000 0.860000 2.490625 23.796855 1.971760 0.074988
5012.838000 5012.830000 0.880000 2.486514 24.410936 2.031005 0.077939
5014.186000 5014.180000 0.890000 2.480225 24.734292 2.070874 0.080190
5015.546000 5015.540000 0.900000 2.473957 25.073162 2.112449 0.082422
5016.934000 5016.930000 0.910000 2.469676 25.406542 2.149698 0.084829
5018.334000 5018.330000 0.930000 2.466224 26.025048 2.209647 0.088203
5019.757000 5019.750000 0.940000 2.461997 26.369760 2.248422 0.090345
5021.194000 5021.190000 0.950000 2.456932 26.712523 2.289202 0.092806
5022.653000 5022.650000 0.960000 2.453045 27.054156 2.327494 0.094696
5024.136000 5024.130000 0.980000 2.451276 27.683300 2.385841 0.097373
5025.635000 5025.630000 0.990000 2.451621 28.053616 2.416924 0.098226
5027.145000 5027.140000 1.000000 2.452307 28.408111 2.445786 0.099011
5028.683000 5028.680000 1.010000 2.452020 28.759159 2.476721 0.099743
5030.240000 5030.240000 1.030000 2.450367 29.391232 2.535333 0.100772
5031.813000 5031.810000 1.040000 2.447305 29.746615 2.573858 0.100271
5033.403000 5033.400000 1.050000 2.444006 30.103389 2.613340 0.099732
5035.014000 5035.010000 1.060000 2.441047 30.465343 2.652602 0.099226
5036.656000 5036.650000 1.080000 2.439134 31.114517 2.714312 0.099879
5038.302000 5038.300000 1.090000 2.439322 31.485375 2.746152 0.100244
5039.974000 5039.970000 1.100000 2.440825 31.855693 2.774283 0.101201
5041.658000 5041.650000 1.110000 2.440742 32.253698 2.809174 0.102883
5043.366000 5043.360000 1.130000 2.438172 32.915897 2.874254 0.106578
5045.090000 5045.090000 1.140000 2.433803 33.293253 2.919896 0.109774
5046.830000 5046.830000 1.150000 2.428363 33.667814 2.968888 0.113788
5048.607000 5048.600000 1.160000 2.423532 34.051293 3.017264 0.118535
5050.376000 5050.380000 1.180000 2.421432 34.727083 3.083569 0.124097
5052.176000 5052.180000 1.190000 2.420931 35.112782 3.119375 0.128502
5053.993000 5054.000000 1.200000 2.421578 35.506159 3.152288 0.132375
5055.832000 5055.840000 1.210000 2.422954 35.901613 3.183019 0.135319
5057.693000 5057.700000 1.230000 2.423861 36.637900 3.245347 0.138795
5059.570000 5059.580000 1.240000 2.422755 37.042466 3.284804 0.140839
5061.474000 5061.480000 1.250000 2.418063 37.446274 3.336224 0.143442
5063.394000 5063.400000 1.260000 2.410629 37.851950 3.397515 0.147068
5065.325000 5065.330000 1.280000 2.402442 38.573027 3.490714 0.152591
5067.282000 5067.290000 1.290000 2.395070 38.990521 3.554576 0.156635
5069.252000 5069.260000 1.300000 2.389669 39.410907 3.612371 0.160422
5071.251000 5071.260000 1.310000 2.386586 39.832359 3.662277 0.163535
5073.260000 5073.270000 1.330000 2.385287 40.600538 3.737780 0.167083
5075.295000 5075.300000 1.340000 2.384493 41.023741 3.779754 0.168257
5077.343000 5077.350000 1.350000 2.382141 41.448522 3.827868 0.169023
5079.413000 5079.420000 1.360000 2.377355 41.874101 3.885728 0.169237
5081.506000 5081.510000 1.380000 2.371466 42.613190 3.977681 0.170813
5083.604000 5083.610000 1.390000 2.365253 43.036886 4.042268 0.170532
5085.735000 5085.740000 1.400000 2.358338 43.468405 4.111118 0.170523
5087.885000 5087.890000 1.410000 2.351727 43.898319 4.179330 0.170806
5090.047000 5090.050000 1.430000 2.346079 44.693184 4.279122 0.173945
5092.228000 5092.230000 1.440000 2.341721 45.151052 4.341840 0.177013
5094.444000 5094.440000 1.450000 2.337816 45.606338 4.402819 0.182598
5096.661000 5096.660000 1.460000 2.333709 46.051018 4.464010 0.190147
5098.900000 5098.900000 1.480000 2.329419 46.808334 4.556910 0.200240
5101.159000 5101.160000 1.490000 2.325093 47.255870 4.620394 0.209049
5103.438000 5103.440000 1.500000 2.320690 47.714567 4.685820 0.217380
5105.740000 5105.740000 1.510000 2.316388 48.167592 4.750720 0.223493
5108.049000 5108.050000 1.530000 2.312879 48.976585 4.847487 0.229133
5110.393000 5110.390000 1.540000 2.309222 49.445456 4.911845 0.232879
5112.743000 5112.740000 1.550000 2.305438 49.908671 4.976663 0.236657
5115.125000 5115.120000 1.560000 2.301714 50.396313 5.044050 0.240377
5117.512000 5117.510000 1.580000 2.298582 51.205464 5.141080 0.245701
5119.920000 5119.920000 1.590000 2.295692 51.670077 5.202734 0.249408
5122.351000 5122.350000 1.600000 2.292906 52.132854 5.263978 0.253741
5124.803000 5124.800000 1.610000 2.290640 52.603635 5.323582 0.258272
5127.275000 5127.270000 1.630000 2.288769 53.410358 5.415364 0.264330
5129.763000 5129.760000 1.640000 2.285990 53.879896 5.478157 0.269128
5132.272000 5132.270000 1.650000 2.282189 54.355831 5.547592 0.273462
