# XDI/1.0 BlueSky/1.5.0
# Beamline.name: 6BM
# Beamline.xray_source: NSLS-II three-pole wiggler
# Beamline.collimation: paraboloid mirror, 5 nm Rh on 30 nm Pt
# Beamline.focusing: not in use
# Beamline.harmonic_rejection: flat mirror, Si stripe, pitch = 7.0 mrad relative to beam
# Detector.i0: 10 cm N2
# Detector.i1: 25 cm N2
# Detector.i2: 25 cm N2
# Element.symbol: Ti
# Element.edge: K
# Facility.name: NSLS-II
# Facility.energy: 3.0
# Facility.current: 220.9
# Facility.mode: top-off
# Facility.gup: 301027
# Facility.saf: 304156
# Mono.name: Si(111)
# Mono.d_spacing: 3.1352584
# Mono.encoder_resolution: 0.0000050 deg/ct
# Mono.angle_offset: 16.0571090 deg
# Mono.scan_mode: pseudo channel cut
# Mono.scan_type: step
# Mono.direction: forward in energy
# Sample.name: Dy2TiO5
# Sample.prep: Powder in polyethylene glycol pellet
# Sample.x_position: -97.532 mm
# Sample.y_position: 117.543 mm
# Sample.wheel_position: -645.000 mm
# Scan.experimenters: Bruce Ravel, Martin Stennett
# Scan.edge_energy: 4966.0
# Scan.start_time: 2019-05-30T05:51:49
# Scan.end_time: 2019-05-30T06:34:29
# Scan.transient_id: 9797
# Scan.uid: 36538793-e70c-4f34-a315-29e40954a34b
# Scan.plot_hint: ln(I0/It)  --  ln($5/$6)
# Scan.sequence: merge of 3 scans
# Column.1: energy eV
# Column.2: requested_energy eV
# Column.3: measurement_time seconds
# Column.4: mutrans
# Column.5: i0
# Column.6: itrans
# Column.7: irefer
# /////
#  sample disk prepared by Martin
# -----
# energy   requested_energy   measurement_time   mutrans   i0   itrans   irefer
4765.994000 4766.000000 0.500000 3.814353 11.019308 0.243065 0.020090
4775.967000 4776.000000 0.500000 3.805574 11.208967 0.249359 0.020764
4786.008000 4786.000000 0.500000 3.780141 11.426998 0.260758 0.021903
4796.008000 4796.000000 0.500000 3.755212 11.643861 0.272414 0.022852
4806.007000 4806.000000 0.500000 3.729459 11.889921 0.285427 0.024479
4816.006000 4816.000000 0.500000 3.703589 12.104204 0.298186 0.025683
4826.005000 4826.000000 0.500000 3.679788 12.316132 0.310718 0.027077
4836.000000 4836.000000 0.500000 3.654151 12.544436 0.324693 0.028859
4846.000000 4846.000000 0.500000 3.629598 12.775669 0.338899 0.030571
4855.999000 4856.000000 0.500000 3.605855 12.993132 0.352944 0.032189
4866.008000 4866.000000 0.500000 3.582092 13.212101 0.367527 0.033778
4876.006000 4876.000000 0.500000 3.559101 13.430555 0.382296 0.035574
4886.004000 4886.000000 0.500000 3.535834 13.641968 0.397451 0.037174
4896.005000 4896.000000 0.500000 3.511954 13.843329 0.413068 0.039340
4906.002000 4906.000000 0.500000 3.488825 14.041560 0.428784 0.041220
4916.002000 4916.000000 0.500000 3.465731 14.237255 0.444918 0.043413
4926.002000 4926.000000 0.500000 3.443569 14.435750 0.461230 0.045436
4936.002000 4936.000000 0.500000 3.421148 14.625713 0.477894 0.047768
4938.001000 4938.000000 0.500000 3.416946 14.663857 0.481159 0.048162
4939.999000 4940.000000 0.500000 3.412023 14.699384 0.484705 0.048807
4941.997000 4942.000000 0.500000 3.407602 14.733158 0.487972 0.049224
4943.994000 4944.000000 0.500000 3.402978 14.769511 0.491437 0.049563
4946.007000 4946.000000 0.500000 3.398076 14.801813 0.494939 0.049960
4947.995000 4948.000000 0.500000 3.393964 14.830015 0.497916 0.050513
4950.007000 4950.000000 0.500000 3.390071 14.869057 0.501183 0.050725
4952.004000 4952.000000 0.500000 3.385881 14.901961 0.504399 0.050867
4954.006000 4954.000000 0.500000 3.381433 14.932269 0.507683 0.051447
4956.003000 4956.000000 0.500000 3.376854 14.961084 0.510993 0.051969
4956.246000 4956.250000 0.500000 3.376517 14.961194 0.511168 0.052269
4956.495000 4956.500000 0.500000 3.376417 14.965520 0.511367 0.052003
4956.745000 4956.750000 0.500000 3.375645 14.968038 0.511848 0.052147
4956.995000 4957.000000 0.500000 3.374835 14.971499 0.512381 0.051958
4957.247000 4957.250000 0.500000 3.374781 14.972834 0.512457 0.052161
4957.496000 4957.500000 0.500000 3.374096 14.975993 0.512914 0.052079
4957.744000 4957.750000 0.500000 3.373631 14.980616 0.513309 0.052289
4957.997000 4958.000000 0.500000 3.372525 14.984614 0.514016 0.052221
4958.244000 4958.250000 0.500000 3.372247 15.017538 0.515289 0.052481
4958.495000 4958.500000 0.500000 3.371545 15.022672 0.515827 0.052564
4958.744000 4958.750000 0.500000 3.371265 15.025056 0.516052 0.052521
4958.996000 4959.000000 0.500000 3.370707 15.029401 0.516492 0.052410
4959.248000 4959.250000 0.500000 3.370066 15.032624 0.516933 0.052513
4959.498000 4959.500000 0.500000 3.369855 15.033183 0.517061 0.052522
4959.748000 4959.750000 0.500000 3.368827 15.036031 0.517695 0.052579
4959.999000 4960.000000 0.500000 3.368062 15.039620 0.518211 0.052551
4960.245000 4960.250000 0.500000 3.367589 15.042019 0.518538 0.052875
4960.495000 4960.500000 0.500000 3.366833 15.045495 0.519049 0.052847
4960.746000 4960.750000 0.500000 3.366830 15.050911 0.519241 0.052748
4960.995000 4961.000000 0.500000 3.366292 15.056124 0.519697 0.052620
4961.248000 4961.250000 0.500000 3.365098 15.056046 0.520318 0.052762
4961.498000 4961.500000 0.500000 3.364344 15.061109 0.520883 0.052929
4961.748000 4961.750000 0.500000 3.364738 15.064916 0.520811 0.052443
4961.997000 4962.000000 0.500000 3.363719 15.070913 0.521549 0.052674
4962.247000 4962.250000 0.500000 3.363405 15.074150 0.521825 0.052594
4962.495000 4962.500000 0.500000 3.362837 15.080410 0.522338 0.052545
4962.745000 4962.750000 0.500000 3.362337 15.085159 0.522763 0.052220
4962.995000 4963.000000 0.500000 3.362121 15.087877 0.522970 0.052038
4963.249000 4963.250000 0.500000 3.361086 15.091961 0.523654 0.052073
4963.497000 4963.500000 0.500000 3.361039 15.096927 0.523850 0.051419
4963.749000 4963.750000 0.500000 3.360256 15.100941 0.524401 0.050846
4963.998000 4964.000000 0.500000 3.359981 15.106132 0.524725 0.049961
4964.246000 4964.250000 0.500000 3.358715 15.108285 0.525459 0.048567
4964.498000 4964.500000 0.500000 3.358413 15.112928 0.525785 0.046089
4964.747000 4964.750000 0.500000 3.358312 15.113348 0.525853 0.042833
4964.996000 4965.000000 0.500000 3.358075 15.118329 0.526152 0.039587
4965.250000 4965.250000 0.500000 3.357602 15.122374 0.526541 0.037088
4965.498000 4965.500000 0.500000 3.357355 15.126752 0.526823 0.036385
4965.749000 4965.750000 0.500000 3.357503 15.130829 0.526887 0.036305
4965.999000 4966.000000 0.500000 3.356490 15.133185 0.527503 0.037877
4966.249000 4966.250000 0.500000 3.356352 15.133397 0.527582 0.039343
4966.499000 4966.500000 0.500000 3.356940 15.136929 0.527396 0.040186
4966.749000 4966.750000 0.500000 3.357332 15.137131 0.527198 0.041140
4966.999000 4967.000000 0.500000 3.358972 15.140659 0.526452 0.041450
4967.251000 4967.250000 0.500000 3.360398 15.144350 0.525831 0.041394
4967.500000 4967.500000 0.500000 3.361539 15.142379 0.525168 0.041293
4967.753000 4967.750000 0.500000 3.363453 15.146618 0.524302 0.040729
4967.998000 4968.000000 0.500000 3.365161 15.155416 0.523722 0.040061
4968.250000 4968.250000 0.500000 3.365956 15.157406 0.523373 0.039291
4968.497000 4968.500000 0.500000 3.365225 15.162115 0.523913 0.038830
4968.747000 4968.750000 0.500000 3.363805 15.162013 0.524653 0.038066
4969.000000 4969.000000 0.500000 3.363467 15.159888 0.524760 0.037739
4969.247000 4969.250000 0.500000 3.362957 15.158695 0.524983 0.037204
4969.501000 4969.500000 0.500000 3.361313 15.158598 0.525849 0.036922
4969.750000 4969.750000 0.500000 3.360115 15.159560 0.526507 0.036761
4970.002000 4970.000000 0.500000 3.357854 15.164151 0.527869 0.036568
4970.248000 4970.250000 0.500000 3.356280 15.171500 0.528946 0.036482
4970.500000 4970.500000 0.500000 3.354427 15.180623 0.530251 0.036711
4970.749000 4970.750000 0.500000 3.353836 15.189461 0.530870 0.036497
4971.002000 4971.000000 0.500000 3.352801 15.200732 0.531817 0.036208
4971.251000 4971.250000 0.500000 3.351900 15.208147 0.532553 0.036149
4971.503000 4971.500000 0.500000 3.351816 15.212835 0.532766 0.035488
4971.751000 4971.750000 0.500000 3.351449 15.216672 0.533095 0.034925
4972.000000 4972.000000 0.500000 3.351337 15.247197 0.534224 0.034365
4972.250000 4972.250000 0.500000 3.351491 15.257087 0.534487 0.033715
4972.500000 4972.500000 0.500000 3.351798 15.262420 0.534510 0.033108
4972.751000 4972.750000 0.500000 3.351755 15.265615 0.534644 0.032195
4973.002000 4973.000000 0.500000 3.352195 15.268083 0.534496 0.031635
4973.252000 4973.250000 0.500000 3.352301 15.271997 0.534576 0.030986
4973.501000 4973.500000 0.500000 3.352479 15.271457 0.534463 0.030318
4973.749000 4973.750000 0.500000 3.351995 15.276257 0.534888 0.029939
4973.998000 4974.000000 0.500000 3.351313 15.279434 0.535364 0.029426
4974.250000 4974.250000 0.500000 3.352132 15.281045 0.534986 0.028913
4974.499000 4974.500000 0.500000 3.351969 15.281632 0.535091 0.028178
4974.753000 4974.750000 0.500000 3.351827 15.285265 0.535295 0.027631
4975.002000 4975.000000 0.500000 3.351894 15.285204 0.535256 0.027172
4975.254000 4975.250000 0.500000 3.352140 15.285340 0.535129 0.026491
4975.500000 4975.500000 0.500000 3.352089 15.285380 0.535159 0.026107
4975.750000 4975.750000 0.500000 3.351918 15.284852 0.535231 0.025671
4976.000000 4976.000000 0.500000 3.352331 15.282255 0.534921 0.025455
4976.253000 4976.250000 0.500000 3.352700 15.280992 0.534677 0.024786
4976.500000 4976.500000 0.500000 3.352887 15.283575 0.534669 0.024374
4976.752000 4976.750000 0.500000 3.352481 15.285505 0.534953 0.024128
4977.000000 4977.000000 0.500000 3.353051 15.283180 0.534569 0.023638
4977.251000 4977.250000 0.500000 3.353770 15.284939 0.534246 0.023329
4977.500000 4977.500000 0.500000 3.354226 15.287665 0.534096 0.023249
4977.750000 4977.750000 0.500000 3.354691 15.326818 0.535216 0.023021
4978.002000 4978.000000 0.500000 3.355591 15.327574 0.534756 0.022722
4978.251000 4978.250000 0.500000 3.356601 15.332876 0.534405 0.022556
4978.503000 4978.500000 0.500000 3.357233 15.334842 0.534136 0.022505
4978.753000 4978.750000 0.500000 3.357702 15.332455 0.533800 0.022077
4979.004000 4979.000000 0.500000 3.359551 15.333921 0.532868 0.021921
4979.251000 4979.250000 0.500000 3.360070 15.333504 0.532577 0.021847
4979.502000 4979.500000 0.500000 3.361306 15.332029 0.531862 0.022179
4979.747000 4979.750000 0.500000 3.363163 15.327929 0.530745 0.021852
4980.002000 4980.000000 0.500000 3.364872 15.327575 0.529818 0.021633
4980.250000 4980.250000 0.500000 3.367007 15.324834 0.528605 0.021562
4980.503000 4980.500000 0.500000 3.369470 15.324258 0.527269 0.021427
4980.750000 4980.750000 0.500000 3.372254 15.321622 0.525734 0.021363
4981.000000 4981.000000 0.500000 3.375409 15.320277 0.524017 0.021285
4981.251000 4981.250000 0.500000 3.379294 15.319616 0.521965 0.021069
4981.501000 4981.500000 0.500000 3.382315 15.320625 0.520404 0.021066
4981.751000 4981.750000 0.500000 3.386939 15.320757 0.518025 0.020731
4982.003000 4982.000000 0.500000 3.391477 15.323574 0.515765 0.020575
4982.253000 4982.250000 0.500000 3.395888 15.326678 0.513611 0.020517
4982.503000 4982.500000 0.500000 3.400895 15.330096 0.511149 0.020247
4982.748000 4982.750000 0.500000 3.405592 15.332232 0.508856 0.020286
4983.002000 4983.000000 0.500000 3.410275 15.334017 0.506497 0.020187
4983.248000 4983.250000 0.500000 3.414021 15.334258 0.504645 0.020131
4983.504000 4983.500000 0.500000 3.417590 15.329711 0.502669 0.019770
4983.749000 4983.750000 0.500000 3.420343 15.327780 0.501246 0.019949
4984.003000 4984.000000 0.500000 3.422261 15.326554 0.500235 0.020064
4984.250000 4984.250000 0.500000 3.423652 15.328390 0.499603 0.020022
4984.504000 4984.500000 0.500000 3.423910 15.326174 0.499403 0.020020
4984.750000 4984.750000 0.500000 3.423540 15.326317 0.499589 0.019938
4985.000000 4985.000000 0.500000 3.421857 15.328840 0.500511 0.020312
4985.248000 4985.250000 0.500000 3.420807 15.331698 0.501128 0.020157
4985.505000 4985.500000 0.500000 3.418065 15.335846 0.502649 0.020435
4985.751000 4985.750000 0.500000 3.416160 15.336044 0.503605 0.020498
4986.004000 4986.000000 0.500000 3.413626 15.334296 0.504833 0.020676
4986.251000 4986.250000 0.500000 3.410137 15.334510 0.506592 0.020776
4986.503000 4986.500000 0.500000 3.407298 15.331791 0.507956 0.021079
4986.749000 4986.750000 0.500000 3.405687 15.330163 0.508712 0.021065
4987.001000 4987.000000 0.500000 3.403595 15.358516 0.510727 0.021214
4987.250000 4987.250000 0.500000 3.401029 15.364201 0.512219 0.021408
4987.504000 4987.500000 0.500000 3.399382 15.362678 0.513020 0.021496
4987.754000 4987.750000 0.500000 3.397321 15.361995 0.514057 0.021602
4988.004000 4988.000000 0.500000 3.397039 15.368042 0.514404 0.021342
4988.252000 4988.250000 0.500000 3.395469 15.373458 0.515394 0.021667
4988.501000 4988.500000 0.500000 3.394771 15.380660 0.515993 0.021589
4988.749000 4988.750000 0.500000 3.394632 15.389785 0.516372 0.021797
4989.002000 4989.000000 0.500000 3.393857 15.403415 0.517231 0.021651
4989.252000 4989.250000 0.500000 3.393655 15.415558 0.517743 0.021711
4989.505000 4989.500000 0.500000 3.393495 15.426892 0.518204 0.021870
4989.753000 4989.750000 0.500000 3.393594 15.435597 0.518446 0.021692
4990.002000 4990.000000 0.500000 3.393531 15.450508 0.518981 0.021606
4990.252000 4990.250000 0.500000 3.393431 15.461341 0.519397 0.021925
4990.499000 4990.500000 0.500000 3.394101 15.474547 0.519492 0.021546
4990.750000 4990.750000 0.500000 3.393803 15.485159 0.520003 0.021907
4991.000000 4991.000000 0.500000 3.393645 15.497148 0.520488 0.021989
4991.253000 4991.250000 0.500000 3.394218 15.505991 0.520487 0.022150
4991.502000 4991.500000 0.500000 3.394103 15.518274 0.520959 0.022057
4991.752000 4991.750000 0.500000 3.395062 15.526831 0.520750 0.021923
4992.001000 4992.000000 0.500000 3.395152 15.538397 0.521087 0.021966
4992.251000 4992.250000 0.500000 3.395941 15.544041 0.520866 0.022281
4992.498000 4992.500000 0.500000 3.396277 15.549105 0.520860 0.022129
4992.752000 4992.750000 0.500000 3.396752 15.558057 0.520911 0.022156
4993.001000 4993.000000 0.500000 3.397407 15.562934 0.520736 0.022137
4993.254000 4993.250000 0.500000 3.397859 15.566623 0.520622 0.022192
4993.504000 4993.500000 0.500000 3.398115 15.570258 0.520611 0.022053
4993.753000 4993.750000 0.500000 3.398503 15.578245 0.520675 0.022158
4994.002000 4994.000000 0.500000 3.399212 15.582862 0.520461 0.022224
4994.249000 4994.250000 0.500000 3.399185 15.586352 0.520591 0.022108
4994.502000 4994.500000 0.500000 3.400079 15.588344 0.520191 0.022075
4994.749000 4994.750000 0.500000 3.400675 15.597389 0.520190 0.021872
4995.002000 4995.000000 0.500000 3.400299 15.597816 0.520394 0.021810
4995.250000 4995.250000 0.500000 3.400414 15.600819 0.520436 0.021866
4995.503000 4995.500000 0.500000 3.400287 15.602262 0.520548 0.021636
4995.751000 4995.750000 0.500000 3.399893 15.607363 0.520924 0.021423
4996.000000 4996.000000 0.700000 3.399389 21.838635 0.729271 0.029941
4997.092000 4997.080000 0.710000 3.395608 22.177787 0.743404 0.030010
4998.182000 4998.180000 0.730000 3.390303 22.803087 0.768420 0.030334
4999.298000 4999.290000 0.740000 3.384528 23.135424 0.784142 0.030522
5000.436000 5000.430000 0.750000 3.379767 23.475278 0.799455 0.030907
5001.584000 5001.580000 0.760000 3.376416 23.833959 0.814393 0.031684
5002.768000 5002.760000 0.780000 3.373395 24.513756 0.840161 0.032723
5003.957000 5003.950000 0.790000 3.370360 24.886779 0.855539 0.033397
5005.166000 5005.160000 0.800000 3.366148 25.262987 0.872134 0.034413
5006.397000 5006.390000 0.810000 3.360984 25.640673 0.889754 0.035828
5007.648000 5007.640000 0.830000 3.356028 26.335578 0.918414 0.037865
5008.914000 5008.910000 0.840000 3.351675 26.705914 0.935384 0.039704
5010.208000 5010.200000 0.850000 3.344906 27.082242 0.955011 0.041088
5011.518000 5011.510000 0.860000 3.338784 27.460348 0.974292 0.042730
5012.836000 5012.830000 0.880000 3.334053 28.211414 1.005688 0.044096
5014.185000 5014.180000 0.890000 3.330268 28.580994 1.022720 0.045170
5015.549000 5015.540000 0.900000 3.327382 28.956582 1.039169 0.046306
5016.936000 5016.930000 0.910000 3.324293 29.334947 1.055995 0.047570
5018.336000 5018.330000 0.930000 3.321727 30.038085 1.084085 0.049185
5019.757000 5019.750000 0.940000 3.317712 30.425425 1.102482 0.050391
5021.193000 5021.190000 0.950000 3.313211 30.813893 1.121604 0.051565
5022.649000 5022.650000 0.960000 3.308979 31.202688 1.140549 0.052582
5024.127000 5024.130000 0.980000 3.305084 31.920978 1.171371 0.054127
5025.637000 5025.630000 0.990000 3.301688 32.309406 1.189666 0.054837
5027.138000 5027.140000 1.000000 3.298797 32.697133 1.207420 0.055532
5028.689000 5028.680000 1.010000 3.295923 33.105065 1.226025 0.055998
5030.240000 5030.240000 1.030000 3.293547 33.817316 1.255363 0.056642
5031.815000 5031.810000 1.040000 3.290789 34.213069 1.273562 0.056504
5033.398000 5033.400000 1.050000 3.288058 34.614845 1.292036 0.055836
5035.011000 5035.010000 1.060000 3.284892 35.013708 1.311086 0.055865
5036.651000 5036.650000 1.080000 3.281503 35.740544 1.342834 0.056371
5038.292000 5038.300000 1.090000 3.278392 36.168915 1.363153 0.056467
5039.962000 5039.970000 1.100000 3.275560 36.572543 1.382277 0.057422
5041.645000 5041.650000 1.110000 3.273034 37.035948 1.403339 0.058247
5043.354000 5043.360000 1.130000 3.270588 37.776895 1.434915 0.060097
5045.089000 5045.090000 1.140000 3.268423 38.191297 1.453812 0.061876
5046.824000 5046.830000 1.150000 3.265412 38.605828 1.474015 0.063720
5048.597000 5048.600000 1.160000 3.262267 39.025677 1.494745 0.066114
5050.376000 5050.380000 1.180000 3.258862 39.790105 1.529220 0.069226
5052.176000 5052.180000 1.190000 3.255649 40.211393 1.550380 0.071777
5053.996000 5054.000000 1.200000 3.252254 40.645378 1.572440 0.073993
5055.835000 5055.840000 1.210000 3.248966 41.074697 1.594276 0.075787
5057.697000 5057.700000 1.230000 3.245655 41.854599 1.629944 0.078141
5059.575000 5059.580000 1.240000 3.241961 42.292892 1.653108 0.079228
5061.478000 5061.480000 1.250000 3.238160 42.733523 1.676697 0.080353
5063.396000 5063.400000 1.260000 3.234257 43.171385 1.700496 0.082516
5065.327000 5065.330000 1.280000 3.230673 43.966762 1.738045 0.084781
5067.286000 5067.290000 1.290000 3.226356 44.417515 1.763459 0.086549
5069.259000 5069.260000 1.300000 3.222053 44.871615 1.789172 0.088448
5071.258000 5071.260000 1.310000 3.217757 45.362902 1.816551 0.089964
5073.268000 5073.270000 1.330000 3.213098 46.231902 1.859987 0.092340
5075.298000 5075.300000 1.340000 3.208393 46.683988 1.887039 0.093416
5077.347000 5077.350000 1.350000 3.203990 47.149502 1.914262 0.094131
5079.419000 5079.420000 1.360000 3.198778 47.617659 1.943379 0.094297
5081.509000 5081.510000 1.380000 3.193742 48.438278 1.986848 0.094735
5083.609000 5083.610000 1.390000 3.188760 48.907814 2.016118 0.094472
5085.737000 5085.740000 1.400000 3.183420 49.389691 2.046884 0.094457
5087.890000 5087.890000 1.410000 3.178090 49.865468 2.077652 0.094674
5090.050000 5090.050000 1.430000 3.173120 50.705053 2.123172 0.095776
5092.228000 5092.230000 1.440000 3.168195 51.199196 2.154434 0.097774
5094.441000 5094.440000 1.450000 3.163614 51.714469 2.186115 0.100541
5096.662000 5096.660000 1.460000 3.158951 52.213333 2.217519 0.104391
5098.903000 5098.900000 1.480000 3.154084 53.072637 2.265021 0.110191
5101.161000 5101.160000 1.490000 3.149309 53.571708 2.297250 0.114916
5103.441000 5103.440000 1.500000 3.144893 54.092314 2.329841 0.119020
5105.743000 5105.740000 1.510000 3.140256 54.601075 2.362686 0.122436
5108.050000 5108.050000 1.530000 3.135915 55.476555 2.411005 0.125401
5110.389000 5110.390000 1.540000 3.131045 55.992256 2.445290 0.127460
5112.742000 5112.740000 1.550000 3.126551 56.514873 2.479240 0.129500
5115.122000 5115.120000 1.560000 3.121723 57.038177 2.514315 0.131480
5117.515000 5117.510000 1.580000 3.117079 57.930251 2.565539 0.134669
5119.921000 5119.920000 1.590000 3.112349 58.462736 2.601385 0.136860
5122.351000 5122.350000 1.600000 3.107664 58.996526 2.637460 0.139321
5124.799000 5124.800000 1.610000 3.102832 59.526411 2.674023 0.142053
5127.269000 5127.270000 1.630000 3.097773 60.437787 2.728741 0.145664
5129.762000 5129.760000 1.640000 3.092895 60.985716 2.766948 0.148511
