# XDI/1.0 BlueSky/1.5.0
# Beamline.name: 6BM
# Beamline.xray_source: NSLS-II three-pole wiggler
# Beamline.collimation: paraboloid mirror, 5 nm Rh on 30 nm Pt
# Beamline.focusing: not in use
# Beamline.harmonic_rejection: flat mirror, Si stripe, pitch = 7.0 mrad relative to beam
# Detector.i0: 10 cm N2
# Detector.i1: 25 cm N2
# Detector.i2: 25 cm N2
# Element.symbol: Ti
# Element.edge: K
# Facility.name: NSLS-II
# Facility.energy: 3.0
# Facility.current: 220.5
# Facility.mode: top-off
# Facility.gup: 301027
# Facility.saf: 304156
# Mono.name: Si(111)
# Mono.d_spacing: 3.1352584
# Mono.encoder_resolution: 0.0000050 deg/ct
# Mono.angle_offset: 16.0571090 deg
# Mono.scan_mode: pseudo channel cut
# Mono.scan_type: step
# Mono.direction: forward in energy
# Sample.name: TiO2 brookite
# Sample.prep: Powder in polyethylene glycol pellet
# Sample.x_position: -97.532 mm
# Sample.y_position: 117.543 mm
# Sample.wheel_position: -735.000 mm
# Scan.experimenters: Bruce Ravel, Martin Stennett
# Scan.edge_energy: 4966.0
# Scan.start_time: 2019-05-30T10:11:30
# Scan.end_time: 2019-05-30T10:54:23
# Scan.transient_id: 9815
# Scan.uid: a3135005-adc6-44da-9579-25aac24b68b7
# Scan.plot_hint: ln(I0/It)  --  ln($5/$6)
# Scan.sequence: merge of 3 scans
# Column.1: energy eV
# Column.2: requested_energy eV
# Column.3: measurement_time seconds
# Column.4: mutrans
# Column.5: i0
# Column.6: itrans
# Column.7: irefer
# /////
#  sample disk prepared by Martin
# -----
# energy   requested_energy   measurement_time   mutrans   i0   itrans   irefer
4765.995000 4766.000000 0.500000 2.998803 10.953541 0.546000 0.042225
4776.007000 4776.000000 0.500000 2.977460 11.160577 0.568318 0.044508
4786.009000 4786.000000 0.500000 2.955091 11.374429 0.592311 0.047121
4796.010000 4796.000000 0.500000 2.932878 11.593047 0.617257 0.049592
4806.005000 4806.000000 0.500000 2.911024 11.810587 0.642729 0.052543
4816.005000 4816.000000 0.500000 2.889020 12.036534 0.669598 0.055321
4826.006000 4826.000000 0.500000 2.867323 12.268472 0.697471 0.058477
4836.004000 4836.000000 0.500000 2.845762 12.476390 0.724752 0.061587
4846.005000 4846.000000 0.500000 2.824396 12.693423 0.753287 0.064861
4856.003000 4856.000000 0.500000 2.802668 12.907929 0.782829 0.068416
4866.008000 4866.000000 0.500000 2.781215 13.122594 0.813115 0.071736
4876.012000 4876.000000 0.500000 2.759765 13.340005 0.844519 0.075852
4886.007000 4886.000000 0.500000 2.738631 13.553166 0.876333 0.079492
4896.010000 4896.000000 0.500000 2.716914 13.755486 0.908943 0.083984
4906.007000 4906.000000 0.500000 2.695917 13.946101 0.941090 0.087979
4916.005000 4916.000000 0.500000 2.674750 14.140804 0.974643 0.092545
4926.004000 4926.000000 0.500000 2.653895 14.334694 1.008825 0.097062
4936.002000 4936.000000 0.500000 2.634109 14.523633 1.042549 0.101380
4938.002000 4938.000000 0.500000 2.630482 14.561246 1.049051 0.102463
4939.999000 4940.000000 0.500000 2.626180 14.597605 1.056202 0.103303
4941.998000 4942.000000 0.500000 2.622539 14.632875 1.062618 0.104167
4943.995000 4944.000000 0.500000 2.618317 14.663194 1.069308 0.105242
4946.006000 4946.000000 0.500000 2.614890 14.694366 1.075275 0.105895
4948.005000 4948.000000 0.500000 2.611071 14.724300 1.081588 0.106853
4950.006000 4950.000000 0.500000 2.607360 14.762850 1.088454 0.107787
4952.003000 4952.000000 0.500000 2.604046 14.798599 1.094708 0.108486
4954.004000 4954.000000 0.500000 2.600740 14.827201 1.100457 0.109233
4956.005000 4956.000000 0.500000 2.597946 14.856220 1.105698 0.109928
4956.245000 4956.250000 0.500000 2.597429 14.856135 1.106259 0.110043
4956.495000 4956.500000 0.500000 2.596926 14.859404 1.107060 0.110267
4956.744000 4956.750000 0.500000 2.596955 14.863889 1.107364 0.110174
4956.995000 4957.000000 0.500000 2.596475 14.865942 1.108047 0.110252
4957.246000 4957.250000 0.500000 2.596235 14.868764 1.108524 0.110217
4957.496000 4957.500000 0.500000 2.596093 14.871236 1.108866 0.110228
4957.747000 4957.750000 0.500000 2.595858 14.873862 1.109327 0.110428
4957.994000 4958.000000 0.500000 2.595145 14.878521 1.110457 0.110607
4958.245000 4958.250000 0.500000 2.594805 14.878194 1.110813 0.110658
4958.494000 4958.500000 0.500000 2.594756 14.883736 1.111282 0.110444
4958.745000 4958.750000 0.500000 2.594240 14.887083 1.112108 0.110649
4958.995000 4959.000000 0.500000 2.594128 14.889792 1.112433 0.110593
4959.247000 4959.250000 0.500000 2.593549 14.894640 1.113440 0.111026
4959.498000 4959.500000 0.500000 2.593538 14.898614 1.113749 0.110805
4959.748000 4959.750000 0.500000 2.593325 14.902124 1.114249 0.110504
4959.996000 4960.000000 0.500000 2.593116 14.904725 1.114674 0.110980
4960.246000 4960.250000 0.500000 2.592823 14.910063 1.115401 0.110921
4960.498000 4960.500000 0.500000 2.592584 14.918342 1.116290 0.110804
4960.745000 4960.750000 0.500000 2.592317 14.920987 1.116784 0.110626
4960.994000 4961.000000 0.500000 2.592093 14.921363 1.117063 0.110802
4961.247000 4961.250000 0.500000 2.591749 14.923254 1.117589 0.110550
4961.496000 4961.500000 0.500000 2.591746 14.930308 1.118119 0.110480
4961.747000 4961.750000 0.500000 2.591494 14.933279 1.118625 0.110403
4962.001000 4962.000000 0.500000 2.591409 14.938559 1.119112 0.110465
4962.247000 4962.250000 0.500000 2.591706 14.942978 1.119113 0.110235
4962.497000 4962.500000 0.500000 2.591401 14.946138 1.119690 0.109944
4962.748000 4962.750000 0.500000 2.591185 14.951554 1.120338 0.109751
4962.994000 4963.000000 0.500000 2.591224 14.958141 1.120789 0.109402
4963.248000 4963.250000 0.500000 2.590900 14.961996 1.121442 0.108552
4963.498000 4963.500000 0.500000 2.590974 14.963219 1.121449 0.107693
4963.748000 4963.750000 0.500000 2.590981 14.970588 1.121995 0.106715
4964.000000 4964.000000 0.500000 2.590821 15.004800 1.124735 0.105410
4964.248000 4964.250000 0.500000 2.591223 15.005210 1.124315 0.102102
4964.499000 4964.500000 0.500000 2.591240 15.007510 1.124470 0.097318
4964.747000 4964.750000 0.500000 2.591744 15.010119 1.124101 0.090610
4964.997000 4965.000000 0.500000 2.592292 15.016953 1.123995 0.083214
4965.250000 4965.250000 0.500000 2.593222 15.024593 1.123512 0.077806
4965.497000 4965.500000 0.500000 2.594687 15.026239 1.121998 0.075074
4965.749000 4965.750000 0.500000 2.596469 15.031183 1.120374 0.074967
4966.000000 4966.000000 0.500000 2.599902 15.034891 1.116803 0.076865
4966.250000 4966.250000 0.500000 2.604668 15.041163 1.111993 0.079162
4966.499000 4966.500000 0.500000 2.612511 15.041136 1.103282 0.081265
4966.748000 4966.750000 0.500000 2.625716 15.046715 1.089201 0.082154
4966.998000 4967.000000 0.500000 2.645230 15.047277 1.068276 0.081905
4967.248000 4967.250000 0.500000 2.664406 15.050522 1.048102 0.080513
4967.501000 4967.500000 0.500000 2.673035 15.051644 1.039253 0.079532
4967.753000 4967.750000 0.500000 2.666853 15.058982 1.046252 0.079422
4968.001000 4968.000000 0.500000 2.656602 15.064969 1.057355 0.079218
4968.250000 4968.250000 0.500000 2.656245 15.075243 1.058452 0.077866
4968.500000 4968.500000 0.500000 2.668998 15.076392 1.045118 0.075372
4968.747000 4968.750000 0.500000 2.695933 15.077235 1.017516 0.072412
4968.997000 4969.000000 0.500000 2.729900 15.075730 0.983509 0.068904
4969.249000 4969.250000 0.500000 2.759355 15.079551 0.954981 0.066175
4969.502000 4969.500000 0.500000 2.777324 15.083335 0.938256 0.064401
4969.749000 4969.750000 0.500000 2.787287 15.082564 0.928942 0.063160
4970.001000 4970.000000 0.500000 2.793133 15.087750 0.923854 0.062370
4970.252000 4970.250000 0.500000 2.792639 15.095582 0.924754 0.062411
4970.499000 4970.500000 0.500000 2.785069 15.103283 0.932210 0.062542
4970.747000 4970.750000 0.500000 2.770858 15.116744 0.946309 0.063125
4970.999000 4971.000000 0.500000 2.753559 15.155815 0.965457 0.064054
4971.253000 4971.250000 0.500000 2.738242 15.164033 0.980939 0.064558
4971.501000 4971.500000 0.500000 2.728042 15.169065 0.991255 0.064306
4971.751000 4971.750000 0.500000 2.725507 15.176925 0.994280 0.063332
4972.002000 4972.000000 0.500000 2.731670 15.185087 0.988660 0.061805
4972.251000 4972.250000 0.500000 2.744237 15.187292 0.976519 0.060025
4972.499000 4972.500000 0.500000 2.756878 15.190692 0.964458 0.058289
4972.750000 4972.750000 0.500000 2.765787 15.191908 0.955983 0.056329
4973.001000 4973.000000 0.500000 2.768481 15.197613 0.953792 0.054739
4973.252000 4973.250000 0.500000 2.764262 15.201813 0.958082 0.053760
4973.502000 4973.500000 0.500000 2.755745 15.204616 0.966421 0.053368
4973.749000 4973.750000 0.500000 2.744907 15.206203 0.976927 0.053038
4974.001000 4974.000000 0.500000 2.734594 15.213281 0.987625 0.052156
4974.250000 4974.250000 0.500000 2.724921 15.214135 0.997282 0.051750
4974.500000 4974.500000 0.500000 2.717960 15.216737 1.004455 0.051227
4974.749000 4974.750000 0.500000 2.714499 15.217768 1.007998 0.050386
4975.002000 4975.000000 0.500000 2.715049 15.221942 1.007705 0.049375
4975.252000 4975.250000 0.500000 2.720202 15.223653 1.002641 0.048357
4975.504000 4975.500000 0.500000 2.728652 15.222579 0.994059 0.046933
4975.750000 4975.750000 0.500000 2.741754 15.221967 0.981253 0.045641
4976.000000 4976.000000 0.500000 2.758505 15.225560 0.965092 0.044092
4976.250000 4976.250000 0.500000 2.777512 15.223505 0.946866 0.042264
4976.501000 4976.500000 0.500000 2.799150 15.223914 0.926493 0.040806
4976.752000 4976.750000 0.500000 2.824872 15.224120 0.902870 0.039204
4977.000000 4977.000000 0.500000 2.853337 15.224792 0.877902 0.037628
4977.252000 4977.250000 0.500000 2.883611 15.229783 0.851838 0.036116
4977.501000 4977.500000 0.500000 2.915790 15.234505 0.825299 0.034572
4977.750000 4977.750000 0.500000 2.950165 15.254832 0.798414 0.033262
4977.999000 4978.000000 0.500000 2.986707 15.258130 0.769977 0.031796
4978.253000 4978.250000 0.500000 3.023695 15.259713 0.741771 0.030587
4978.502000 4978.500000 0.500000 3.059489 15.263967 0.715964 0.029283
4978.755000 4978.750000 0.500000 3.093194 15.265957 0.692161 0.028333
4979.002000 4979.000000 0.500000 3.121624 15.266566 0.673137 0.027489
4979.252000 4979.250000 0.500000 3.143861 15.265858 0.658203 0.026555
4979.498000 4979.500000 0.500000 3.159837 15.263960 0.647818 0.026393
4979.751000 4979.750000 0.500000 3.174414 15.265487 0.638356 0.025527
4979.998000 4980.000000 0.500000 3.189121 15.261363 0.628968 0.025547
4980.250000 4980.250000 0.500000 3.207358 15.259728 0.617459 0.024689
4980.502000 4980.500000 0.500000 3.227472 15.260029 0.605121 0.024274
4980.754000 4980.750000 0.500000 3.251212 15.256041 0.590736 0.023771
4981.002000 4981.000000 0.500000 3.279069 15.254009 0.574582 0.022897
4981.248000 4981.250000 0.500000 3.308928 15.251758 0.557668 0.022318
4981.500000 4981.500000 0.500000 3.340351 15.252373 0.540424 0.021814
4981.751000 4981.750000 0.500000 3.374425 15.256201 0.522262 0.021043
4982.003000 4982.000000 0.500000 3.411887 15.256640 0.502945 0.019837
4982.251000 4982.250000 0.500000 3.450295 15.263942 0.484372 0.019319
4982.504000 4982.500000 0.500000 3.488965 15.266211 0.466020 0.018658
4982.752000 4982.750000 0.500000 3.527622 15.268599 0.448465 0.018025
4983.003000 4983.000000 0.500000 3.565734 15.268127 0.431684 0.017124
4983.250000 4983.250000 0.500000 3.601192 15.269296 0.416757 0.016764
4983.500000 4983.500000 0.500000 3.635302 15.267998 0.402745 0.016247
4983.751000 4983.750000 0.500000 3.668571 15.265937 0.389394 0.015917
4984.003000 4984.000000 0.500000 3.702186 15.266511 0.376544 0.015233
4984.251000 4984.250000 0.500000 3.731916 15.264896 0.365577 0.014949
4984.502000 4984.500000 0.500000 3.757254 15.264453 0.356405 0.014856
4984.752000 4984.750000 0.500000 3.779526 15.266092 0.348590 0.014426
4984.998000 4985.000000 0.500000 3.797529 15.267940 0.342498 0.014363
4985.249000 4985.250000 0.500000 3.812610 15.270635 0.337356 0.014273
4985.501000 4985.500000 0.500000 3.824345 15.275624 0.333513 0.014013
4985.751000 4985.750000 0.500000 3.832335 15.272858 0.330781 0.013967
4986.004000 4986.000000 0.500000 3.839846 15.275791 0.328369 0.014094
4986.253000 4986.250000 0.500000 3.844947 15.276070 0.326711 0.013954
4986.504000 4986.500000 0.500000 3.849839 15.275286 0.325105 0.013987
4986.752000 4986.750000 0.500000 3.854080 15.274338 0.323711 0.013969
4987.002000 4987.000000 0.500000 3.859743 15.273925 0.321880 0.014296
4987.249000 4987.250000 0.500000 3.868617 15.269404 0.318951 0.013860
4987.503000 4987.500000 0.500000 3.878347 15.267660 0.315785 0.013816
4987.753000 4987.750000 0.500000 3.891101 15.268222 0.311798 0.013588
4988.003000 4988.000000 0.500000 3.905032 15.274862 0.307652 0.013524
4988.253000 4988.250000 0.500000 3.920052 15.281893 0.303200 0.013436
4988.503000 4988.500000 0.500000 3.933089 15.292162 0.299478 0.013183
4988.752000 4988.750000 0.500000 3.944311 15.299892 0.296275 0.013048
4989.001000 4989.000000 0.500000 3.951833 15.309747 0.294248 0.013094
4989.252000 4989.250000 0.500000 3.955068 15.318808 0.293473 0.013024
4989.503000 4989.500000 0.500000 3.952478 15.334721 0.294542 0.013093
4989.754000 4989.750000 0.500000 3.948326 15.350166 0.296098 0.012941
4990.005000 4990.000000 0.500000 3.937681 15.361725 0.299463 0.012971
4990.252000 4990.250000 0.500000 3.923255 15.373683 0.304023 0.013278
4990.501000 4990.500000 0.500000 3.906968 15.386084 0.309282 0.013411
4990.750000 4990.750000 0.500000 3.889307 15.400405 0.315055 0.013844
4991.000000 4991.000000 0.500000 3.872914 15.409895 0.320483 0.014208
4991.250000 4991.250000 0.500000 3.857382 15.424999 0.325820 0.014492
4991.502000 4991.500000 0.500000 3.843477 15.431984 0.330553 0.014753
4991.754000 4991.750000 0.500000 3.832017 15.441218 0.334552 0.014908
4992.001000 4992.000000 0.500000 3.822573 15.450967 0.337927 0.014857
4992.253000 4992.250000 0.500000 3.814871 15.458023 0.340691 0.014858
4992.500000 4992.500000 0.500000 3.807418 15.465853 0.343409 0.015209
4992.751000 4992.750000 0.500000 3.799549 15.479554 0.346439 0.015236
4993.000000 4993.000000 0.500000 3.791689 15.485867 0.349322 0.015354
4993.254000 4993.250000 0.500000 3.783418 15.489479 0.352324 0.015551
4993.504000 4993.500000 0.500000 3.775233 15.518268 0.355866 0.015491
4993.753000 4993.750000 0.500000 3.765845 15.524182 0.359365 0.015749
4994.004000 4994.000000 0.500000 3.756725 15.530454 0.362807 0.015869
4994.250000 4994.250000 0.500000 3.748225 15.537628 0.366059 0.015890
4994.501000 4994.500000 0.500000 3.740710 15.542174 0.368925 0.015933
4994.748000 4994.750000 0.500000 3.734935 15.546183 0.371145 0.015926
4995.002000 4995.000000 0.500000 3.729331 15.550577 0.373361 0.016221
4995.253000 4995.250000 0.500000 3.725308 15.556242 0.375003 0.016204
4995.503000 4995.500000 0.500000 3.721933 15.560324 0.376363 0.016237
4995.751000 4995.750000 0.500000 3.720194 15.562520 0.377069 0.016054
4996.000000 4996.000000 0.700000 3.719761 21.722263 0.526539 0.022235
4997.092000 4997.080000 0.710000 3.726784 22.117197 0.532355 0.021812
4998.185000 4998.180000 0.730000 3.747400 22.743396 0.536288 0.021496
4999.298000 4999.290000 0.740000 3.775950 23.069135 0.528633 0.021060
5000.437000 5000.430000 0.750000 3.802240 23.419654 0.522726 0.020951
5001.584000 5001.580000 0.760000 3.821975 23.776536 0.520363 0.020995
5002.768000 5002.760000 0.780000 3.825974 24.457620 0.533115 0.021737
5003.956000 5003.950000 0.790000 3.810211 24.830933 0.549876 0.022531
5005.166000 5005.160000 0.800000 3.775058 25.206702 0.578130 0.023837
5006.398000 5006.390000 0.810000 3.727456 25.593862 0.615686 0.025708
5007.647000 5007.640000 0.830000 3.677524 26.291577 0.664870 0.028458
5008.914000 5008.910000 0.840000 3.632079 26.658404 0.705372 0.030564
5010.208000 5010.200000 0.850000 3.583832 27.032643 0.750720 0.032834
5011.516000 5011.510000 0.860000 3.543312 27.439906 0.793501 0.035026
5012.834000 5012.830000 0.880000 3.519786 28.161107 0.833724 0.036764
5014.186000 5014.180000 0.890000 3.507992 28.530543 0.854690 0.038114
5015.546000 5015.540000 0.900000 3.505738 28.906720 0.867910 0.039032
5016.937000 5016.930000 0.910000 3.508376 29.284704 0.876943 0.039805
5018.334000 5018.330000 0.930000 3.508747 29.988718 0.897694 0.040679
5019.756000 5019.750000 0.940000 3.498785 30.374551 0.918353 0.042329
5021.199000 5021.190000 0.950000 3.480570 30.765413 0.947311 0.043898
5022.656000 5022.650000 0.960000 3.460481 31.158217 0.978852 0.045312
5024.137000 5024.130000 0.980000 3.445217 31.879302 1.016882 0.047060
5025.638000 5025.630000 0.990000 3.438311 32.269953 1.036474 0.048040
5027.147000 5027.140000 1.000000 3.438277 32.666512 1.049240 0.048296
5028.689000 5028.680000 1.010000 3.444100 33.062995 1.055790 0.048295
5030.246000 5030.240000 1.030000 3.454883 33.786631 1.067347 0.048560
5031.816000 5031.810000 1.040000 3.469707 34.261915 1.066441 0.047460
5033.405000 5033.400000 1.050000 3.484572 34.663532 1.063022 0.046491
5035.017000 5035.010000 1.060000 3.497641 35.062460 1.061287 0.045677
5036.658000 5036.650000 1.080000 3.506567 35.799399 1.073962 0.045388
5038.296000 5038.300000 1.090000 3.513597 36.211865 1.078757 0.045323
5039.965000 5039.970000 1.100000 3.519067 36.618284 1.084909 0.045464
5041.648000 5041.650000 1.110000 3.522124 37.036446 1.093933 0.046003
5043.357000 5043.360000 1.130000 3.522824 37.780405 1.115126 0.047654
5045.089000 5045.090000 1.140000 3.522671 38.201716 1.127733 0.048420
5046.826000 5046.830000 1.150000 3.522625 38.617092 1.140048 0.050118
5048.600000 5048.600000 1.160000 3.521760 39.042832 1.153617 0.051908
5050.378000 5050.380000 1.180000 3.519732 39.808704 1.178633 0.054196
5052.176000 5052.180000 1.190000 3.518076 40.236372 1.193265 0.056092
5053.997000 5054.000000 1.200000 3.518285 40.672709 1.205955 0.057771
5055.837000 5055.840000 1.210000 3.520732 41.109544 1.215927 0.058774
5057.696000 5057.700000 1.230000 3.524475 41.890591 1.234402 0.059773
5059.576000 5059.580000 1.240000 3.527083 42.337336 1.244317 0.060214
5061.474000 5061.480000 1.250000 3.527675 42.779850 1.256578 0.061074
5063.396000 5063.400000 1.260000 3.523559 43.222676 1.274820 0.062643
5065.326000 5065.330000 1.280000 3.514894 44.024261 1.309767 0.064619
5067.285000 5067.290000 1.290000 3.502793 44.479060 1.339397 0.066804
5069.254000 5069.260000 1.300000 3.489760 44.935797 1.370891 0.068377
5071.256000 5071.260000 1.310000 3.477353 45.396916 1.402262 0.070188
5073.268000 5073.270000 1.330000 3.466977 46.208443 1.442222 0.072350
5075.298000 5075.300000 1.340000 3.460168 46.668836 1.466545 0.073053
5077.347000 5077.350000 1.350000 3.457265 47.137744 1.485585 0.073418
5079.418000 5079.420000 1.360000 3.455552 47.613139 1.503139 0.073458
5081.510000 5081.510000 1.380000 3.453577 48.438618 1.532223 0.073906
5083.611000 5083.610000 1.390000 3.450112 48.909072 1.552482 0.073774
5085.743000 5085.740000 1.400000 3.443748 49.385150 1.577605 0.073634
5087.890000 5087.890000 1.410000 3.435146 49.864264 1.606669 0.073810
5090.045000 5090.050000 1.430000 3.424136 50.701201 1.651703 0.075256
5092.229000 5092.230000 1.440000 3.411221 51.197944 1.689570 0.077479
5094.437000 5094.440000 1.450000 3.397344 51.707758 1.730241 0.080311
5096.660000 5096.660000 1.460000 3.384635 52.205973 1.769267 0.084170
5098.902000 5098.900000 1.480000 3.371605 53.068137 1.822079 0.089063
5101.164000 5101.160000 1.490000 3.359651 53.671972 1.864982 0.093753
5103.442000 5103.440000 1.500000 3.349086 54.200818 1.903333 0.098081
5105.738000 5105.740000 1.510000 3.341891 54.716510 1.935308 0.100980
5108.051000 5108.050000 1.530000 3.338219 55.591657 1.973506 0.103337
5110.391000 5110.390000 1.540000 3.336957 56.108125 1.994357 0.104398
5112.744000 5112.740000 1.550000 3.335999 56.636543 2.015071 0.106172
5115.123000 5115.120000 1.560000 3.336397 57.157982 2.032813 0.107115
5117.513000 5117.510000 1.580000 3.337883 58.061706 2.061876 0.108847
5119.919000 5119.920000 1.590000 3.341096 58.598211 2.074270 0.109891
5122.348000 5122.350000 1.600000 3.344353 59.130998 2.086323 0.111097
5124.802000 5124.800000 1.610000 3.345990 59.674789 2.102062 0.112281
5127.272000 5127.270000 1.630000 3.346459 60.586708 2.133185 0.114830
5129.764000 5129.760000 1.640000 3.344942 61.136275 2.155807 0.116554
