# XDI/1.0 BlueSky/1.5.0
# Beamline.name: 6BM
# Beamline.xray_source: NSLS-II three-pole wiggler
# Beamline.collimation: paraboloid mirror, 5 nm Rh on 30 nm Pt
# Beamline.focusing: not in use
# Beamline.harmonic_rejection: flat mirror, Si stripe, pitch = 7.0 mrad relative to beam
# Detector.i0: 10 cm N2
# Detector.i1: 25 cm N2
# Detector.i2: 25 cm N2
# Element.symbol: Ti
# Element.edge: K
# Facility.name: NSLS-II
# Facility.energy: 3.0
# Facility.current: 220.1
# Facility.mode: top-off
# Facility.gup: 301027
# Facility.saf: 304156
# Mono.name: Si(111)
# Mono.d_spacing: 3.1352584
# Mono.encoder_resolution: 0.0000050 deg/ct
# Mono.angle_offset: 16.0571090 deg
# Mono.scan_mode: pseudo channel cut
# Mono.scan_type: step
# Mono.direction: forward in energy
# Sample.name: CaTiO3
# Sample.prep: Powder in polyethylene glycol pellet
# Sample.x_position: -97.532 mm
# Sample.y_position: 117.543 mm
# Sample.wheel_position: -450.000 mm
# Scan.experimenters: Bruce Ravel, Martin Stennett
# Scan.edge_energy: 4966.0
# Scan.start_time: 2019-05-29T20:28:09
# Scan.end_time: 2019-05-29T21:11:16
# Scan.transient_id: 9758
# Scan.uid: 7de68e6b-651d-44d7-99e1-867c63bb4988
# Scan.plot_hint: ln(I0/It)  --  ln($5/$6)
# Scan.sequence: merge of 3 scans
# Column.1: energy eV
# Column.2: requested_energy eV
# Column.3: measurement_time seconds
# Column.4: mutrans
# Column.5: i0
# Column.6: itrans
# Column.7: irefer
# /////
#  sample disk prepared by Martin
# -----
# energy   requested_energy   measurement_time   mutrans   i0   itrans   irefer
4765.984000 4766.000000 0.500000 3.533481 10.902466 0.318387 0.025723
4776.007000 4776.000000 0.500000 3.507472 11.144766 0.334036 0.027353
4786.008000 4786.000000 0.500000 3.483155 11.390454 0.349806 0.029094
4796.007000 4796.000000 0.500000 3.457477 11.639996 0.366766 0.030774
4806.010000 4806.000000 0.500000 3.433058 11.893351 0.384014 0.032535
4816.005000 4816.000000 0.500000 3.408594 12.142040 0.401752 0.034513
4826.007000 4826.000000 0.500000 3.384898 12.385999 0.419652 0.036302
4836.006000 4836.000000 0.500000 3.360821 12.633747 0.438477 0.038305
4846.004000 4846.000000 0.500000 3.336449 12.884783 0.458217 0.040703
4856.011000 4856.000000 0.500000 3.312807 13.130412 0.478127 0.043187
4866.009000 4866.000000 0.500000 3.289298 13.369789 0.498430 0.045519
4876.005000 4876.000000 0.500000 3.266898 13.608783 0.518829 0.047935
4886.006000 4886.000000 0.500000 3.243968 13.842626 0.539986 0.050331
4896.007000 4896.000000 0.500000 3.220767 14.079088 0.562103 0.053109
4906.004000 4906.000000 0.500000 3.198519 14.316362 0.584433 0.055928
4916.004000 4916.000000 0.500000 3.176693 14.551941 0.607157 0.058953
4926.003000 4926.000000 0.500000 3.154613 14.785312 0.630665 0.061980
4936.004000 4936.000000 0.500000 3.133386 15.010339 0.654002 0.065152
4938.002000 4938.000000 0.500000 3.128853 15.052960 0.658839 0.065676
4939.999000 4940.000000 0.500000 3.125021 15.093840 0.663163 0.066301
4942.006000 4942.000000 0.500000 3.120456 15.136623 0.668096 0.066822
4944.007000 4944.000000 0.500000 3.115895 15.177445 0.672953 0.067515
4946.008000 4946.000000 0.500000 3.111813 15.214413 0.677360 0.068154
4948.006000 4948.000000 0.500000 3.107449 15.250419 0.681920 0.068800
4950.006000 4950.000000 0.500000 3.103264 15.288492 0.686490 0.069222
4952.003000 4952.000000 0.500000 3.099264 15.324355 0.690855 0.069709
4954.004000 4954.000000 0.500000 3.095529 15.358545 0.694988 0.070375
4956.003000 4956.000000 0.500000 3.091141 15.395563 0.699725 0.071065
4956.246000 4956.250000 0.500000 3.091256 15.398800 0.699797 0.071030
4956.494000 4956.500000 0.500000 3.090564 15.400876 0.700373 0.070925
4956.745000 4956.750000 0.500000 3.090044 15.403451 0.700857 0.070969
4956.994000 4957.000000 0.500000 3.089140 15.406572 0.701631 0.071204
4957.246000 4957.250000 0.500000 3.088679 15.410477 0.702135 0.071107
4957.495000 4957.500000 0.500000 3.088486 15.413198 0.702396 0.071299
4957.747000 4957.750000 0.500000 3.087964 15.418311 0.702993 0.071457
4957.995000 4958.000000 0.500000 3.087717 15.420937 0.703286 0.071437
4958.244000 4958.250000 0.500000 3.087402 15.425276 0.703704 0.071529
4958.496000 4958.500000 0.500000 3.087046 15.429907 0.704168 0.071378
4958.746000 4958.750000 0.500000 3.086527 15.441857 0.705079 0.071381
4958.995000 4959.000000 0.500000 3.085661 15.475423 0.707223 0.071756
4959.245000 4959.250000 0.500000 3.085381 15.479922 0.707628 0.071781
4959.497000 4959.500000 0.500000 3.084208 15.483293 0.708613 0.071811
4959.747000 4959.750000 0.500000 3.084281 15.509551 0.709764 0.071904
4959.996000 4960.000000 0.500000 3.083825 15.515292 0.710349 0.071829
4960.245000 4960.250000 0.500000 3.083110 15.521324 0.711131 0.072087
4960.496000 4960.500000 0.500000 3.082883 15.525120 0.711467 0.072107
4960.744000 4960.750000 0.500000 3.081957 15.529979 0.712349 0.072114
4960.994000 4961.000000 0.500000 3.081667 15.533174 0.712703 0.071899
4961.248000 4961.250000 0.500000 3.081552 15.535655 0.712904 0.071829
4961.496000 4961.500000 0.500000 3.080816 15.541233 0.713680 0.071930
4961.749000 4961.750000 0.500000 3.080483 15.546357 0.714155 0.071936
4961.999000 4962.000000 0.500000 3.080425 15.550087 0.714368 0.071787
4962.248000 4962.250000 0.500000 3.079248 15.555812 0.715471 0.071767
4962.498000 4962.500000 0.500000 3.079244 15.559506 0.715644 0.071694
4962.745000 4962.750000 0.500000 3.078926 15.565062 0.716127 0.071333
4962.995000 4963.000000 0.500000 3.078406 15.571595 0.716798 0.070996
4963.246000 4963.250000 0.500000 3.078088 15.574983 0.717184 0.070559
4963.496000 4963.500000 0.500000 3.077575 15.580544 0.717810 0.070221
4963.748000 4963.750000 0.500000 3.076920 15.587827 0.718614 0.069082
4963.999000 4964.000000 0.500000 3.076665 15.593322 0.719053 0.067642
4964.247000 4964.250000 0.500000 3.076365 15.597504 0.719459 0.065229
4964.498000 4964.500000 0.500000 3.076273 15.599332 0.719612 0.061314
4964.746000 4964.750000 0.500000 3.075415 15.604336 0.720451 0.056611
4964.997000 4965.000000 0.500000 3.075311 15.627211 0.721590 0.052415
4965.250000 4965.250000 0.500000 3.075312 15.646476 0.722483 0.049991
4965.496000 4965.500000 0.500000 3.074827 15.650011 0.722988 0.049444
4965.750000 4965.750000 0.500000 3.074830 15.654315 0.723188 0.049881
4966.000000 4966.000000 0.500000 3.075264 15.658539 0.723070 0.052022
4966.249000 4966.250000 0.500000 3.075773 15.661263 0.722831 0.053713
4966.498000 4966.500000 0.500000 3.077055 15.664996 0.722080 0.055341
4966.747000 4966.750000 0.500000 3.079424 15.669425 0.720577 0.056258
4967.003000 4967.000000 0.500000 3.082233 15.671524 0.718638 0.056204
4967.247000 4967.250000 0.500000 3.083333 15.673852 0.717964 0.056361
4967.499000 4967.500000 0.500000 3.081912 15.677202 0.719140 0.056000
4967.751000 4967.750000 0.500000 3.080312 15.685804 0.720684 0.055505
4967.999000 4968.000000 0.500000 3.079806 15.691336 0.721301 0.054628
4968.252000 4968.250000 0.500000 3.081254 15.697151 0.720522 0.053672
4968.500000 4968.500000 0.500000 3.084739 15.701070 0.718187 0.052663
4968.748000 4968.750000 0.500000 3.091032 15.703966 0.713853 0.051423
4968.997000 4969.000000 0.500000 3.098699 15.703875 0.708405 0.050289
4969.249000 4969.250000 0.500000 3.105114 15.705606 0.703910 0.049212
4969.502000 4969.500000 0.500000 3.108055 15.708032 0.701956 0.048943
4969.751000 4969.750000 0.500000 3.107731 15.708688 0.702214 0.048622
4969.999000 4970.000000 0.500000 3.106648 15.714002 0.703211 0.048286
4970.251000 4970.250000 0.500000 3.104873 15.724195 0.704914 0.048242
4970.496000 4970.500000 0.500000 3.103023 15.734825 0.706677 0.048316
4970.750000 4970.750000 0.500000 3.100472 15.748508 0.709120 0.048243
4971.000000 4971.000000 0.500000 3.098136 15.757407 0.711181 0.047990
4971.251000 4971.250000 0.500000 3.096412 15.763998 0.712705 0.047394
4971.501000 4971.500000 0.500000 3.095935 15.769289 0.713280 0.047049
4971.752000 4971.750000 0.500000 3.098342 15.775009 0.711798 0.046111
4972.002000 4972.000000 0.500000 3.103206 15.779718 0.708587 0.045111
4972.250000 4972.250000 0.500000 3.109279 15.784265 0.704533 0.043917
4972.501000 4972.500000 0.500000 3.114849 15.786437 0.700695 0.042778
4972.751000 4972.750000 0.500000 3.117742 15.790956 0.698858 0.041583
4972.999000 4973.000000 0.500000 3.119082 15.793649 0.698045 0.040648
4973.250000 4973.250000 0.500000 3.119240 15.796510 0.698060 0.039864
4973.500000 4973.500000 0.500000 3.118741 15.800709 0.698593 0.039150
4973.753000 4973.750000 0.500000 3.117941 15.804481 0.699321 0.038545
4974.001000 4974.000000 0.500000 3.117685 15.808090 0.699656 0.037795
4974.251000 4974.250000 0.500000 3.117103 15.808905 0.700100 0.037098
4974.497000 4974.500000 0.500000 3.116800 15.810762 0.700394 0.036434
4974.750000 4974.750000 0.500000 3.116869 15.813378 0.700464 0.035876
4974.999000 4975.000000 0.500000 3.116048 15.812998 0.701022 0.035230
4975.252000 4975.250000 0.500000 3.115190 15.813548 0.701651 0.034513
4975.501000 4975.500000 0.500000 3.114380 15.811159 0.702110 0.033862
4975.755000 4975.750000 0.500000 3.113449 15.813385 0.702863 0.032979
4976.000000 4976.000000 0.500000 3.113237 15.811360 0.702922 0.032347
4976.253000 4976.250000 0.500000 3.113796 15.810011 0.702468 0.032152
4976.500000 4976.500000 0.500000 3.114983 15.809706 0.701627 0.031683
4976.751000 4976.750000 0.500000 3.117480 15.811267 0.699931 0.031140
4977.001000 4977.000000 0.500000 3.120903 15.813474 0.697635 0.030506
4977.253000 4977.250000 0.500000 3.124292 15.816364 0.695389 0.029899
4977.502000 4977.500000 0.500000 3.128128 15.820095 0.692910 0.029836
4977.751000 4977.750000 0.500000 3.133701 15.821759 0.689151 0.029365
4977.999000 4978.000000 0.500000 3.140500 15.824320 0.684618 0.029065
4978.252000 4978.250000 0.500000 3.148302 15.828870 0.679452 0.028603
4978.501000 4978.500000 0.500000 3.156618 15.831816 0.673968 0.028062
4978.752000 4978.750000 0.500000 3.165242 15.832145 0.668163 0.027792
4979.002000 4979.000000 0.500000 3.174036 15.831859 0.662301 0.027307
4979.254000 4979.250000 0.500000 3.182538 15.830288 0.656609 0.026991
4979.502000 4979.500000 0.500000 3.190793 15.827379 0.651139 0.026918
4979.752000 4979.750000 0.500000 3.199472 15.824648 0.645395 0.026556
4979.999000 4980.000000 0.500000 3.208147 15.819259 0.639634 0.025933
4980.251000 4980.250000 0.500000 3.216478 15.819209 0.634287 0.025876
4980.500000 4980.500000 0.500000 3.226071 15.816093 0.628090 0.025451
4980.751000 4980.750000 0.500000 3.236306 15.814277 0.621611 0.025174
4981.002000 4981.000000 0.500000 3.248195 15.811383 0.614159 0.024794
4981.253000 4981.250000 0.500000 3.261799 15.811380 0.605883 0.024361
4981.501000 4981.500000 0.500000 3.276741 15.813388 0.597009 0.023982
4981.751000 4981.750000 0.500000 3.295042 15.816044 0.586288 0.023420
4982.000000 4982.000000 0.500000 3.316349 15.817577 0.573975 0.023031
4982.250000 4982.250000 0.500000 3.340622 15.820816 0.560333 0.022204
4982.504000 4982.500000 0.500000 3.364882 15.825365 0.546876 0.021905
4982.751000 4982.750000 0.500000 3.390166 15.827340 0.533414 0.021374
4983.003000 4983.000000 0.500000 3.415003 15.826796 0.520250 0.021157
4983.254000 4983.250000 0.500000 3.437771 15.827526 0.508641 0.020315
4983.503000 4983.500000 0.500000 3.456485 15.825130 0.499134 0.020127
4983.747000 4983.750000 0.500000 3.471580 15.821269 0.491614 0.019847
4984.002000 4984.000000 0.500000 3.481809 15.820002 0.486488 0.020002
4984.249000 4984.250000 0.500000 3.487514 15.821336 0.483770 0.019529
4984.504000 4984.500000 0.500000 3.488176 15.819786 0.483411 0.019702
4984.751000 4984.750000 0.500000 3.486137 15.821876 0.484455 0.019671
4985.002000 4985.000000 0.500000 3.480924 15.824318 0.487056 0.020387
4985.252000 4985.250000 0.500000 3.473988 15.825637 0.490468 0.020327
4985.501000 4985.500000 0.500000 3.466346 15.826023 0.494248 0.020362
4985.750000 4985.750000 0.500000 3.457845 15.826149 0.498459 0.020772
4986.000000 4986.000000 0.500000 3.450139 15.824518 0.502275 0.020730
4986.253000 4986.250000 0.500000 3.442051 15.823812 0.506373 0.021289
4986.501000 4986.500000 0.500000 3.436302 15.823824 0.509263 0.021413
4986.754000 4986.750000 0.500000 3.431233 15.818904 0.511698 0.021505
4987.002000 4987.000000 0.500000 3.429308 15.817264 0.512625 0.021714
4987.253000 4987.250000 0.500000 3.427064 15.816469 0.513755 0.021371
4987.500000 4987.500000 0.500000 3.425715 15.817204 0.514465 0.021773
4987.751000 4987.750000 0.500000 3.424062 15.816620 0.515298 0.021998
4988.002000 4988.000000 0.500000 3.423576 15.839265 0.516291 0.021819
4988.252000 4988.250000 0.500000 3.423265 15.862069 0.517195 0.021929
4988.503000 4988.500000 0.500000 3.422732 15.868933 0.517693 0.021804
4988.753000 4988.750000 0.500000 3.422939 15.914976 0.519089 0.021855
4989.001000 4989.000000 0.500000 3.423323 15.927820 0.519311 0.021916
4989.249000 4989.250000 0.500000 3.423340 15.939338 0.519678 0.022197
4989.500000 4989.500000 0.500000 3.424547 15.949856 0.519394 0.021912
4989.749000 4989.750000 0.500000 3.425320 15.962121 0.519393 0.022151
4990.003000 4990.000000 0.500000 3.426291 15.976070 0.519338 0.021920
4990.252000 4990.250000 0.500000 3.426639 15.988250 0.519557 0.021860
4990.505000 4990.500000 0.500000 3.425763 15.998843 0.520356 0.022154
4990.752000 4990.750000 0.500000 3.425313 16.010863 0.520980 0.022401
4991.003000 4991.000000 0.500000 3.423912 16.022628 0.522094 0.022443
4991.250000 4991.250000 0.500000 3.422864 16.031876 0.522937 0.022278
4991.499000 4991.500000 0.500000 3.421212 16.042580 0.524150 0.022618
4991.752000 4991.750000 0.500000 3.420844 16.052776 0.524684 0.022566
4992.000000 4992.000000 0.500000 3.420338 16.060674 0.525208 0.022416
4992.252000 4992.250000 0.500000 3.419818 16.068433 0.525732 0.022724
4992.502000 4992.500000 0.500000 3.420186 16.076592 0.525809 0.022778
4992.753000 4992.750000 0.500000 3.420695 16.080248 0.525658 0.022668
4992.998000 4993.000000 0.500000 3.419811 16.086364 0.526322 0.022727
4993.250000 4993.250000 0.500000 3.419517 16.091329 0.526639 0.022436
4993.501000 4993.500000 0.500000 3.418814 16.095373 0.527146 0.022549
4993.751000 4993.750000 0.500000 3.417042 16.102292 0.528307 0.022723
4994.003000 4994.000000 0.500000 3.415421 16.108631 0.529382 0.022476
4994.251000 4994.250000 0.500000 3.412933 16.147225 0.531957 0.022952
4994.504000 4994.500000 0.500000 3.411892 16.149205 0.532585 0.022685
4994.750000 4994.750000 0.500000 3.410043 16.153715 0.533707 0.022710
4995.002000 4995.000000 0.500000 3.409642 16.155970 0.534002 0.022568
4995.248000 4995.250000 0.500000 3.409588 16.161174 0.534205 0.022769
4995.500000 4995.500000 0.500000 3.410300 16.164264 0.533926 0.022450
4995.751000 4995.750000 0.500000 3.412193 16.186013 0.533628 0.022446
4996.000000 4996.000000 0.700000 3.414487 22.635722 0.744560 0.030979
4997.091000 4997.080000 0.710000 3.426331 22.971506 0.746717 0.030387
4998.185000 4998.180000 0.730000 3.436241 23.618020 0.760159 0.030126
4999.295000 4999.290000 0.740000 3.443895 23.955423 0.765138 0.030104
5000.436000 5000.430000 0.750000 3.444329 24.316239 0.776324 0.030377
5001.587000 5001.580000 0.760000 3.434182 24.684334 0.796109 0.031364
5002.766000 5002.760000 0.780000 3.414506 25.390060 0.835137 0.033019
5003.955000 5003.950000 0.790000 3.392210 25.774450 0.866872 0.033986
5005.167000 5005.160000 0.800000 3.372044 26.165367 0.897984 0.036062
5006.396000 5006.390000 0.810000 3.354469 26.559140 0.927654 0.037834
5007.646000 5007.640000 0.830000 3.339707 27.275895 0.966843 0.040259
5008.916000 5008.910000 0.840000 3.327497 27.665710 0.992722 0.042227
5010.204000 5010.200000 0.850000 3.312552 28.050238 1.021657 0.044105
5011.515000 5011.510000 0.860000 3.300711 28.436698 1.048075 0.046116
5012.836000 5012.830000 0.880000 3.294295 29.148105 1.081225 0.047522
5014.186000 5014.180000 0.890000 3.290412 29.527659 1.099566 0.048720
5015.547000 5015.540000 0.900000 3.286846 29.904064 1.117558 0.049877
5016.936000 5016.930000 0.910000 3.285462 30.295584 1.133759 0.051336
5018.339000 5018.330000 0.930000 3.283897 31.019174 1.162665 0.052787
5019.757000 5019.750000 0.940000 3.279531 31.412441 1.182555 0.054440
5021.194000 5021.190000 0.950000 3.272010 31.808885 1.206503 0.056229
5022.651000 5022.650000 0.960000 3.265020 32.199316 1.229862 0.056923
5024.133000 5024.130000 0.980000 3.260726 32.938033 1.263517 0.058707
5025.635000 5025.630000 0.990000 3.259565 33.336553 1.280291 0.059159
5027.145000 5027.140000 1.000000 3.260754 33.735010 1.294058 0.059736
5028.686000 5028.680000 1.010000 3.262098 34.135743 1.307671 0.059929
5030.248000 5030.240000 1.030000 3.261298 34.870570 1.336902 0.060667
5031.818000 5031.810000 1.040000 3.257232 35.269700 1.357707 0.060393
5033.408000 5033.400000 1.050000 3.250574 35.672571 1.382392 0.060122
5035.017000 5035.010000 1.060000 3.243479 36.074516 1.407911 0.059972
5036.655000 5036.650000 1.080000 3.238009 36.823728 1.445033 0.060655
5038.307000 5038.300000 1.090000 3.237614 37.234124 1.461691 0.061241
5039.975000 5039.970000 1.100000 3.241027 37.636179 1.472446 0.060874
5041.646000 5041.650000 1.110000 3.246257 38.041898 1.480576 0.061693
5043.357000 5043.360000 1.130000 3.250309 38.792325 1.503674 0.063682
5045.089000 5045.090000 1.140000 3.252261 39.204155 1.516678 0.065217
5046.827000 5046.830000 1.150000 3.251838 39.608203 1.532957 0.067012
5048.597000 5048.600000 1.160000 3.250021 40.026849 1.551972 0.069111
5050.376000 5050.380000 1.180000 3.247860 40.786906 1.584865 0.072450
5052.177000 5052.180000 1.190000 3.245938 41.205227 1.604200 0.074924
5053.998000 5054.000000 1.200000 3.244579 41.632308 1.623035 0.077255
5055.838000 5055.840000 1.210000 3.242424 42.059818 1.643235 0.078959
5057.698000 5057.700000 1.230000 3.238920 42.839208 1.679569 0.081162
5059.577000 5059.580000 1.240000 3.235281 43.272574 1.702741 0.082246
5061.479000 5061.480000 1.250000 3.232560 43.706789 1.724516 0.083452
5063.399000 5063.400000 1.260000 3.230051 44.136809 1.745861 0.085223
5065.327000 5065.330000 1.280000 3.226664 44.927396 1.783153 0.087908
5067.289000 5067.290000 1.290000 3.220857 45.369355 1.811199 0.089747
5069.258000 5069.260000 1.300000 3.212824 45.810764 1.843554 0.092059
5071.260000 5071.260000 1.310000 3.202298 46.258597 1.881310 0.094047
5073.271000 5073.270000 1.330000 3.191558 47.122658 1.937141 0.097312
5075.301000 5075.300000 1.340000 3.184130 47.728590 1.976662 0.098471
5077.347000 5077.350000 1.350000 3.179569 48.188343 2.004807 0.099035
5079.418000 5079.420000 1.360000 3.177319 48.646468 2.028426 0.098816
5081.511000 5081.510000 1.380000 3.174936 49.469066 2.067660 0.099232
5083.603000 5083.610000 1.390000 3.170039 49.925403 2.096947 0.098865
5085.740000 5085.740000 1.400000 3.162494 50.394597 2.132702 0.099036
5087.887000 5087.890000 1.410000 3.153900 50.858683 2.170905 0.099264
5090.050000 5090.050000 1.430000 3.145786 51.691098 2.224429 0.101013
5092.228000 5092.230000 1.440000 3.138504 52.169774 2.261417 0.103127
5094.438000 5094.440000 1.450000 3.132057 52.651834 2.297079 0.106434
5096.660000 5096.660000 1.460000 3.126152 53.121287 2.331289 0.110715
5098.900000 5098.900000 1.480000 3.120857 53.962094 2.380771 0.116656
5101.160000 5101.160000 1.490000 3.116072 54.428239 2.412847 0.121323
5103.442000 5103.440000 1.500000 3.110655 54.912311 2.447541 0.126129
5105.743000 5105.740000 1.510000 3.106402 55.384860 2.479123 0.129096
5108.052000 5108.050000 1.530000 3.102583 56.249058 2.527446 0.132386
5110.391000 5110.390000 1.540000 3.098033 56.747688 2.561477 0.134458
5112.740000 5112.740000 1.550000 3.093194 57.270822 2.597625 0.136467
5115.119000 5115.120000 1.560000 3.088690 57.755880 2.631446 0.138747
5117.508000 5117.510000 1.580000 3.084141 58.616011 2.682797 0.141848
5119.920000 5119.920000 1.590000 3.080890 59.116963 2.714555 0.144002
5122.350000 5122.350000 1.600000 3.078043 59.622120 2.745553 0.145932
5124.803000 5124.800000 1.610000 3.075843 60.127595 2.774936 0.148393
5127.272000 5127.270000 1.630000 3.073582 61.023493 2.822656 0.151835
5129.760000 5129.760000 1.640000 3.070789 61.546362 2.854800 0.153959
