# XDI/1.0 BlueSky/1.5.0
# Beamline.name: 6BM
# Beamline.xray_source: NSLS-II three-pole wiggler
# Beamline.collimation: paraboloid mirror, 5 nm Rh on 30 nm Pt
# Beamline.focusing: not in use
# Beamline.harmonic_rejection: flat mirror, Si stripe, pitch = 7.0 mrad relative to beam
# Detector.i0: 10 cm N2
# Detector.i1: 25 cm N2
# Detector.i2: 25 cm N2
# Element.symbol: Ti
# Element.edge: K
# Facility.name: NSLS-II
# Facility.energy: 3.0
# Facility.current: 219.5
# Facility.mode: top-off
# Facility.gup: 301027
# Facility.saf: 304156
# Mono.name: Si(111)
# Mono.d_spacing: 3.1352584
# Mono.encoder_resolution: 0.0000050 deg/ct
# Mono.angle_offset: 16.0571090 deg
# Mono.scan_mode: pseudo channel cut
# Mono.scan_type: step
# Mono.direction: forward in energy
# Sample.name: Ba2(TiO)Si2O7 fresnoite
# Sample.prep: Powder in polyethylene glycol pellet
# Sample.x_position: -97.532 mm
# Sample.y_position: 117.543 mm
# Sample.wheel_position: -690.000 mm
# Scan.experimenters: Bruce Ravel, Martin Stennett
# Scan.edge_energy: 4966.0
# Scan.start_time: 2019-05-30T08:01:51
# Scan.end_time: 2019-05-30T08:44:49
# Scan.transient_id: 9806
# Scan.uid: 34954009-84be-4eee-97a8-3ec73f49befe
# Scan.plot_hint: ln(I0/It)  --  ln($5/$6)
# Scan.sequence: merge of 3 scans
# Column.1: energy eV
# Column.2: requested_energy eV
# Column.3: measurement_time seconds
# Column.4: mutrans
# Column.5: i0
# Column.6: itrans
# Column.7: irefer
# /////
#  sample disk prepared by Martin
# -----
# energy   requested_energy   measurement_time   mutrans   i0   itrans   irefer
4765.989000 4766.000000 0.500000 4.363154 10.997688 0.140092 0.012081
4776.005000 4776.000000 0.500000 4.337491 11.183948 0.146166 0.012792
4786.009000 4786.000000 0.500000 4.309432 11.399209 0.153219 0.013439
4796.008000 4796.000000 0.500000 4.278305 11.611318 0.161004 0.014493
4806.010000 4806.000000 0.500000 4.249473 11.832583 0.168872 0.015254
4816.010000 4816.000000 0.500000 4.219309 12.046278 0.177187 0.016146
4826.007000 4826.000000 0.500000 4.189031 12.253788 0.185781 0.016949
4836.003000 4836.000000 0.500000 4.160228 12.481072 0.194755 0.017912
4846.004000 4846.000000 0.500000 4.134128 12.698508 0.203389 0.018848
4856.001000 4856.000000 0.500000 4.104034 12.916509 0.213196 0.020118
4866.010000 4866.000000 0.500000 4.076839 13.135359 0.222789 0.021092
4876.009000 4876.000000 0.500000 4.049407 13.383122 0.233307 0.022323
4886.007000 4886.000000 0.500000 4.021226 13.596608 0.243804 0.023506
4896.007000 4896.000000 0.500000 3.992853 13.795893 0.254494 0.025019
4906.006000 4906.000000 0.500000 3.965839 13.991157 0.265164 0.026442
4916.004000 4916.000000 0.500000 3.939847 14.185277 0.275923 0.027609
4926.005000 4926.000000 0.500000 3.913039 14.378314 0.287276 0.029152
4936.003000 4936.000000 0.500000 3.885716 14.572138 0.299214 0.030505
4938.001000 4938.000000 0.500000 3.881076 14.610490 0.301396 0.031097
4940.000000 4940.000000 0.500000 3.876373 14.647810 0.303590 0.031163
4941.998000 4942.000000 0.500000 3.871236 14.682327 0.305872 0.031340
4944.000000 4944.000000 0.500000 3.865325 14.715360 0.308376 0.031649
4946.001000 4946.000000 0.500000 3.860523 14.749122 0.310571 0.032076
4948.006000 4948.000000 0.500000 3.854703 14.778187 0.313002 0.032520
4950.005000 4950.000000 0.500000 3.850402 14.815968 0.315154 0.032656
4952.002000 4952.000000 0.500000 3.845594 14.851376 0.317429 0.032719
4954.007000 4954.000000 0.500000 3.839718 14.885092 0.320030 0.033138
4956.001000 4956.000000 0.500000 3.834896 14.910964 0.322129 0.033632
4956.246000 4956.250000 0.500000 3.834975 14.913551 0.322166 0.033375
4956.495000 4956.500000 0.500000 3.833373 14.913039 0.322667 0.033471
4956.744000 4956.750000 0.500000 3.833292 14.917549 0.322788 0.033529
4956.994000 4957.000000 0.500000 3.832496 14.920762 0.323116 0.033708
4957.246000 4957.250000 0.500000 3.832030 14.922828 0.323313 0.033455
4957.498000 4957.500000 0.500000 3.830615 14.927285 0.323870 0.033833
4957.745000 4957.750000 0.500000 3.830698 14.929286 0.323882 0.033496
4957.995000 4958.000000 0.500000 3.830084 14.946206 0.324449 0.033557
4958.243000 4958.250000 0.500000 3.829152 14.967746 0.325217 0.033775
4958.495000 4958.500000 0.500000 3.828472 14.972192 0.325538 0.033849
4958.746000 4958.750000 0.500000 3.827528 14.972003 0.325841 0.034033
4958.994000 4959.000000 0.500000 3.828898 14.973171 0.325422 0.033695
4959.246000 4959.250000 0.500000 3.827037 14.980092 0.326175 0.034039
4959.498000 4959.500000 0.500000 3.827209 14.984812 0.326224 0.033646
4959.748000 4959.750000 0.500000 3.825742 14.988564 0.326786 0.033855
4959.996000 4960.000000 0.500000 3.825210 14.994234 0.327081 0.033924
4960.246000 4960.250000 0.500000 3.823741 14.997847 0.327641 0.033860
4960.496000 4960.500000 0.500000 3.824189 15.000936 0.327562 0.033858
4960.746000 4960.750000 0.500000 3.823334 15.003775 0.327905 0.033719
4960.995000 4961.000000 0.500000 3.823039 15.008304 0.328101 0.033982
4961.246000 4961.250000 0.500000 3.822015 15.012985 0.328539 0.033937
4961.498000 4961.500000 0.500000 3.822029 15.017332 0.328632 0.033650
4961.749000 4961.750000 0.500000 3.820788 15.020648 0.329111 0.033998
4961.999000 4962.000000 0.500000 3.820848 15.022504 0.329133 0.033865
4962.246000 4962.250000 0.500000 3.820061 15.024088 0.329425 0.033803
4962.496000 4962.500000 0.500000 3.819481 15.032309 0.329797 0.033666
4962.745000 4962.750000 0.500000 3.818533 15.034813 0.330164 0.033818
4962.996000 4963.000000 0.500000 3.818850 15.065799 0.330739 0.033590
4963.248000 4963.250000 0.500000 3.818688 15.075702 0.331011 0.033478
4963.497000 4963.500000 0.500000 3.818697 15.080829 0.331121 0.033113
4963.750000 4963.750000 0.500000 3.818020 15.084038 0.331416 0.032734
4963.999000 4964.000000 0.500000 3.816756 15.088781 0.331937 0.032322
4964.249000 4964.250000 0.500000 3.817195 15.093338 0.331894 0.031372
4964.498000 4964.500000 0.500000 3.816131 15.095268 0.332288 0.030101
4964.747000 4964.750000 0.500000 3.816603 15.095399 0.332136 0.027599
4964.996000 4965.000000 0.500000 3.815719 15.102336 0.332582 0.025750
4965.248000 4965.250000 0.500000 3.816045 15.107338 0.332586 0.024192
4965.499000 4965.500000 0.500000 3.815980 15.111814 0.332704 0.023791
4965.748000 4965.750000 0.500000 3.816276 15.114446 0.332663 0.023873
4965.999000 4966.000000 0.500000 3.816535 15.116512 0.332622 0.024293
4966.250000 4966.250000 0.500000 3.818133 15.121496 0.332201 0.024922
4966.499000 4966.500000 0.500000 3.819348 15.122171 0.331812 0.025915
4966.747000 4966.750000 0.500000 3.820898 15.125237 0.331364 0.026600
4966.998000 4967.000000 0.500000 3.824554 15.127314 0.330202 0.026721
4967.251000 4967.250000 0.500000 3.828010 15.129037 0.329082 0.026554
4967.500000 4967.500000 0.500000 3.834093 15.131399 0.327135 0.026330
4967.751000 4967.750000 0.500000 3.842056 15.137984 0.324702 0.026155
4968.000000 4968.000000 0.500000 3.853441 15.142305 0.321123 0.025280
4968.249000 4968.250000 0.500000 3.869154 15.149740 0.316280 0.024680
4968.497000 4968.500000 0.500000 3.894838 15.152933 0.308333 0.023538
4968.748000 4968.750000 0.500000 3.934802 15.153454 0.296276 0.022390
4969.000000 4969.000000 0.500000 3.976902 15.157307 0.284119 0.021172
4969.247000 4969.250000 0.500000 3.989527 15.155133 0.280518 0.020952
4969.501000 4969.500000 0.500000 3.962392 15.156952 0.288228 0.021025
4969.750000 4969.750000 0.500000 3.914860 15.155667 0.302236 0.021713
4970.000000 4970.000000 0.500000 3.873619 15.157782 0.314939 0.022471
4970.251000 4970.250000 0.500000 3.849267 15.164878 0.322950 0.022930
4970.498000 4970.500000 0.500000 3.834914 15.178518 0.327892 0.023421
4970.750000 4970.750000 0.500000 3.826412 15.189082 0.330943 0.023434
4971.001000 4971.000000 0.500000 3.821941 15.197168 0.332598 0.023339
4971.252000 4971.250000 0.500000 3.818862 15.202409 0.333736 0.023080
4971.503000 4971.500000 0.500000 3.817776 15.210610 0.334277 0.022915
4971.750000 4971.750000 0.500000 3.817923 15.214887 0.334322 0.022444
4972.001000 4972.000000 0.500000 3.819717 15.219075 0.333812 0.022041
4972.250000 4972.250000 0.500000 3.822263 15.221352 0.333018 0.021777
4972.498000 4972.500000 0.500000 3.825312 15.224759 0.332075 0.021165
4972.751000 4972.750000 0.500000 3.828045 15.228068 0.331242 0.020907
4973.002000 4973.000000 0.500000 3.830024 15.233920 0.330717 0.020263
4973.251000 4973.250000 0.500000 3.829703 15.236256 0.330871 0.019900
4973.501000 4973.500000 0.500000 3.830367 15.238317 0.330698 0.019649
4973.750000 4973.750000 0.500000 3.830868 15.238886 0.330545 0.019171
4974.001000 4974.000000 0.500000 3.832485 15.241498 0.330064 0.018891
4974.249000 4974.250000 0.500000 3.834372 15.246644 0.329559 0.018615
4974.501000 4974.500000 0.500000 3.836046 15.248448 0.329040 0.018190
4974.750000 4974.750000 0.500000 3.838037 15.249788 0.328417 0.017646
4975.003000 4975.000000 0.500000 3.840381 15.251194 0.327675 0.017450
4975.252000 4975.250000 0.500000 3.842361 15.248335 0.326966 0.017067
4975.501000 4975.500000 0.500000 3.845355 15.247895 0.325983 0.016656
4975.752000 4975.750000 0.500000 3.848546 15.251032 0.325010 0.016307
4976.000000 4976.000000 0.500000 3.853318 15.250884 0.323460 0.016017
4976.251000 4976.250000 0.500000 3.858284 15.252033 0.321875 0.015762
4976.500000 4976.500000 0.500000 3.864117 15.249042 0.319947 0.015334
4976.752000 4976.750000 0.500000 3.871137 15.249334 0.317715 0.015138
4977.003000 4977.000000 0.500000 3.878824 15.251877 0.315328 0.014624
4977.253000 4977.250000 0.500000 3.886621 15.253000 0.312890 0.014559
4977.500000 4977.500000 0.500000 3.897795 15.254633 0.309487 0.014105
4977.750000 4977.750000 0.500000 3.908806 15.257348 0.306139 0.013980
4977.999000 4978.000000 0.500000 3.919270 15.260435 0.303001 0.013635
4978.254000 4978.250000 0.500000 3.928466 15.263370 0.300272 0.013517
4978.501000 4978.500000 0.500000 3.936838 15.269687 0.297919 0.013314
4978.752000 4978.750000 0.500000 3.943300 15.270949 0.296014 0.013156
4979.002000 4979.000000 0.500000 3.950990 15.269261 0.293719 0.013017
4979.251000 4979.250000 0.500000 3.958292 15.269289 0.291581 0.012930
4979.499000 4979.500000 0.500000 3.965242 15.265463 0.289498 0.012687
4979.749000 4979.750000 0.500000 3.969260 15.266757 0.288352 0.012681
4980.001000 4980.000000 0.500000 3.973311 15.298187 0.287774 0.012647
4980.253000 4980.250000 0.500000 3.975815 15.292511 0.286947 0.012718
4980.501000 4980.500000 0.500000 3.978641 15.288790 0.286074 0.012334
4980.751000 4980.750000 0.500000 3.982453 15.285689 0.284924 0.012574
4981.001000 4981.000000 0.500000 3.987650 15.284189 0.283428 0.012344
4981.251000 4981.250000 0.500000 3.996466 15.285287 0.280937 0.012107
4981.500000 4981.500000 0.500000 4.008976 15.285118 0.277460 0.011710
4981.750000 4981.750000 0.500000 4.023726 15.288137 0.273453 0.011957
4982.002000 4982.000000 0.500000 4.042126 15.290956 0.268486 0.011673
4982.253000 4982.250000 0.500000 4.058411 15.294200 0.264216 0.011346
4982.503000 4982.500000 0.500000 4.069064 15.296373 0.261473 0.011493
4982.753000 4982.750000 0.500000 4.074148 15.298108 0.260169 0.011104
4983.000000 4983.000000 0.500000 4.073634 15.299452 0.260328 0.011352
4983.250000 4983.250000 0.500000 4.071026 15.299171 0.261004 0.011297
4983.502000 4983.500000 0.500000 4.067521 15.297097 0.261886 0.011156
4983.748000 4983.750000 0.500000 4.065031 15.296457 0.262519 0.011335
4984.000000 4984.000000 0.500000 4.060943 15.293145 0.263537 0.011232
4984.252000 4984.250000 0.500000 4.058722 15.294320 0.264148 0.011379
4984.502000 4984.500000 0.500000 4.056297 15.295368 0.264804 0.011355
4984.749000 4984.750000 0.500000 4.053620 15.295765 0.265522 0.011550
4985.001000 4985.000000 0.500000 4.051862 15.297723 0.266026 0.011719
4985.249000 4985.250000 0.500000 4.050288 15.298408 0.266458 0.011609
4985.502000 4985.500000 0.500000 4.052291 15.298650 0.265927 0.011760
4985.754000 4985.750000 0.500000 4.055936 15.295599 0.264895 0.011869
4986.003000 4986.000000 0.500000 4.061781 15.299369 0.263417 0.011764
4986.251000 4986.250000 0.500000 4.069998 15.300521 0.261305 0.011545
4986.500000 4986.500000 0.500000 4.077442 15.297392 0.259314 0.011834
4986.750000 4986.750000 0.500000 4.084574 15.297194 0.257461 0.011726
4987.000000 4987.000000 0.500000 4.093170 15.294405 0.255215 0.011460
4987.253000 4987.250000 0.500000 4.101735 15.292197 0.252979 0.011569
4987.500000 4987.500000 0.500000 4.110156 15.300174 0.251009 0.011395
4987.753000 4987.750000 0.500000 4.117312 15.325677 0.249635 0.011267
4988.002000 4988.000000 0.500000 4.123492 15.329718 0.248163 0.011427
4988.255000 4988.250000 0.500000 4.128534 15.335801 0.247005 0.011223
4988.501000 4988.500000 0.500000 4.129685 15.343803 0.246852 0.011439
4988.750000 4988.750000 0.500000 4.129348 15.353069 0.247081 0.011173
4989.000000 4989.000000 0.500000 4.127431 15.364645 0.247745 0.011426
4989.253000 4989.250000 0.500000 4.124891 15.379410 0.248617 0.011209
4989.502000 4989.500000 0.500000 4.119755 15.392397 0.250108 0.011740
4989.753000 4989.750000 0.500000 4.116314 15.403734 0.251155 0.011592
4990.002000 4990.000000 0.500000 4.112204 15.415955 0.252383 0.011562
4990.253000 4990.250000 0.500000 4.108478 15.427946 0.253525 0.011704
4990.499000 4990.500000 0.500000 4.104240 15.437421 0.254748 0.011896
4990.751000 4990.750000 0.500000 4.101610 15.449448 0.255631 0.011734
4991.000000 4991.000000 0.500000 4.098554 15.461980 0.256616 0.011770
4991.252000 4991.250000 0.500000 4.097655 15.472042 0.257015 0.011903
4991.501000 4991.500000 0.500000 4.096916 15.481630 0.257366 0.011517
4991.751000 4991.750000 0.500000 4.094171 15.490470 0.258217 0.011766
4992.000000 4992.000000 0.500000 4.092435 15.499488 0.258811 0.011904
4992.250000 4992.250000 0.500000 4.089876 15.506635 0.259597 0.012166
4992.498000 4992.500000 0.500000 4.088329 15.529882 0.260388 0.011994
4992.752000 4992.750000 0.500000 4.086086 15.553954 0.261383 0.012074
4993.003000 4993.000000 0.500000 4.084047 15.559860 0.262019 0.012134
4993.253000 4993.250000 0.500000 4.082713 15.562800 0.262414 0.012063
4993.504000 4993.500000 0.500000 4.081500 15.569218 0.262845 0.012072
4993.753000 4993.750000 0.500000 4.080097 15.575001 0.263307 0.012227
4994.003000 4994.000000 0.500000 4.080691 15.578098 0.263205 0.011834
4994.249000 4994.250000 0.500000 4.079732 15.582215 0.263526 0.012127
4994.502000 4994.500000 0.500000 4.080277 15.583476 0.263404 0.011762
4994.753000 4994.750000 0.500000 4.080194 15.590712 0.263548 0.011967
4995.002000 4995.000000 0.500000 4.080024 15.594804 0.263662 0.012060
4995.254000 4995.250000 0.500000 4.080592 15.597440 0.263559 0.011899
4995.501000 4995.500000 0.500000 4.079287 15.599632 0.263933 0.012150
4995.753000 4995.750000 0.500000 4.079582 15.616825 0.264150 0.011795
4995.999000 4996.000000 0.700000 4.080252 21.759927 0.367819 0.016293
4997.093000 4997.080000 0.710000 4.078963 22.161989 0.375095 0.016252
4998.183000 4998.180000 0.730000 4.073304 22.784951 0.387818 0.016518
4999.298000 4999.290000 0.740000 4.065773 23.115228 0.396419 0.016766
5000.434000 5000.430000 0.750000 4.060169 23.460356 0.404597 0.017075
5001.584000 5001.580000 0.760000 4.058814 23.816612 0.411300 0.017298
5002.768000 5002.760000 0.780000 4.059025 24.496020 0.422945 0.017799
5003.956000 5003.950000 0.790000 4.055464 24.870458 0.430943 0.018315
5005.164000 5005.160000 0.800000 4.046601 25.242662 0.441277 0.018937
5006.397000 5006.390000 0.810000 4.034236 25.622371 0.453506 0.019737
5007.646000 5007.640000 0.830000 4.020704 26.318834 0.472183 0.021265
5008.914000 5008.910000 0.840000 4.007482 26.688995 0.485179 0.022066
5010.207000 5010.200000 0.850000 3.991797 27.063594 0.499778 0.023011
5011.516000 5011.510000 0.860000 3.977153 27.437510 0.514155 0.023866
5012.832000 5012.830000 0.880000 3.967146 28.123932 0.532310 0.024937
5014.184000 5014.180000 0.890000 3.962461 28.491322 0.541797 0.025380
5015.545000 5015.540000 0.900000 3.957659 28.864638 0.551540 0.026082
5016.935000 5016.930000 0.910000 3.953452 29.240951 0.561087 0.026731
5018.333000 5018.330000 0.930000 3.950376 29.939895 0.576266 0.027935
5019.755000 5019.750000 0.940000 3.946512 30.325372 0.585947 0.028408
5021.194000 5021.190000 0.950000 3.941927 30.709466 0.596097 0.028995
5022.655000 5022.650000 0.960000 3.936142 31.101209 0.607207 0.029541
5024.134000 5024.130000 0.980000 3.929971 31.818317 0.625042 0.030557
5025.634000 5025.630000 0.990000 3.924071 32.210760 0.636497 0.031143
5027.146000 5027.140000 1.000000 3.920593 32.598611 0.646411 0.031385
5028.685000 5028.680000 1.010000 3.917627 33.000385 0.656321 0.031559
5030.242000 5030.240000 1.030000 3.914216 33.719506 0.672913 0.032008
5031.812000 5031.810000 1.040000 3.912898 34.113668 0.681676 0.031869
5033.403000 5033.400000 1.050000 3.912289 34.509458 0.690005 0.031738
5035.014000 5035.010000 1.060000 3.912221 34.908687 0.698035 0.031233
5036.654000 5036.650000 1.080000 3.910138 35.639211 0.714133 0.031905
5038.295000 5038.300000 1.090000 3.907296 36.047832 0.724366 0.032132
5039.967000 5039.970000 1.100000 3.903470 36.448170 0.735223 0.032215
5041.645000 5041.650000 1.110000 3.899602 36.860094 0.746409 0.032883
5043.358000 5043.360000 1.130000 3.896636 37.657167 0.764823 0.034091
5045.089000 5045.090000 1.140000 3.892654 38.101685 0.776939 0.035122
5046.826000 5046.830000 1.150000 3.889655 38.513955 0.787705 0.036039
5048.600000 5048.600000 1.160000 3.887267 38.939002 0.798304 0.037175
5050.375000 5050.380000 1.180000 3.885166 39.699645 0.815607 0.039050
5052.175000 5052.180000 1.190000 3.880766 40.121293 0.827902 0.040324
5053.995000 5054.000000 1.200000 3.876201 40.552270 0.840624 0.041637
5055.836000 5055.840000 1.210000 3.872376 40.985228 0.852855 0.042602
5057.697000 5057.700000 1.230000 3.869873 41.760906 0.871175 0.043582
5059.574000 5059.580000 1.240000 3.867120 42.202098 0.882804 0.044625
5061.476000 5061.480000 1.250000 3.863265 42.637502 0.895357 0.045119
5063.396000 5063.400000 1.260000 3.857772 43.086306 0.909764 0.046072
5065.327000 5065.330000 1.280000 3.853843 43.878618 0.930145 0.047305
5067.283000 5067.290000 1.290000 3.848190 44.329999 0.945035 0.048726
5069.256000 5069.260000 1.300000 3.843053 44.785780 0.959674 0.049414
5071.255000 5071.260000 1.310000 3.836340 45.247541 0.976102 0.050623
5073.266000 5073.270000 1.330000 3.828772 46.152930 1.003190 0.051706
5075.295000 5075.300000 1.340000 3.820423 46.610366 1.021627 0.052611
5077.345000 5077.350000 1.350000 3.812627 47.079079 1.039975 0.053364
5079.417000 5079.420000 1.360000 3.805130 47.552514 1.058338 0.053958
5081.506000 5081.510000 1.380000 3.798385 48.370831 1.083841 0.053902
5083.608000 5083.610000 1.390000 3.791592 48.847988 1.101991 0.053795
5085.735000 5085.740000 1.400000 3.784469 49.328319 1.120777 0.053937
5087.889000 5087.890000 1.410000 3.776452 49.809062 1.140824 0.054094
5090.048000 5090.050000 1.430000 3.768712 50.645301 1.168980 0.055067
5092.230000 5092.230000 1.440000 3.761874 51.143854 1.188588 0.056204
5094.437000 5094.440000 1.450000 3.756144 51.652743 1.207316 0.057751
5096.662000 5096.660000 1.460000 3.751149 52.151256 1.225075 0.060228
5098.897000 5098.900000 1.480000 3.746393 53.014639 1.251288 0.063295
5101.160000 5101.160000 1.490000 3.742533 53.555068 1.268934 0.065995
5103.441000 5103.440000 1.500000 3.737788 54.091048 1.287733 0.068347
5105.742000 5105.740000 1.510000 3.733135 54.620513 1.306399 0.069976
5108.051000 5108.050000 1.530000 3.727493 55.499521 1.334932 0.071955
5110.391000 5110.390000 1.540000 3.722072 56.024251 1.354878 0.072993
5112.742000 5112.740000 1.550000 3.716728 56.547448 1.374859 0.074472
5115.124000 5115.120000 1.560000 3.710919 57.071596 1.395696 0.075688
5117.513000 5117.510000 1.580000 3.705707 57.969179 1.425054 0.077717
5119.921000 5119.920000 1.590000 3.700904 58.506166 1.445173 0.078250
5122.349000 5122.350000 1.600000 3.695427 59.042356 1.466423 0.080151
5124.801000 5124.800000 1.610000 3.690508 59.582181 1.487132 0.081505
5127.271000 5127.270000 1.630000 3.684530 60.491625 1.518883 0.083846
5129.763000 5129.760000 1.640000 3.678427 61.043989 1.542141 0.085292
