# XDI/1.0 BlueSky/1.5.0
# Beamline.name: 6BM
# Beamline.xray_source: NSLS-II three-pole wiggler
# Beamline.collimation: paraboloid mirror, 5 nm Rh on 30 nm Pt
# Beamline.focusing: not in use
# Beamline.harmonic_rejection: flat mirror, Si stripe, pitch = 7.0 mrad relative to beam
# Detector.i0: 10 cm N2
# Detector.i1: 25 cm N2
# Detector.i2: 25 cm N2
# Element.symbol: Ti
# Element.edge: K
# Facility.name: NSLS-II
# Facility.energy: 3.0
# Facility.current: 219.3
# Facility.mode: top-off
# Facility.gup: 301027
# Facility.saf: 304156
# Mono.name: Si(111)
# Mono.d_spacing: 3.1352584
# Mono.encoder_resolution: 0.0000050 deg/ct
# Mono.angle_offset: 16.0571090 deg
# Mono.scan_mode: pseudo channel cut
# Mono.scan_type: step
# Mono.direction: forward in energy
# Sample.name: TiO
# Sample.prep: Powder in polyethylene glycol pellet
# Sample.x_position: -97.532 mm
# Sample.y_position: 117.543 mm
# Sample.wheel_position: -720.000 mm
# Scan.experimenters: Bruce Ravel, Martin Stennett
# Scan.edge_energy: 4966.0
# Scan.start_time: 2019-05-30T09:28:40
# Scan.end_time: 2019-05-30T10:11:04
# Scan.transient_id: 9812
# Scan.uid: 5e9fb322-3abe-42ad-8e8c-6943a9110918
# Scan.plot_hint: ln(I0/It)  --  ln($5/$6)
# Scan.sequence: merge of 3 scans
# Column.1: energy eV
# Column.2: requested_energy eV
# Column.3: measurement_time seconds
# Column.4: mutrans
# Column.5: i0
# Column.6: itrans
# Column.7: irefer
# /////
#  sample disk prepared by Martin
# -----
# energy   requested_energy   measurement_time   mutrans   i0   itrans   irefer
4765.997000 4766.000000 0.500000 3.771044 10.947577 0.252104 0.020359
4776.007000 4776.000000 0.500000 3.742426 11.169442 0.264677 0.021871
4786.009000 4786.000000 0.500000 3.714846 11.380729 0.277227 0.022952
4796.010000 4796.000000 0.500000 3.687958 11.595943 0.290166 0.024371
4806.008000 4806.000000 0.500000 3.660605 11.813428 0.303805 0.026084
4816.005000 4816.000000 0.500000 3.634577 12.024184 0.317377 0.027435
4826.007000 4826.000000 0.500000 3.608606 12.233480 0.331401 0.028662
4836.004000 4836.000000 0.500000 3.581766 12.454628 0.346569 0.030540
4846.004000 4846.000000 0.500000 3.555587 12.678555 0.362159 0.032271
4856.001000 4856.000000 0.500000 3.530202 12.894332 0.377785 0.033997
4866.008000 4866.000000 0.500000 3.504505 13.110330 0.394116 0.035948
4876.014000 4876.000000 0.500000 3.478565 13.327357 0.411178 0.038093
4886.008000 4886.000000 0.500000 3.453683 13.536136 0.428135 0.039995
4896.008000 4896.000000 0.500000 3.428575 13.736090 0.445505 0.041803
4906.006000 4906.000000 0.500000 3.403755 13.934014 0.463282 0.044359
4916.006000 4916.000000 0.500000 3.379395 14.124317 0.481190 0.046664
4926.004000 4926.000000 0.500000 3.355494 14.316053 0.499518 0.048954
4936.002000 4936.000000 0.500000 3.332423 14.511837 0.518168 0.051538
4938.002000 4938.000000 0.500000 3.328029 14.549346 0.521796 0.052076
4939.999000 4940.000000 0.500000 3.323348 14.583157 0.525462 0.052482
4941.997000 4942.000000 0.500000 3.319719 14.615203 0.528531 0.052841
4943.997000 4944.000000 0.500000 3.315482 14.682303 0.533208 0.053434
4946.004000 4946.000000 0.500000 3.311047 14.717679 0.536870 0.054013
4948.006000 4948.000000 0.500000 3.307099 14.747674 0.540096 0.054188
4950.004000 4950.000000 0.500000 3.303408 14.785795 0.543494 0.054852
4952.003000 4952.000000 0.500000 3.300094 14.816312 0.546421 0.055214
4954.004000 4954.000000 0.500000 3.296935 14.849400 0.549376 0.055677
4956.003000 4956.000000 0.500000 3.294027 14.879466 0.552089 0.055958
4956.246000 4956.250000 0.500000 3.293953 14.883246 0.552272 0.055942
4956.494000 4956.500000 0.500000 3.293537 14.884032 0.552530 0.055967
4956.744000 4956.750000 0.500000 3.293568 14.884729 0.552539 0.056039
4956.993000 4957.000000 0.500000 3.293280 14.887790 0.552813 0.055919
4957.246000 4957.250000 0.500000 3.292941 14.893766 0.553221 0.056144
4957.496000 4957.500000 0.500000 3.293374 14.897339 0.553117 0.056040
4957.748000 4957.750000 0.500000 3.292475 14.900252 0.553719 0.056392
4957.996000 4958.000000 0.500000 3.292487 14.899335 0.553679 0.056154
4958.246000 4958.250000 0.500000 3.292044 14.905578 0.554156 0.056172
4958.495000 4958.500000 0.500000 3.292084 14.906191 0.554157 0.056380
4958.743000 4958.750000 0.500000 3.292178 14.911814 0.554313 0.056254
4958.995000 4959.000000 0.500000 3.292643 14.912619 0.554087 0.056091
4959.246000 4959.250000 0.500000 3.291941 14.917127 0.554642 0.056254
4959.497000 4959.500000 0.500000 3.292493 14.921918 0.554515 0.056039
4959.748000 4959.750000 0.500000 3.292631 14.925687 0.554579 0.056283
4959.997000 4960.000000 0.500000 3.291902 14.925952 0.554992 0.056120
4960.246000 4960.250000 0.500000 3.292438 14.931130 0.554889 0.056164
4960.497000 4960.500000 0.500000 3.291953 14.934779 0.555292 0.055985
4960.746000 4960.750000 0.500000 3.292232 14.939625 0.555318 0.056021
4960.996000 4961.000000 0.500000 3.292574 14.941393 0.555193 0.056110
4961.247000 4961.250000 0.500000 3.292885 14.948423 0.555282 0.055927
4961.497000 4961.500000 0.500000 3.292659 14.951040 0.555503 0.056131
4961.746000 4961.750000 0.500000 3.293667 14.956592 0.555153 0.055954
4961.999000 4962.000000 0.500000 3.294342 14.959778 0.554894 0.055665
4962.247000 4962.250000 0.500000 3.295279 14.961913 0.554453 0.055676
4962.497000 4962.500000 0.500000 3.296005 14.966121 0.554208 0.055435
4962.746000 4962.750000 0.500000 3.297315 14.971681 0.553686 0.055142
4962.995000 4963.000000 0.500000 3.297968 14.974931 0.553447 0.054839
4963.248000 4963.250000 0.500000 3.299659 15.012321 0.553888 0.054614
4963.498000 4963.500000 0.500000 3.301511 15.014856 0.552957 0.054333
4963.748000 4963.750000 0.500000 3.303762 15.019503 0.551892 0.053357
4964.001000 4964.000000 0.500000 3.307348 15.025246 0.550105 0.052270
4964.247000 4964.250000 0.500000 3.310791 15.028285 0.548347 0.050787
4964.498000 4964.500000 0.500000 3.317275 15.029588 0.544855 0.048050
4964.746000 4964.750000 0.500000 3.325636 15.034401 0.540500 0.044469
4964.997000 4965.000000 0.500000 3.340557 15.040623 0.532719 0.040149
4965.248000 4965.250000 0.500000 3.360374 15.046666 0.522461 0.037249
4965.496000 4965.500000 0.500000 3.386604 15.046913 0.509047 0.034974
4965.748000 4965.750000 0.500000 3.413618 15.053216 0.495671 0.034043
4966.001000 4966.000000 0.500000 3.435088 15.057610 0.485159 0.034605
4966.251000 4966.250000 0.500000 3.449034 15.058503 0.478500 0.035306
4966.499000 4966.500000 0.500000 3.459264 15.062692 0.473750 0.035950
4966.749000 4966.750000 0.500000 3.471630 15.064917 0.467997 0.036572
4966.998000 4967.000000 0.500000 3.483970 15.066583 0.462345 0.036496
4967.251000 4967.250000 0.500000 3.493887 15.067950 0.457754 0.036444
4967.501000 4967.500000 0.500000 3.504199 15.070384 0.453167 0.035899
4967.753000 4967.750000 0.500000 3.515263 15.077281 0.448380 0.035288
4968.001000 4968.000000 0.500000 3.529459 15.084709 0.442228 0.034355
4968.250000 4968.250000 0.500000 3.546226 15.088282 0.435024 0.033338
4968.500000 4968.500000 0.500000 3.564441 15.092153 0.427291 0.032148
4968.746000 4968.750000 0.500000 3.584034 15.093370 0.419121 0.030903
4968.996000 4969.000000 0.500000 3.604671 15.095100 0.410568 0.029924
4969.249000 4969.250000 0.500000 3.625779 15.092978 0.401936 0.029155
4969.502000 4969.500000 0.500000 3.646570 15.096441 0.393734 0.028010
4969.748000 4969.750000 0.500000 3.667427 15.093544 0.385554 0.027374
4970.000000 4970.000000 0.500000 3.690160 15.093765 0.376906 0.026652
4970.251000 4970.250000 0.500000 3.713076 15.106901 0.368621 0.025704
4970.499000 4970.500000 0.500000 3.737548 15.117381 0.359979 0.025451
4970.748000 4970.750000 0.500000 3.766472 15.125702 0.349926 0.024637
4971.000000 4971.000000 0.500000 3.797663 15.134252 0.339343 0.023798
4971.252000 4971.250000 0.500000 3.831212 15.144561 0.328416 0.022859
4971.502000 4971.500000 0.500000 3.862092 15.149477 0.318476 0.022109
4971.752000 4971.750000 0.500000 3.894857 15.153895 0.308302 0.020962
4972.002000 4972.000000 0.500000 3.926353 15.160010 0.298840 0.020010
4972.251000 4972.250000 0.500000 3.956126 15.162231 0.290185 0.019103
4972.500000 4972.500000 0.500000 3.983444 15.166360 0.282410 0.018556
4972.748000 4972.750000 0.500000 4.011605 15.170835 0.274670 0.017567
4973.002000 4973.000000 0.500000 4.037488 15.174288 0.267686 0.016731
4973.253000 4973.250000 0.500000 4.060639 15.178707 0.261638 0.015911
4973.503000 4973.500000 0.500000 4.082129 15.181933 0.256143 0.015676
4973.750000 4973.750000 0.500000 4.101521 15.183323 0.251285 0.015126
4974.000000 4974.000000 0.500000 4.120238 15.197525 0.246814 0.014440
4974.249000 4974.250000 0.500000 4.135179 15.218959 0.243525 0.013965
4974.500000 4974.500000 0.500000 4.147450 15.220050 0.240548 0.013828
4974.748000 4974.750000 0.500000 4.158630 15.222395 0.237913 0.013366
4975.004000 4975.000000 0.500000 4.166763 15.224331 0.235996 0.013037
4975.252000 4975.250000 0.500000 4.175536 15.222433 0.233926 0.012766
4975.503000 4975.500000 0.500000 4.184514 15.221290 0.231806 0.012413
4975.752000 4975.750000 0.500000 4.194400 15.221942 0.229529 0.012380
4976.000000 4976.000000 0.500000 4.206565 15.223794 0.226779 0.011911
4976.250000 4976.250000 0.500000 4.220532 15.225147 0.223678 0.011656
4976.503000 4976.500000 0.500000 4.237145 15.224439 0.219945 0.011341
4976.751000 4976.750000 0.500000 4.254705 15.222461 0.216117 0.010926
4977.000000 4977.000000 0.500000 4.272756 15.225596 0.212317 0.010868
4977.253000 4977.250000 0.500000 4.293083 15.226518 0.208036 0.010445
4977.503000 4977.500000 0.500000 4.311486 15.231776 0.204295 0.010047
4977.750000 4977.750000 0.500000 4.332850 15.234431 0.200030 0.009670
4977.999000 4978.000000 0.500000 4.350795 15.237991 0.196522 0.009684
4978.251000 4978.250000 0.500000 4.372135 15.241170 0.192409 0.009355
4978.501000 4978.500000 0.500000 4.390938 15.244131 0.188865 0.009062
4978.754000 4978.750000 0.500000 4.409668 15.244877 0.185330 0.009166
4979.003000 4979.000000 0.500000 4.430493 15.246278 0.181558 0.008776
4979.254000 4979.250000 0.500000 4.449639 15.245266 0.178098 0.008641
4979.500000 4979.500000 0.500000 4.468177 15.243519 0.174836 0.008382
4979.751000 4979.750000 0.500000 4.490422 15.241577 0.170931 0.008362
4979.999000 4980.000000 0.500000 4.511387 15.240041 0.167397 0.007946
4980.251000 4980.250000 0.500000 4.532754 15.236497 0.163808 0.007899
4980.502000 4980.500000 0.500000 4.555594 15.235098 0.160094 0.007649
4980.755000 4980.750000 0.500000 4.577751 15.232321 0.156540 0.007949
4981.003000 4981.000000 0.500000 4.601222 15.229941 0.152893 0.007544
4981.251000 4981.250000 0.500000 4.623276 15.231534 0.149591 0.007600
4981.500000 4981.500000 0.500000 4.648163 15.231079 0.145901 0.007254
4981.752000 4981.750000 0.500000 4.672566 15.232469 0.142374 0.007300
4982.002000 4982.000000 0.500000 4.699950 15.237668 0.138562 0.006929
4982.252000 4982.250000 0.500000 4.727069 15.237647 0.134881 0.006722
4982.504000 4982.500000 0.500000 4.752711 15.240389 0.131488 0.006750
4982.752000 4982.750000 0.500000 4.779714 15.244170 0.128024 0.006545
4983.003000 4983.000000 0.500000 4.802123 15.243830 0.125170 0.006257
4983.250000 4983.250000 0.500000 4.822565 15.275422 0.122904 0.006241
4983.500000 4983.500000 0.500000 4.834970 15.275797 0.121398 0.006365
4983.750000 4983.750000 0.500000 4.845794 15.274135 0.120077 0.006344
4984.003000 4984.000000 0.500000 4.850963 15.271120 0.119431 0.006257
4984.250000 4984.250000 0.500000 4.852291 15.270786 0.119273 0.006143
4984.502000 4984.500000 0.500000 4.849548 15.271711 0.119608 0.006206
4984.750000 4984.750000 0.500000 4.841005 15.272596 0.120630 0.006253
4985.002000 4985.000000 0.500000 4.831884 15.272665 0.121753 0.006233
4985.247000 4985.250000 0.500000 4.817946 15.273713 0.123446 0.006280
4985.501000 4985.500000 0.500000 4.802793 15.274356 0.125352 0.006468
4985.752000 4985.750000 0.500000 4.784212 15.278676 0.127744 0.006864
4986.005000 4986.000000 0.500000 4.766483 15.281727 0.130080 0.006702
4986.253000 4986.250000 0.500000 4.747912 15.279678 0.132475 0.006774
4986.505000 4986.500000 0.500000 4.731230 15.279710 0.134715 0.006952
4986.752000 4986.750000 0.500000 4.714668 15.275428 0.136909 0.007233
4987.000000 4987.000000 0.500000 4.697088 15.274809 0.139327 0.007278
4987.249000 4987.250000 0.500000 4.683238 15.272671 0.141242 0.007147
4987.501000 4987.500000 0.500000 4.668997 15.270987 0.143261 0.007439
4987.754000 4987.750000 0.500000 4.656432 15.270116 0.145082 0.007190
4988.001000 4988.000000 0.500000 4.644255 15.273061 0.146865 0.007484
4988.251000 4988.250000 0.500000 4.631339 15.279148 0.148827 0.007760
4988.501000 4988.500000 0.500000 4.621108 15.285063 0.150433 0.007639
4988.752000 4988.750000 0.500000 4.611352 15.296304 0.152029 0.007602
4989.000000 4989.000000 0.500000 4.600204 15.304361 0.153803 0.007672
4989.251000 4989.250000 0.500000 4.588819 15.318727 0.155710 0.007826
4989.504000 4989.500000 0.500000 4.577574 15.334784 0.157648 0.008106
4989.753000 4989.750000 0.500000 4.570142 15.345710 0.158937 0.007851
4990.003000 4990.000000 0.500000 4.558371 15.358327 0.160943 0.008022
4990.253000 4990.250000 0.500000 4.549603 15.370015 0.162480 0.008097
4990.500000 4990.500000 0.500000 4.541878 15.380162 0.163845 0.008253
4990.751000 4990.750000 0.500000 4.533784 15.393906 0.165333 0.008180
4991.000000 4991.000000 0.500000 4.526343 15.405866 0.166687 0.008269
4991.250000 4991.250000 0.500000 4.520238 15.416111 0.167823 0.008371
4991.501000 4991.500000 0.500000 4.515829 15.426115 0.168676 0.008434
4991.752000 4991.750000 0.500000 4.513432 15.434548 0.169174 0.008496
4992.001000 4992.000000 0.500000 4.510079 15.442874 0.169832 0.008592
4992.251000 4992.250000 0.500000 4.508755 15.452982 0.170171 0.008686
4992.501000 4992.500000 0.500000 4.507861 15.499135 0.170831 0.008596
4992.751000 4992.750000 0.500000 4.507739 15.504503 0.170911 0.008502
4993.001000 4993.000000 0.500000 4.510140 15.510236 0.170565 0.008524
4993.254000 4993.250000 0.500000 4.513402 15.516197 0.170074 0.008569
4993.506000 4993.500000 0.500000 4.515009 15.519149 0.169820 0.008377
4993.752000 4993.750000 0.500000 4.519629 15.525047 0.169115 0.008510
4994.002000 4994.000000 0.500000 4.523623 15.528603 0.168481 0.008478
4994.251000 4994.250000 0.500000 4.527746 15.532428 0.167827 0.008381
4994.502000 4994.500000 0.500000 4.533333 15.536185 0.166934 0.008322
4994.749000 4994.750000 0.500000 4.539942 15.542052 0.165900 0.008203
4995.004000 4995.000000 0.500000 4.545444 15.546875 0.165031 0.008267
4995.252000 4995.250000 0.500000 4.552789 15.548089 0.163843 0.008052
4995.501000 4995.500000 0.500000 4.558155 15.552878 0.163024 0.008063
4995.753000 4995.750000 0.500000 4.564454 15.554674 0.162014 0.007967
4996.001000 4996.000000 0.700000 4.569552 21.733942 0.225226 0.010934
4997.091000 4997.080000 0.710000 4.587514 22.103030 0.224970 0.010939
4998.185000 4998.180000 0.730000 4.590280 22.725724 0.230667 0.010926
4999.297000 4999.290000 0.740000 4.582174 23.052143 0.235885 0.011243
5000.437000 5000.430000 0.750000 4.565086 23.397927 0.243561 0.011495
5001.586000 5001.580000 0.760000 4.540819 23.752875 0.253323 0.011777
5002.768000 5002.760000 0.780000 4.512355 24.434782 0.268121 0.012233
5003.956000 5003.950000 0.790000 4.484033 24.803223 0.279981 0.012997
5005.166000 5005.160000 0.800000 4.463779 25.177392 0.290011 0.013525
5006.398000 5006.390000 0.810000 4.444182 25.557907 0.300230 0.014191
5007.647000 5007.640000 0.830000 4.426806 26.250511 0.313769 0.014858
5008.914000 5008.910000 0.840000 4.407476 26.626696 0.324466 0.016144
5010.206000 5010.200000 0.850000 4.392218 27.004035 0.334130 0.016473
5011.516000 5011.510000 0.860000 4.376990 27.378352 0.343961 0.017111
5012.832000 5012.830000 0.880000 4.366694 28.062562 0.356200 0.017754
5014.185000 5014.180000 0.890000 4.359037 28.432637 0.363674 0.018078
5015.546000 5015.540000 0.900000 4.353310 28.804289 0.370544 0.018463
5016.936000 5016.930000 0.910000 4.347962 29.176367 0.377343 0.019243
5018.335000 5018.330000 0.930000 4.342799 29.887087 0.388534 0.019657
5019.755000 5019.750000 0.940000 4.335026 30.334500 0.397428 0.020424
5021.196000 5021.190000 0.950000 4.329117 30.722973 0.404904 0.021044
5022.655000 5022.650000 0.960000 4.327753 31.110440 0.410568 0.021270
5024.136000 5024.130000 0.980000 4.331911 31.832940 0.418359 0.021848
5025.637000 5025.630000 0.990000 4.343825 32.229443 0.418554 0.022046
5027.146000 5027.140000 1.000000 4.362328 32.615878 0.415805 0.021388
5028.686000 5028.680000 1.010000 4.384122 33.015424 0.411821 0.021302
5030.243000 5030.240000 1.030000 4.407919 33.734819 0.410915 0.021296
5031.815000 5031.810000 1.040000 4.432011 34.128843 0.405815 0.020572
5033.405000 5033.400000 1.050000 4.453324 34.529452 0.401919 0.020155
5035.016000 5035.010000 1.060000 4.471964 34.929030 0.399067 0.019753
5036.657000 5036.650000 1.080000 4.482868 35.662326 0.403020 0.019547
5038.300000 5038.300000 1.090000 4.481274 36.073930 0.408319 0.019928
5039.975000 5039.970000 1.100000 4.473898 36.480897 0.415982 0.020125
5041.646000 5041.650000 1.110000 4.459985 36.887152 0.426493 0.020907
5043.356000 5043.360000 1.130000 4.445021 37.637070 0.441739 0.021546
5045.086000 5045.090000 1.140000 4.429072 38.050750 0.453772 0.022181
5046.824000 5046.830000 1.150000 4.411484 38.468057 0.466895 0.022895
5048.596000 5048.600000 1.160000 4.390307 38.888014 0.482103 0.024296
5050.376000 5050.380000 1.180000 4.368285 39.657152 0.502592 0.025652
5052.175000 5052.180000 1.190000 4.345835 40.084009 0.519516 0.027300
5053.995000 5054.000000 1.200000 4.329084 40.520512 0.534040 0.027917
5055.836000 5055.840000 1.210000 4.317898 40.953959 0.545830 0.029261
5057.695000 5057.700000 1.230000 4.313949 41.819399 0.559568 0.029729
5059.573000 5059.580000 1.240000 4.315539 42.260548 0.564574 0.030237
5061.476000 5061.480000 1.250000 4.319938 42.702335 0.567972 0.030449
5063.394000 5063.400000 1.260000 4.321720 43.148687 0.572888 0.030999
5065.327000 5065.330000 1.280000 4.321331 43.947427 0.583720 0.031402
5067.282000 5067.290000 1.290000 4.312953 44.401390 0.594699 0.032337
5069.257000 5069.260000 1.300000 4.300363 44.858701 0.608451 0.033127
5071.254000 5071.260000 1.310000 4.284177 45.314009 0.624644 0.034195
5073.266000 5073.270000 1.330000 4.267511 46.125824 0.646527 0.035401
5075.296000 5075.300000 1.340000 4.253035 46.585259 0.662487 0.036160
5077.347000 5077.350000 1.350000 4.243833 47.054293 0.675345 0.036411
5079.419000 5079.420000 1.360000 4.239586 47.528860 0.685059 0.036753
5081.506000 5081.510000 1.380000 4.240637 48.354586 0.696230 0.036478
5083.607000 5083.610000 1.390000 4.245831 48.829863 0.699432 0.036316
5085.739000 5085.740000 1.400000 4.252683 49.307910 0.701450 0.035977
5087.890000 5087.890000 1.410000 4.258983 49.784263 0.703785 0.035616
5090.053000 5090.050000 1.430000 4.261277 50.625507 0.714044 0.035669
5092.228000 5092.230000 1.440000 4.255936 51.128571 0.724994 0.036307
5094.440000 5094.440000 1.450000 4.245141 51.719058 0.741327 0.037702
5096.661000 5096.660000 1.460000 4.231943 52.244335 0.758809 0.039580
5098.902000 5098.900000 1.480000 4.218691 53.107390 0.781635 0.041713
5101.161000 5101.160000 1.490000 4.208605 53.606535 0.796967 0.043718
5103.442000 5103.440000 1.500000 4.203116 54.132631 0.809222 0.045103
5105.742000 5105.740000 1.510000 4.201651 54.655292 0.818236 0.045904
5108.046000 5108.050000 1.530000 4.204366 55.526385 0.829028 0.046690
5110.391000 5110.390000 1.540000 4.207383 56.047379 0.834280 0.047561
5112.742000 5112.740000 1.550000 4.210149 56.579741 0.839878 0.047850
5115.122000 5115.120000 1.560000 4.209313 57.104558 0.848381 0.048145
5117.514000 5117.510000 1.580000 4.203334 58.006634 0.866949 0.049367
5119.922000 5119.920000 1.590000 4.194838 58.546102 0.882475 0.050433
5122.349000 5122.350000 1.600000 4.183684 59.083950 0.900568 0.051277
5124.801000 5124.800000 1.610000 4.172027 59.620253 0.919394 0.052731
5127.271000 5127.270000 1.630000 4.160103 60.545253 0.944868 0.054808
5129.764000 5129.760000 1.640000 4.149915 61.100563 0.963308 0.055607
