# XDI/1.0 BlueSky/1.5.0
# Beamline.name: 6BM
# Beamline.xray_source: NSLS-II three-pole wiggler
# Beamline.collimation: paraboloid mirror, 5 nm Rh on 30 nm Pt
# Beamline.focusing: not in use
# Beamline.harmonic_rejection: flat mirror, Si stripe, pitch = 7.0 mrad relative to beam
# Detector.i0: 10 cm N2
# Detector.i1: 25 cm N2
# Detector.i2: 25 cm N2
# Element.symbol: Ti
# Element.edge: K
# Facility.name: NSLS-II
# Facility.energy: 3.0
# Facility.current: 220.0
# Facility.mode: top-off
# Facility.gup: 301027
# Facility.saf: 304156
# Mono.name: Si(111)
# Mono.d_spacing: 3.1352584
# Mono.encoder_resolution: 0.0000050 deg/ct
# Mono.angle_offset: 16.0571090 deg
# Mono.scan_mode: pseudo channel cut
# Mono.scan_type: step
# Mono.direction: forward in energy
# Sample.name: Ce0.67TiO3
# Sample.prep: Powder in polyethylene glycol pellet
# Sample.x_position: -97.532 mm
# Sample.y_position: 117.543 mm
# Sample.wheel_position: -585.000 mm
# Scan.experimenters: Bruce Ravel, Martin Stennett
# Scan.edge_energy: 4966.0
# Scan.start_time: 2019-05-30T02:58:06
# Scan.end_time: 2019-05-30T03:41:20
# Scan.transient_id: 9785
# Scan.uid: 0c4a041b-07c3-4785-b3c7-19ed2b21f262
# Scan.plot_hint: ln(I0/It)  --  ln($5/$6)
# Scan.sequence: merge of 3 scans
# Column.1: energy eV
# Column.2: requested_energy eV
# Column.3: measurement_time seconds
# Column.4: mutrans
# Column.5: i0
# Column.6: itrans
# Column.7: irefer
# /////
#  sample disk prepared by Martin
# -----
# energy   requested_energy   measurement_time   mutrans   i0   itrans   irefer
4765.999000 4766.000000 0.500000 4.131623 11.034183 0.177176 0.015323
4776.007000 4776.000000 0.500000 4.104292 11.262330 0.185848 0.016036
4786.009000 4786.000000 0.500000 4.073904 11.484124 0.195355 0.017063
4796.007000 4796.000000 0.500000 4.044654 11.709464 0.205100 0.017783
4806.008000 4806.000000 0.500000 4.016825 11.934761 0.214945 0.018844
4816.006000 4816.000000 0.500000 3.987534 12.153520 0.225391 0.020147
4826.006000 4826.000000 0.500000 3.959676 12.373983 0.235965 0.021060
4835.999000 4836.000000 0.500000 3.931513 12.600706 0.247147 0.022484
4845.999000 4846.000000 0.500000 3.904353 12.832211 0.258615 0.023650
4856.001000 4856.000000 0.500000 3.876666 13.056956 0.270534 0.024897
4866.012000 4866.000000 0.500000 3.849836 13.280478 0.282655 0.026341
4876.005000 4876.000000 0.500000 3.822521 13.502558 0.295338 0.027960
4886.004000 4886.000000 0.500000 3.795007 13.717359 0.308405 0.029746
4896.004000 4896.000000 0.500000 3.768692 13.924878 0.321418 0.031327
4906.005000 4906.000000 0.500000 3.742544 14.124447 0.334664 0.032819
4916.000000 4916.000000 0.500000 3.716249 14.325327 0.348464 0.034462
4925.999000 4926.000000 0.500000 3.690492 14.525270 0.362546 0.036397
4936.002000 4936.000000 0.500000 3.664008 14.719704 0.377261 0.038324
4938.001000 4938.000000 0.500000 3.659510 14.754830 0.379867 0.038468
4939.998000 4940.000000 0.500000 3.654386 14.794386 0.382838 0.038749
4941.996000 4942.000000 0.500000 3.649098 14.828283 0.385752 0.039642
4943.996000 4944.000000 0.500000 3.644300 14.862400 0.388498 0.039501
4946.007000 4946.000000 0.500000 3.639761 14.897528 0.391188 0.040084
4948.005000 4948.000000 0.500000 3.634537 14.927258 0.394022 0.040239
4950.005000 4950.000000 0.500000 3.629117 14.964431 0.397151 0.040839
4952.002000 4952.000000 0.500000 3.624766 14.994999 0.399694 0.040997
4954.004000 4954.000000 0.500000 3.619637 15.023352 0.402514 0.041061
4956.002000 4956.000000 0.500000 3.614962 15.052187 0.405173 0.041918
4956.247000 4956.250000 0.500000 3.613904 15.054176 0.405658 0.041950
4956.498000 4956.500000 0.500000 3.613731 15.057933 0.405831 0.041783
4956.746000 4956.750000 0.500000 3.612952 15.058559 0.406161 0.041910
4956.996000 4957.000000 0.500000 3.612576 15.063456 0.406447 0.041888
4957.245000 4957.250000 0.500000 3.611423 15.064535 0.406942 0.042111
4957.496000 4957.500000 0.500000 3.610939 15.067958 0.407234 0.042032
4957.745000 4957.750000 0.500000 3.610847 15.070268 0.407335 0.041957
4957.993000 4958.000000 0.500000 3.609668 15.077331 0.408003 0.042083
4958.245000 4958.250000 0.500000 3.609671 15.093391 0.408440 0.042051
4958.493000 4958.500000 0.500000 3.608841 15.095255 0.408828 0.042168
4958.746000 4958.750000 0.500000 3.608753 15.109195 0.409243 0.042138
4958.996000 4959.000000 0.500000 3.607798 15.111741 0.409702 0.042382
4959.246000 4959.250000 0.500000 3.607781 15.114644 0.409792 0.042061
4959.498000 4959.500000 0.500000 3.606180 15.119581 0.410578 0.042428
4959.746000 4959.750000 0.500000 3.606517 15.119798 0.410446 0.042476
4959.996000 4960.000000 0.500000 3.605790 15.121968 0.410802 0.042179
4960.246000 4960.250000 0.500000 3.604931 15.129018 0.411349 0.042358
4960.495000 4960.500000 0.500000 3.603984 15.131836 0.411813 0.042463
4960.746000 4960.750000 0.500000 3.604283 15.136283 0.411813 0.042071
4960.997000 4961.000000 0.500000 3.603100 15.139480 0.412387 0.042443
4961.247000 4961.250000 0.500000 3.602809 15.142970 0.412602 0.042370
4961.498000 4961.500000 0.500000 3.602821 15.146945 0.412706 0.042224
4961.747000 4961.750000 0.500000 3.601771 15.154350 0.413342 0.042250
4961.996000 4962.000000 0.500000 3.601162 15.159882 0.413742 0.042423
4962.245000 4962.250000 0.500000 3.600971 15.163155 0.413912 0.042083
4962.496000 4962.500000 0.500000 3.600134 15.162990 0.414255 0.042032
4962.745000 4962.750000 0.500000 3.599710 15.175995 0.414787 0.041974
4962.995000 4963.000000 0.500000 3.599607 15.209846 0.415753 0.041827
4963.250000 4963.250000 0.500000 3.598404 15.214654 0.416388 0.041979
4963.497000 4963.500000 0.500000 3.598026 15.218379 0.416643 0.041694
4963.748000 4963.750000 0.500000 3.598153 15.219608 0.416627 0.041056
4963.997000 4964.000000 0.500000 3.597566 15.223627 0.416979 0.040292
4964.245000 4964.250000 0.500000 3.596950 15.228339 0.417366 0.039046
4964.497000 4964.500000 0.500000 3.596942 15.232958 0.417497 0.036878
4964.748000 4964.750000 0.500000 3.596690 15.239441 0.417779 0.034190
4964.997000 4965.000000 0.500000 3.596696 15.240932 0.417818 0.031605
4965.251000 4965.250000 0.500000 3.596808 15.242391 0.417811 0.029929
4965.498000 4965.500000 0.500000 3.597018 15.246696 0.417841 0.029190
4965.749000 4965.750000 0.500000 3.597971 15.250952 0.417563 0.029503
4965.997000 4966.000000 0.500000 3.599600 15.256201 0.417028 0.030421
4966.248000 4966.250000 0.500000 3.600874 15.256819 0.416512 0.031329
4966.500000 4966.500000 0.500000 3.603578 15.261916 0.415515 0.032390
4966.748000 4966.750000 0.500000 3.606034 15.259086 0.414427 0.032719
4967.002000 4967.000000 0.500000 3.611008 15.261435 0.412424 0.032816
4967.252000 4967.250000 0.500000 3.613912 15.264257 0.411311 0.033100
4967.501000 4967.500000 0.500000 3.615911 15.270559 0.410664 0.032751
4967.751000 4967.750000 0.500000 3.615868 15.276386 0.410836 0.032306
4967.998000 4968.000000 0.500000 3.615141 15.280242 0.411239 0.032023
4968.250000 4968.250000 0.500000 3.617668 15.284160 0.410304 0.031379
4968.496000 4968.500000 0.500000 3.621982 15.287677 0.408647 0.030808
4968.748000 4968.750000 0.500000 3.628565 15.288185 0.405980 0.030102
4969.001000 4969.000000 0.500000 3.636635 15.288779 0.402727 0.029375
4969.250000 4969.250000 0.500000 3.641560 15.288480 0.400743 0.028689
4969.501000 4969.500000 0.500000 3.642329 15.295757 0.400617 0.028607
4969.749000 4969.750000 0.500000 3.640229 15.317384 0.402021 0.028618
4970.000000 4970.000000 0.500000 3.638420 15.324228 0.402934 0.028546
4970.247000 4970.250000 0.500000 3.636735 15.331835 0.403807 0.028438
4970.501000 4970.500000 0.500000 3.635393 15.342451 0.404642 0.028433
4970.752000 4970.750000 0.500000 3.633760 15.354750 0.405622 0.028372
4971.002000 4971.000000 0.500000 3.633108 15.360648 0.406043 0.028145
4971.253000 4971.250000 0.500000 3.632072 15.366967 0.406629 0.028024
4971.501000 4971.500000 0.500000 3.632787 15.374480 0.406535 0.027690
4971.751000 4971.750000 0.500000 3.635602 15.381272 0.405574 0.027002
4971.999000 4972.000000 0.500000 3.639262 15.386763 0.404234 0.026591
4972.249000 4972.250000 0.500000 3.643327 15.389224 0.402661 0.025892
4972.499000 4972.500000 0.500000 3.646726 15.391480 0.401361 0.025276
4972.751000 4972.750000 0.500000 3.648872 15.395509 0.400599 0.024767
4973.002000 4973.000000 0.500000 3.649785 15.400012 0.400351 0.024186
4973.251000 4973.250000 0.500000 3.650148 15.402226 0.400262 0.023815
4973.500000 4973.500000 0.500000 3.649760 15.406668 0.400531 0.023034
4973.750000 4973.750000 0.500000 3.647603 15.409106 0.401462 0.022771
4973.999000 4974.000000 0.500000 3.644348 15.410930 0.402811 0.022585
4974.250000 4974.250000 0.500000 3.642032 15.413521 0.403819 0.022205
4974.501000 4974.500000 0.500000 3.639545 15.415642 0.404887 0.021713
4974.752000 4974.750000 0.500000 3.636286 15.415862 0.406208 0.021480
4975.003000 4975.000000 0.500000 3.635055 15.417850 0.406760 0.021134
4975.251000 4975.250000 0.500000 3.633777 15.417317 0.407266 0.020731
4975.502000 4975.500000 0.500000 3.633001 15.415728 0.407541 0.020435
4975.751000 4975.750000 0.500000 3.633709 15.414190 0.407213 0.020121
4976.002000 4976.000000 0.500000 3.634803 15.417204 0.406839 0.019799
4976.249000 4976.250000 0.500000 3.637655 15.411157 0.405540 0.019248
4976.503000 4976.500000 0.500000 3.640808 15.414920 0.404344 0.019139
4976.751000 4976.750000 0.500000 3.644684 15.415773 0.402818 0.018833
4977.003000 4977.000000 0.500000 3.650269 15.416905 0.400595 0.018302
4977.249000 4977.250000 0.500000 3.657080 15.416973 0.397896 0.017770
4977.499000 4977.500000 0.500000 3.664817 15.418496 0.394855 0.017647
4977.749000 4977.750000 0.500000 3.672685 15.418688 0.391778 0.017416
4978.003000 4978.000000 0.500000 3.682879 15.421081 0.387830 0.017195
4978.252000 4978.250000 0.500000 3.694145 15.422786 0.383526 0.016695
4978.503000 4978.500000 0.500000 3.705997 15.428647 0.379151 0.016475
4978.752000 4978.750000 0.500000 3.719272 15.429719 0.374209 0.016345
4979.001000 4979.000000 0.500000 3.733179 15.425541 0.368941 0.015647
4979.250000 4979.250000 0.500000 3.747238 15.421914 0.363711 0.015635
4979.501000 4979.500000 0.500000 3.761914 15.419877 0.358338 0.015258
4979.750000 4979.750000 0.500000 3.778181 15.417283 0.352519 0.015262
4980.001000 4980.000000 0.500000 3.795596 15.414953 0.346348 0.014870
4980.253000 4980.250000 0.500000 3.816360 15.412934 0.339205 0.014298
4980.499000 4980.500000 0.500000 3.837145 15.410827 0.332257 0.014117
4980.752000 4980.750000 0.500000 3.861088 15.405559 0.324232 0.013929
4981.000000 4981.000000 0.500000 3.887360 15.405556 0.315805 0.013716
4981.251000 4981.250000 0.500000 3.914419 15.402521 0.307270 0.013170
4981.500000 4981.500000 0.500000 3.941554 15.403570 0.299063 0.013055
4981.753000 4981.750000 0.500000 3.970061 15.405371 0.290682 0.012406
4982.001000 4982.000000 0.500000 3.997882 15.406726 0.282817 0.012217
4982.253000 4982.250000 0.500000 4.023936 15.405345 0.275468 0.011911
4982.500000 4982.500000 0.500000 4.047719 15.408937 0.269092 0.011670
4982.753000 4982.750000 0.500000 4.069634 15.406772 0.263200 0.011366
4982.999000 4983.000000 0.500000 4.087870 15.411025 0.258561 0.011325
4983.251000 4983.250000 0.500000 4.101400 15.411110 0.255038 0.011253
4983.500000 4983.500000 0.500000 4.112075 15.408658 0.252305 0.011003
4983.753000 4983.750000 0.500000 4.116308 15.407575 0.251217 0.011001
4984.002000 4984.000000 0.500000 4.115911 15.402356 0.251230 0.011006
4984.253000 4984.250000 0.500000 4.111677 15.401099 0.252279 0.011197
4984.499000 4984.500000 0.500000 4.105647 15.400367 0.253780 0.010899
4984.751000 4984.750000 0.500000 4.095438 15.401549 0.256410 0.011465
4984.999000 4985.000000 0.500000 4.086881 15.400500 0.258587 0.011433
4985.252000 4985.250000 0.500000 4.075766 15.402871 0.261542 0.011850
4985.502000 4985.500000 0.500000 4.065849 15.405862 0.264194 0.011968
4985.753000 4985.750000 0.500000 4.056724 15.404877 0.266591 0.011782
4986.002000 4986.000000 0.500000 4.046667 15.404161 0.269259 0.011981
4986.253000 4986.250000 0.500000 4.038317 15.400886 0.271472 0.011961
4986.500000 4986.500000 0.500000 4.029920 15.401963 0.273767 0.012245
4986.752000 4986.750000 0.500000 4.023194 15.398161 0.275563 0.012317
4987.001000 4987.000000 0.500000 4.018293 15.394790 0.276856 0.012428
4987.255000 4987.250000 0.500000 4.013961 15.396837 0.278097 0.012613
4987.502000 4987.500000 0.500000 4.011780 15.440901 0.279497 0.012638
4987.753000 4987.750000 0.500000 4.010173 15.438987 0.279909 0.012698
4988.001000 4988.000000 0.500000 4.009425 15.442669 0.280190 0.012842
4988.252000 4988.250000 0.500000 4.010772 15.449168 0.279931 0.012731
4988.500000 4988.500000 0.500000 4.012352 15.456978 0.279633 0.012712
4988.751000 4988.750000 0.500000 4.013101 15.463222 0.279533 0.012591
4989.001000 4989.000000 0.500000 4.013949 15.476879 0.279535 0.012897
4989.253000 4989.250000 0.500000 4.017568 15.484540 0.278664 0.012503
4989.503000 4989.500000 0.500000 4.020966 15.500494 0.278013 0.012351
4989.752000 4989.750000 0.500000 4.022470 15.509948 0.277763 0.012647
4990.003000 4990.000000 0.500000 4.025470 15.523627 0.277173 0.012696
4990.251000 4990.250000 0.500000 4.030045 15.532969 0.276083 0.012356
4990.500000 4990.500000 0.500000 4.033287 15.542384 0.275352 0.012545
4990.750000 4990.750000 0.500000 4.036052 15.555952 0.274822 0.012712
4991.005000 4991.000000 0.500000 4.041397 15.566270 0.273540 0.012415
4991.251000 4991.250000 0.500000 4.043212 15.576414 0.273230 0.012534
4991.503000 4991.500000 0.500000 4.045601 15.586885 0.272759 0.012383
4991.750000 4991.750000 0.500000 4.047441 15.596193 0.272421 0.012584
4992.001000 4992.000000 0.500000 4.050391 15.632241 0.272249 0.012639
4992.249000 4992.250000 0.500000 4.052194 15.638386 0.271865 0.012377
4992.501000 4992.500000 0.500000 4.053428 15.650243 0.271731 0.012816
4992.754000 4992.750000 0.500000 4.055719 15.655918 0.271203 0.012515
4993.002000 4993.000000 0.500000 4.057171 15.661772 0.270917 0.012609
4993.255000 4993.250000 0.500000 4.057860 15.665014 0.270782 0.012597
4993.501000 4993.500000 0.500000 4.059564 15.667762 0.270372 0.012323
4993.752000 4993.750000 0.500000 4.059337 15.671214 0.270493 0.012456
4993.998000 4994.000000 0.500000 4.061338 15.677101 0.270060 0.012410
4994.250000 4994.250000 0.500000 4.061371 15.680931 0.270110 0.012261
4994.502000 4994.500000 0.500000 4.062137 15.686843 0.270005 0.012520
4994.749000 4994.750000 0.500000 4.061959 15.687498 0.270064 0.012297
4995.002000 4995.000000 0.500000 4.062449 15.692339 0.270016 0.012251
4995.249000 4995.250000 0.500000 4.062288 15.694650 0.270097 0.012486
4995.503000 4995.500000 0.500000 4.062964 15.696952 0.269958 0.012028
4995.750000 4995.750000 0.500000 4.062162 15.701071 0.270242 0.012122
4996.000000 4996.000000 0.700000 4.061287 21.960095 0.378301 0.016959
4997.091000 4997.080000 0.710000 4.057710 22.308548 0.385681 0.016907
4998.186000 4998.180000 0.730000 4.050171 22.934501 0.399507 0.017217
4999.296000 4999.290000 0.740000 4.041722 23.259292 0.408599 0.017415
5000.437000 5000.430000 0.750000 4.033623 23.607046 0.418083 0.017654
5001.585000 5001.580000 0.760000 4.024688 23.968620 0.428291 0.018033
5002.767000 5002.760000 0.780000 4.012644 24.652001 0.445838 0.019086
5003.956000 5003.950000 0.790000 3.999234 25.068026 0.459505 0.019447
5005.165000 5005.160000 0.800000 3.980163 25.442677 0.475331 0.020551
5006.398000 5006.390000 0.810000 3.961255 25.829284 0.491775 0.021247
5007.647000 5007.640000 0.830000 3.944919 26.526718 0.513373 0.022827
5008.915000 5008.910000 0.840000 3.930431 26.906483 0.528309 0.024074
5010.207000 5010.200000 0.850000 3.911334 27.284061 0.546055 0.025068
5011.518000 5011.510000 0.860000 3.894194 27.660342 0.563162 0.026019
5012.836000 5012.830000 0.880000 3.881006 28.349989 0.584860 0.027308
5014.187000 5014.180000 0.890000 3.871390 28.721712 0.598253 0.028433
5015.547000 5015.540000 0.900000 3.865160 29.094716 0.609823 0.028729
5016.937000 5016.930000 0.910000 3.862577 29.470660 0.619290 0.029165
5018.336000 5018.330000 0.930000 3.860690 30.169940 0.635181 0.030395
5019.757000 5019.750000 0.940000 3.857165 30.558787 0.645649 0.031145
5021.197000 5021.190000 0.950000 3.850752 30.946373 0.658045 0.031849
5022.650000 5022.650000 0.960000 3.844510 31.328333 0.670319 0.032808
5024.137000 5024.130000 0.980000 3.840337 32.052583 0.688692 0.033684
5025.630000 5025.630000 0.990000 3.838203 32.440116 0.698509 0.034052
5027.148000 5027.140000 1.000000 3.836083 32.833052 0.708471 0.034477
5028.689000 5028.680000 1.010000 3.834907 33.231308 0.717915 0.034345
5030.235000 5030.240000 1.030000 3.832109 33.951235 0.735505 0.034903
5031.816000 5031.810000 1.040000 3.829937 34.349909 0.745769 0.034829
5033.403000 5033.400000 1.050000 3.828831 34.751375 0.755321 0.034341
5035.006000 5035.010000 1.060000 3.829624 35.141808 0.763203 0.034247
5036.649000 5036.650000 1.080000 3.832255 35.878731 0.777155 0.034257
5038.295000 5038.300000 1.090000 3.835215 36.291645 0.783778 0.034269
5039.966000 5039.970000 1.100000 3.836916 36.693206 0.791107 0.034482
5041.645000 5041.650000 1.110000 3.835799 37.104188 0.800862 0.035357
5043.353000 5043.360000 1.130000 3.831088 37.842713 0.820651 0.036449
5045.088000 5045.090000 1.140000 3.823095 38.263441 0.836443 0.037784
5046.827000 5046.830000 1.150000 3.817030 38.673146 0.850539 0.038978
5048.598000 5048.600000 1.160000 3.812760 39.092782 0.863447 0.040304
5050.378000 5050.380000 1.180000 3.812968 39.853665 0.880068 0.041875
5052.178000 5052.180000 1.190000 3.814901 40.283413 0.887842 0.043433
5053.994000 5054.000000 1.200000 3.819743 40.715478 0.893035 0.044412
5055.836000 5055.840000 1.210000 3.822879 41.147789 0.899690 0.045021
5057.697000 5057.700000 1.230000 3.823130 41.926306 0.916479 0.046151
5059.575000 5059.580000 1.240000 3.821065 42.370184 0.928094 0.046501
5061.477000 5061.480000 1.250000 3.816259 42.810522 0.942258 0.047440
5063.394000 5063.400000 1.260000 3.809630 43.250832 0.958274 0.048259
5065.328000 5065.330000 1.280000 3.800711 44.048357 0.984685 0.050533
5067.290000 5067.290000 1.290000 3.790863 44.501831 1.004695 0.051322
5069.257000 5069.260000 1.300000 3.781024 44.957934 1.025011 0.052938
5071.258000 5071.260000 1.310000 3.772612 45.412972 1.044139 0.054444
5073.270000 5073.270000 1.330000 3.766827 46.229114 1.069068 0.055645
5075.302000 5075.300000 1.340000 3.762100 46.683760 1.084703 0.056019
5077.351000 5077.350000 1.350000 3.756753 47.200437 1.102594 0.056511
5079.418000 5079.420000 1.360000 3.748930 47.715061 1.123344 0.056970
5081.509000 5081.510000 1.380000 3.739245 48.541217 1.153933 0.057509
5083.609000 5083.610000 1.390000 3.727590 49.010891 1.178744 0.057443
5085.739000 5085.740000 1.400000 3.716262 49.491899 1.203862 0.057766
5087.891000 5087.890000 1.410000 3.707613 49.972929 1.226142 0.058165
5090.051000 5090.050000 1.430000 3.701517 50.814993 1.254421 0.059043
5092.229000 5092.230000 1.440000 3.696120 51.319758 1.273740 0.060175
5094.440000 5094.440000 1.450000 3.691709 51.939600 1.294822 0.061831
5096.662000 5096.660000 1.460000 3.685519 52.441792 1.315463 0.064556
5098.904000 5098.900000 1.480000 3.680136 53.300740 1.344230 0.067739
5101.163000 5101.160000 1.490000 3.675105 53.802850 1.363731 0.070596
5103.441000 5103.440000 1.500000 3.670307 54.314153 1.383305 0.073475
5105.743000 5105.740000 1.510000 3.664953 54.832447 1.404017 0.075299
5108.050000 5108.050000 1.530000 3.659700 55.734671 1.434622 0.077198
5110.389000 5110.390000 1.540000 3.654180 56.346133 1.458382 0.078544
5112.741000 5112.740000 1.550000 3.649814 56.868382 1.478345 0.079741
5115.122000 5115.120000 1.560000 3.645523 57.380096 1.498064 0.081062
5117.514000 5117.510000 1.580000 3.641467 58.271664 1.527527 0.082954
5119.924000 5119.920000 1.590000 3.636785 58.808578 1.548840 0.084005
5122.350000 5122.350000 1.600000 3.631486 59.334695 1.570999 0.085578
5124.800000 5124.800000 1.610000 3.625291 59.868961 1.594988 0.087619
5127.268000 5127.270000 1.630000 3.619948 60.784445 1.628048 0.089429
5129.761000 5129.760000 1.640000 3.614671 61.331542 1.651395 0.091133
