# XDI/1.0 BlueSky/1.5.0
# Beamline.name: 6BM
# Beamline.xray_source: NSLS-II three-pole wiggler
# Beamline.collimation: paraboloid mirror, 5 nm Rh on 30 nm Pt
# Beamline.focusing: not in use
# Beamline.harmonic_rejection: flat mirror, Si stripe, pitch = 7.0 mrad relative to beam
# Detector.i0: 10 cm N2
# Detector.i1: 25 cm N2
# Detector.i2: 25 cm N2
# Element.symbol: Ti
# Element.edge: K
# Facility.name: NSLS-II
# Facility.energy: 3.0
# Facility.current: 221.0
# Facility.mode: top-off
# Facility.gup: 301027
# Facility.saf: 304156
# Mono.name: Si(111)
# Mono.d_spacing: 3.1352584
# Mono.encoder_resolution: 0.0000050 deg/ct
# Mono.angle_offset: 16.0571090 deg
# Mono.scan_mode: pseudo channel cut
# Mono.scan_type: step
# Mono.direction: forward in energy
# Sample.name: Ba1.2 Fe2.4 Ti 5.6 O16
# Sample.prep: Powder in polyethylene glycol pellet
# Sample.x_position: -97.532 mm
# Sample.y_position: 117.543 mm
# Sample.wheel_position: -570.000 mm
# Scan.experimenters: Bruce Ravel, Martin Stennett
# Scan.edge_energy: 4966.0
# Scan.start_time: 2019-05-30T02:14:49
# Scan.end_time: 2019-05-30T02:57:38
# Scan.transient_id: 9782
# Scan.uid: 429a122b-c2cd-40ff-a640-542bce673ec1
# Scan.plot_hint: ln(I0/It)  --  ln($5/$6)
# Scan.sequence: merge of 3 scans
# Column.1: energy eV
# Column.2: requested_energy eV
# Column.3: measurement_time seconds
# Column.4: mutrans
# Column.5: i0
# Column.6: itrans
# Column.7: irefer
# /////
#  sample disk prepared by Martin
# -----
# energy   requested_energy   measurement_time   mutrans   i0   itrans   irefer
4765.998000 4766.000000 0.500000 3.766666 11.009840 0.254652 0.020499
4776.007000 4776.000000 0.500000 3.739354 11.227960 0.266881 0.021978
4786.009000 4786.000000 0.500000 3.713047 11.452330 0.279472 0.023232
4796.007000 4796.000000 0.500000 3.685896 11.675009 0.292747 0.024954
4806.008000 4806.000000 0.500000 3.659047 11.904108 0.306614 0.026155
4816.007000 4816.000000 0.500000 3.633299 12.125237 0.320456 0.027742
4826.008000 4826.000000 0.500000 3.607934 12.345764 0.334656 0.029414
4836.002000 4836.000000 0.500000 3.581945 12.579569 0.349984 0.031127
4846.000000 4846.000000 0.500000 3.556369 12.809392 0.365607 0.032885
4856.001000 4856.000000 0.500000 3.530936 13.036266 0.381664 0.034660
4866.012000 4866.000000 0.500000 3.505234 13.283811 0.399047 0.036743
4876.005000 4876.000000 0.500000 3.480752 13.508832 0.415862 0.038658
4886.002000 4886.000000 0.500000 3.456048 13.727609 0.433165 0.040433
4896.003000 4896.000000 0.500000 3.431444 13.934795 0.450656 0.042972
4906.002000 4906.000000 0.500000 3.406764 14.141155 0.468757 0.045115
4916.004000 4916.000000 0.500000 3.382308 14.345950 0.487320 0.047692
4926.001000 4926.000000 0.500000 3.358495 14.550762 0.506186 0.049919
4936.001000 4936.000000 0.500000 3.334675 14.749550 0.525471 0.052557
4938.001000 4938.000000 0.500000 3.329600 14.785980 0.529450 0.052964
4939.998000 4940.000000 0.500000 3.325484 14.822209 0.532935 0.053459
4942.008000 4942.000000 0.500000 3.320938 14.856410 0.536610 0.053808
4944.007000 4944.000000 0.500000 3.316221 14.893952 0.540502 0.054463
4946.006000 4946.000000 0.500000 3.311301 14.926187 0.544339 0.055061
4948.005000 4948.000000 0.500000 3.306550 14.955724 0.548015 0.055175
4950.005000 4950.000000 0.500000 3.302592 14.990386 0.551464 0.055829
4952.003000 4952.000000 0.500000 3.297582 15.022887 0.555434 0.056365
4954.003000 4954.000000 0.500000 3.293047 15.050952 0.559002 0.056914
4956.002000 4956.000000 0.500000 3.289220 15.081434 0.562280 0.057045
4956.245000 4956.250000 0.500000 3.288274 15.085997 0.562982 0.057584
4956.495000 4956.500000 0.500000 3.288201 15.087349 0.563075 0.057278
4956.744000 4956.750000 0.500000 3.287581 15.091296 0.563570 0.057230
4956.997000 4957.000000 0.500000 3.286557 15.093170 0.564218 0.057572
4957.248000 4957.250000 0.500000 3.286374 15.095574 0.564415 0.057512
4957.495000 4957.500000 0.500000 3.285701 15.098010 0.564883 0.057269
4957.744000 4957.750000 0.500000 3.284995 15.101503 0.565412 0.057783
4957.995000 4958.000000 0.500000 3.285110 15.105641 0.565502 0.057502
4958.244000 4958.250000 0.500000 3.284600 15.106424 0.565819 0.057424
4958.495000 4958.500000 0.500000 3.283630 15.110703 0.566530 0.057822
4958.745000 4958.750000 0.500000 3.283288 15.114397 0.566862 0.057712
4958.996000 4959.000000 0.500000 3.283105 15.119568 0.567159 0.057636
4959.246000 4959.250000 0.500000 3.282003 15.121953 0.567873 0.057915
4959.498000 4959.500000 0.500000 3.281673 15.158357 0.569429 0.057874
4959.746000 4959.750000 0.500000 3.281379 15.161951 0.569732 0.058109
4959.995000 4960.000000 0.500000 3.281074 15.167671 0.570120 0.057898
4960.246000 4960.250000 0.500000 3.280495 15.171855 0.570607 0.057920
4960.496000 4960.500000 0.500000 3.280370 15.175145 0.570802 0.058102
4960.746000 4960.750000 0.500000 3.279661 15.176644 0.571265 0.057709
4960.996000 4961.000000 0.500000 3.279644 15.180294 0.571413 0.057961
4961.248000 4961.250000 0.500000 3.278413 15.188021 0.572408 0.058265
4961.498000 4961.500000 0.500000 3.278221 15.192573 0.572688 0.057805
4961.749000 4961.750000 0.500000 3.277698 15.197065 0.573156 0.057891
4961.998000 4962.000000 0.500000 3.277446 15.200763 0.573441 0.058085
4962.246000 4962.250000 0.500000 3.276716 15.203842 0.573973 0.057865
4962.496000 4962.500000 0.500000 3.276677 15.207820 0.574149 0.057563
4962.745000 4962.750000 0.500000 3.276641 15.212513 0.574346 0.057425
4962.997000 4963.000000 0.500000 3.275929 15.217263 0.574935 0.057229
4963.247000 4963.250000 0.500000 3.275463 15.221500 0.575362 0.057052
4963.497000 4963.500000 0.500000 3.275069 15.225238 0.575730 0.056550
4963.749000 4963.750000 0.500000 3.274725 15.233408 0.576239 0.055994
4963.996000 4964.000000 0.500000 3.274473 15.235349 0.576455 0.054631
4964.247000 4964.250000 0.500000 3.274471 15.240832 0.576666 0.052653
4964.497000 4964.500000 0.500000 3.274667 15.246375 0.576762 0.049911
4964.745000 4964.750000 0.500000 3.273326 15.250916 0.577703 0.046282
4964.999000 4965.000000 0.500000 3.274334 15.254419 0.577258 0.042671
4965.248000 4965.250000 0.500000 3.274345 15.255654 0.577299 0.040298
4965.501000 4965.500000 0.500000 3.274483 15.260918 0.577416 0.039672
4965.748000 4965.750000 0.500000 3.274948 15.264446 0.577286 0.040124
4965.999000 4966.000000 0.500000 3.276677 15.269179 0.576467 0.041480
4966.250000 4966.250000 0.500000 3.278879 15.272963 0.575333 0.042868
4966.497000 4966.500000 0.500000 3.282713 15.277531 0.573323 0.044129
4966.749000 4966.750000 0.500000 3.289297 15.281970 0.569687 0.044465
4966.998000 4967.000000 0.500000 3.296205 15.279574 0.565707 0.044758
4967.250000 4967.250000 0.500000 3.300045 15.282084 0.563628 0.044580
4967.502000 4967.500000 0.500000 3.297921 15.282685 0.564863 0.044248
4967.750000 4967.750000 0.500000 3.294297 15.292643 0.567267 0.043874
4968.000000 4968.000000 0.500000 3.293323 15.299392 0.568068 0.043501
4968.248000 4968.250000 0.500000 3.297255 15.304525 0.566043 0.042525
4968.496000 4968.500000 0.500000 3.306227 15.305939 0.561050 0.041403
4968.749000 4968.750000 0.500000 3.320980 15.308007 0.552894 0.040061
4968.998000 4969.000000 0.500000 3.339415 15.309359 0.542915 0.039034
4969.252000 4969.250000 0.500000 3.354305 15.306714 0.534686 0.037920
4969.499000 4969.500000 0.500000 3.362654 15.310009 0.530428 0.037441
4969.752000 4969.750000 0.500000 3.364869 15.306206 0.529085 0.037094
4969.997000 4970.000000 0.500000 3.361889 15.314073 0.530919 0.036795
4970.249000 4970.250000 0.500000 3.356197 15.321852 0.534215 0.036856
4970.499000 4970.500000 0.500000 3.348481 15.335035 0.538852 0.037255
4970.750000 4970.750000 0.500000 3.338789 15.345517 0.544444 0.037116
4971.000000 4971.000000 0.500000 3.328819 15.351004 0.550121 0.037413
4971.254000 4971.250000 0.500000 3.320910 15.361337 0.554867 0.037271
4971.503000 4971.500000 0.500000 3.316144 15.367649 0.557735 0.037099
4971.750000 4971.750000 0.500000 3.314276 15.371232 0.558901 0.036526
4971.999000 4972.000000 0.500000 3.316656 15.377312 0.557789 0.035780
4972.249000 4972.250000 0.500000 3.321202 15.381852 0.555436 0.034891
4972.502000 4972.500000 0.500000 3.325561 15.413465 0.554131 0.034049
4972.752000 4972.750000 0.500000 3.328944 15.418170 0.552442 0.033333
4973.001000 4973.000000 0.500000 3.330428 15.419497 0.551677 0.032450
4973.252000 4973.250000 0.500000 3.329556 15.422668 0.552268 0.031691
4973.500000 4973.500000 0.500000 3.328498 15.425078 0.552938 0.031474
4973.749000 4973.750000 0.500000 3.327047 15.427099 0.553812 0.030645
4973.997000 4974.000000 0.500000 3.327692 15.428845 0.553525 0.029990
4974.251000 4974.250000 0.500000 3.329959 15.430725 0.552336 0.029755
4974.500000 4974.500000 0.500000 3.332817 15.433182 0.550849 0.029154
4974.753000 4974.750000 0.500000 3.336928 15.433146 0.548580 0.028211
4975.002000 4975.000000 0.500000 3.341936 15.434941 0.545900 0.027820
4975.251000 4975.250000 0.500000 3.347729 15.436386 0.542812 0.027021
4975.501000 4975.500000 0.500000 3.353716 15.433875 0.539486 0.026571
4975.751000 4975.750000 0.500000 3.360124 15.433091 0.536010 0.026097
4976.001000 4976.000000 0.500000 3.368936 15.431117 0.531209 0.025286
4976.251000 4976.250000 0.500000 3.377998 15.431924 0.526478 0.024589
4976.503000 4976.500000 0.500000 3.388887 15.430765 0.520693 0.023872
4976.752000 4976.750000 0.500000 3.402057 15.431198 0.513940 0.023126
4977.002000 4977.000000 0.500000 3.416858 15.431744 0.506399 0.022655
4977.248000 4977.250000 0.500000 3.433986 15.432620 0.497942 0.021834
4977.501000 4977.500000 0.500000 3.452235 15.433647 0.488869 0.021479
4977.749000 4977.750000 0.500000 3.471790 15.436530 0.479517 0.020887
4978.002000 4978.000000 0.500000 3.493480 15.441038 0.469280 0.020576
4978.252000 4978.250000 0.500000 3.513592 15.441279 0.459947 0.019841
4978.504000 4978.500000 0.500000 3.532472 15.442173 0.451377 0.019407
4978.752000 4978.750000 0.500000 3.548246 15.443597 0.444391 0.019352
4979.002000 4979.000000 0.500000 3.564296 15.445304 0.437357 0.018637
4979.249000 4979.250000 0.500000 3.577176 15.443059 0.431735 0.018149
4979.498000 4979.500000 0.500000 3.590235 15.442774 0.426138 0.018175
4979.750000 4979.750000 0.500000 3.602946 15.473773 0.421564 0.017924
4980.004000 4980.000000 0.500000 3.615123 15.470699 0.416318 0.017787
4980.250000 4980.250000 0.500000 3.627392 15.465751 0.411172 0.017347
4980.500000 4980.500000 0.500000 3.638726 15.466134 0.406564 0.016986
4980.752000 4980.750000 0.500000 3.651667 15.458307 0.401131 0.016966
4981.000000 4981.000000 0.500000 3.664788 15.456074 0.395846 0.016861
4981.249000 4981.250000 0.500000 3.680549 15.453203 0.389596 0.016357
4981.500000 4981.500000 0.500000 3.697173 15.456926 0.383228 0.016140
4981.752000 4981.750000 0.500000 3.716824 15.458199 0.375773 0.015610
4982.003000 4982.000000 0.500000 3.737220 15.462475 0.368238 0.015359
4982.253000 4982.250000 0.500000 3.757981 15.463713 0.360735 0.015052
4982.502000 4982.500000 0.500000 3.777733 15.465293 0.353752 0.014864
4982.750000 4982.750000 0.500000 3.797689 15.468296 0.346876 0.014560
4983.000000 4983.000000 0.500000 3.815487 15.467849 0.340726 0.014353
4983.250000 4983.250000 0.500000 3.832112 15.466290 0.335047 0.014010
4983.500000 4983.500000 0.500000 3.846732 15.465834 0.330207 0.013975
4983.749000 4983.750000 0.500000 3.862333 15.463071 0.325043 0.013621
4984.004000 4984.000000 0.500000 3.875567 15.460820 0.320668 0.013512
4984.253000 4984.250000 0.500000 3.889598 15.459039 0.316181 0.013354
4984.500000 4984.500000 0.500000 3.902377 15.461380 0.312271 0.013413
4984.751000 4984.750000 0.500000 3.915075 15.460175 0.308271 0.013429
4985.000000 4985.000000 0.500000 3.930096 15.463416 0.303748 0.013091
4985.251000 4985.250000 0.500000 3.942951 15.461699 0.299806 0.013036
4985.504000 4985.500000 0.500000 3.955983 15.463664 0.295946 0.013005
4985.754000 4985.750000 0.500000 3.968365 15.461401 0.292273 0.012915
4986.004000 4986.000000 0.500000 3.980390 15.461248 0.288754 0.012812
4986.250000 4986.250000 0.500000 3.992392 15.460243 0.285346 0.012706
4986.501000 4986.500000 0.500000 4.002391 15.457805 0.282472 0.012744
4986.749000 4986.750000 0.500000 4.012466 15.456021 0.279605 0.012552
4987.002000 4987.000000 0.500000 4.020401 15.452996 0.277314 0.012450
4987.252000 4987.250000 0.500000 4.027920 15.450943 0.275200 0.012449
4987.503000 4987.500000 0.500000 4.033867 15.449899 0.273548 0.012423
4987.752000 4987.750000 0.500000 4.037460 15.451255 0.272600 0.012382
4988.004000 4988.000000 0.500000 4.041577 15.453493 0.271514 0.012373
4988.252000 4988.250000 0.500000 4.044777 15.466943 0.270887 0.012490
4988.500000 4988.500000 0.500000 4.046833 15.502017 0.270943 0.012441
4988.750000 4988.750000 0.500000 4.048713 15.513066 0.270625 0.012293
4989.002000 4989.000000 0.500000 4.050598 15.524113 0.270303 0.012181
4989.251000 4989.250000 0.500000 4.051871 15.534778 0.270147 0.012516
4989.504000 4989.500000 0.500000 4.050647 15.546822 0.270690 0.012411
4989.751000 4989.750000 0.500000 4.050269 15.557917 0.270984 0.012222
4990.003000 4990.000000 0.500000 4.047006 15.573383 0.272138 0.012646
4990.249000 4990.250000 0.500000 4.041900 15.586532 0.273747 0.012503
4990.500000 4990.500000 0.500000 4.033800 15.599055 0.276199 0.012810
4990.752000 4990.750000 0.500000 4.025743 15.609809 0.278655 0.012772
4991.000000 4991.000000 0.500000 4.014756 15.618538 0.281865 0.012814
4991.254000 4991.250000 0.500000 4.003076 15.625713 0.285331 0.013146
4991.501000 4991.500000 0.500000 3.991507 15.636148 0.288802 0.013153
4991.753000 4991.750000 0.500000 3.977628 15.644301 0.293023 0.013278
4991.999000 4992.000000 0.500000 3.963391 15.654783 0.297384 0.013740
4992.251000 4992.250000 0.500000 3.951303 15.660114 0.301133 0.013582
4992.500000 4992.500000 0.500000 3.939476 15.665693 0.304825 0.013922
4992.753000 4992.750000 0.500000 3.927844 15.672510 0.308548 0.014100
4993.001000 4993.000000 0.500000 3.916774 15.679877 0.312119 0.014093
4993.255000 4993.250000 0.500000 3.907713 15.680933 0.314991 0.014247
4993.504000 4993.500000 0.500000 3.899877 15.687032 0.317593 0.014375
4993.749000 4993.750000 0.500000 3.893039 15.691023 0.319811 0.014593
4994.001000 4994.000000 0.500000 3.887684 15.694166 0.321613 0.014584
4994.248000 4994.250000 0.500000 3.882212 15.700463 0.323494 0.014408
4994.502000 4994.500000 0.500000 3.879328 15.703967 0.324519 0.014514
4994.750000 4994.750000 0.500000 3.877320 15.706009 0.325213 0.014732
4995.001000 4995.000000 0.500000 3.876130 15.710299 0.325688 0.014475
4995.255000 4995.250000 0.500000 3.876190 15.711581 0.325694 0.014477
4995.501000 4995.500000 0.500000 3.877644 15.714595 0.325287 0.014209
4995.752000 4995.750000 0.500000 3.880405 15.718515 0.324473 0.013968
4996.000000 4996.000000 0.700000 3.882183 21.943587 0.452175 0.019878
4997.094000 4997.080000 0.710000 3.898909 22.332709 0.452538 0.019325
4998.184000 4998.180000 0.730000 3.919672 22.960387 0.455725 0.019157
4999.295000 4999.290000 0.740000 3.941960 23.286679 0.452011 0.018701
5000.437000 5000.430000 0.750000 3.960101 23.640451 0.450612 0.018714
5001.583000 5001.580000 0.760000 3.970845 23.999094 0.452577 0.018821
5002.767000 5002.760000 0.780000 3.964158 24.678959 0.468505 0.019947
5003.956000 5003.950000 0.790000 3.938753 25.050145 0.487789 0.020422
5005.164000 5005.160000 0.800000 3.902758 25.425100 0.513196 0.021558
5006.397000 5006.390000 0.810000 3.865519 25.809588 0.540768 0.023282
5007.647000 5007.640000 0.830000 3.837248 26.505575 0.571285 0.025088
5008.915000 5008.910000 0.840000 3.812209 26.880995 0.594029 0.026338
5010.207000 5010.200000 0.850000 3.779763 27.262480 0.622355 0.028294
5011.516000 5011.510000 0.860000 3.753615 27.635994 0.647586 0.029391
5012.834000 5012.830000 0.880000 3.737651 28.327187 0.674454 0.030727
5014.186000 5014.180000 0.890000 3.730868 28.694174 0.687853 0.031403
5015.547000 5015.540000 0.900000 3.728557 29.059532 0.698228 0.032235
5016.936000 5016.930000 0.910000 3.728567 29.509726 0.709041 0.033257
5018.336000 5018.330000 0.930000 3.725572 30.212249 0.728099 0.034338
5019.756000 5019.750000 0.940000 3.716341 30.597525 0.744218 0.035313
5021.198000 5021.190000 0.950000 3.703729 30.987248 0.763276 0.036342
5022.658000 5022.650000 0.960000 3.691294 31.372558 0.782427 0.037520
5024.138000 5024.130000 0.980000 3.681653 32.090993 0.808109 0.038553
5025.637000 5025.630000 0.990000 3.674699 32.482791 0.823668 0.039222
5027.145000 5027.140000 1.000000 3.671570 32.875734 0.836245 0.039811
5028.689000 5028.680000 1.010000 3.670351 33.276953 0.847479 0.040266
5030.239000 5030.240000 1.030000 3.673139 33.989733 0.863236 0.040453
5031.816000 5031.810000 1.040000 3.678198 34.384659 0.868856 0.039859
5033.407000 5033.400000 1.050000 3.686016 34.786851 0.872161 0.039316
5035.012000 5035.010000 1.060000 3.696156 35.186540 0.873276 0.038837
5036.648000 5036.650000 1.080000 3.707335 35.921411 0.881624 0.038387
5038.294000 5038.300000 1.090000 3.717043 36.332918 0.883114 0.038349
5039.968000 5039.970000 1.100000 3.723576 36.738160 0.887136 0.038524
5041.647000 5041.650000 1.110000 3.726611 37.142740 0.894185 0.038861
5043.357000 5043.360000 1.130000 3.725157 37.886394 0.913419 0.040284
5045.088000 5045.090000 1.140000 3.721439 38.318816 0.927282 0.041281
5046.828000 5046.830000 1.150000 3.715393 38.794314 0.944490 0.042757
5048.598000 5048.600000 1.160000 3.708497 39.219302 0.961444 0.044438
5050.380000 5050.380000 1.180000 3.700764 39.982500 0.987762 0.046777
5052.178000 5052.180000 1.190000 3.694150 40.398175 1.004642 0.047924
5053.998000 5054.000000 1.200000 3.688375 40.832139 1.021320 0.049888
5055.836000 5055.840000 1.210000 3.683769 41.258225 1.036740 0.051303
5057.696000 5057.700000 1.230000 3.680681 42.031128 1.059429 0.052392
5059.577000 5059.580000 1.240000 3.678630 42.475843 1.072836 0.053584
5061.477000 5061.480000 1.250000 3.676669 42.916453 1.086092 0.053951
5063.396000 5063.400000 1.260000 3.673324 43.358509 1.100952 0.054863
5065.329000 5065.330000 1.280000 3.669468 44.159313 1.125628 0.057008
5067.286000 5067.290000 1.290000 3.664207 44.614241 1.143208 0.058368
5069.257000 5069.260000 1.300000 3.658932 45.068022 1.160950 0.059315
5071.256000 5071.260000 1.310000 3.652733 45.526256 1.180041 0.060701
5073.267000 5073.270000 1.330000 3.646078 46.331519 1.208938 0.062029
5075.299000 5075.300000 1.340000 3.638994 46.859889 1.231420 0.062994
5077.349000 5077.350000 1.350000 3.632590 47.369412 1.252814 0.063384
5079.418000 5079.420000 1.360000 3.626827 47.836801 1.272477 0.063823
5081.510000 5081.510000 1.380000 3.621704 48.661662 1.301071 0.064287
5083.610000 5083.610000 1.390000 3.616238 49.137148 1.320982 0.064110
5085.737000 5085.740000 1.400000 3.608585 49.616107 1.344099 0.064324
5087.890000 5087.890000 1.410000 3.599444 50.098344 1.369630 0.064297
5090.051000 5090.050000 1.430000 3.589225 50.946941 1.407146 0.065636
5092.231000 5092.230000 1.440000 3.577293 51.441155 1.437834 0.067484
5094.443000 5094.440000 1.450000 3.565826 51.956679 1.469006 0.069996
5096.663000 5096.660000 1.460000 3.553927 52.457076 1.500915 0.073299
5098.903000 5098.900000 1.480000 3.542191 53.318168 1.543576 0.077271
5101.165000 5101.160000 1.490000 3.531356 53.821233 1.575106 0.081030
5103.441000 5103.440000 1.500000 3.522753 54.334491 1.603855 0.084433
5105.741000 5105.740000 1.510000 3.516577 54.847182 1.629013 0.086260
5108.052000 5108.050000 1.530000 3.512043 55.720227 1.662467 0.088907
5110.390000 5110.390000 1.540000 3.508606 56.229746 1.683442 0.090340
5112.739000 5112.740000 1.550000 3.505731 56.749048 1.703878 0.091337
5115.120000 5115.120000 1.560000 3.503494 57.265967 1.723252 0.092198
5117.512000 5117.510000 1.580000 3.501823 58.158252 1.753027 0.094478
5119.920000 5119.920000 1.590000 3.500706 58.683016 1.770826 0.095226
5122.352000 5122.350000 1.600000 3.499781 59.213103 1.788476 0.096980
5124.800000 5124.800000 1.610000 3.498345 59.749708 1.807274 0.098632
5127.269000 5127.270000 1.630000 3.496485 60.662459 1.838297 0.100848
5129.760000 5129.760000 1.640000 3.493552 61.218715 1.860601 0.102120
