# XDI/1.0 BlueSky/1.5.0
# Beamline.name: 6BM
# Beamline.xray_source: NSLS-II three-pole wiggler
# Beamline.collimation: paraboloid mirror, 5 nm Rh on 30 nm Pt
# Beamline.focusing: not in use
# Beamline.harmonic_rejection: flat mirror, Si stripe, pitch = 7.0 mrad relative to beam
# Detector.i0: 10 cm N2
# Detector.i1: 25 cm N2
# Detector.i2: 25 cm N2
# Element.symbol: Ti
# Element.edge: K
# Facility.name: NSLS-II
# Facility.energy: 3.0
# Facility.current: 220.2
# Facility.mode: top-off
# Facility.gup: 301027
# Facility.saf: 304156
# Mono.name: Si(111)
# Mono.d_spacing: 3.1352584
# Mono.encoder_resolution: 0.0000050 deg/ct
# Mono.angle_offset: 16.0571090 deg
# Mono.scan_mode: pseudo channel cut
# Mono.scan_type: step
# Mono.direction: forward in energy
# Sample.name: Gd2TiO5
# Sample.prep: Powder in polyethylene glycol pellet
# Sample.x_position: -97.532 mm
# Sample.y_position: 117.543 mm
# Sample.wheel_position: -660.000 mm
# Scan.experimenters: Bruce Ravel, Martin Stennett
# Scan.edge_energy: 4966.0
# Scan.start_time: 2019-05-30T06:34:57
# Scan.end_time: 2019-05-30T07:18:04
# Scan.transient_id: 9800
# Scan.uid: ab891910-b780-46a3-beb0-4f663fd13232
# Scan.plot_hint: ln(I0/It)  --  ln($5/$6)
# Scan.sequence: merge of 3 scans
# Column.1: energy eV
# Column.2: requested_energy eV
# Column.3: measurement_time seconds
# Column.4: mutrans
# Column.5: i0
# Column.6: itrans
# Column.7: irefer
# /////
#  sample disk prepared by Martin
# -----
# energy   requested_energy   measurement_time   mutrans   i0   itrans   irefer
4765.997000 4766.000000 0.500000 4.178798 11.003406 0.168569 0.014305
4776.007000 4776.000000 0.500000 4.166853 11.193341 0.173508 0.014928
4786.009000 4786.000000 0.500000 4.138947 11.408674 0.181851 0.015803
4796.008000 4796.000000 0.500000 4.111993 11.626583 0.190387 0.016500
4806.008000 4806.000000 0.500000 4.083481 11.849248 0.199644 0.017627
4816.009000 4816.000000 0.500000 4.056256 12.061708 0.208833 0.018667
4826.006000 4826.000000 0.500000 4.027908 12.270408 0.218557 0.019635
4836.001000 4836.000000 0.500000 4.002077 12.504049 0.228545 0.020535
4845.999000 4846.000000 0.500000 3.974706 12.732490 0.239177 0.022020
4855.999000 4856.000000 0.500000 3.947003 12.949354 0.250081 0.023219
4866.008000 4866.000000 0.500000 3.919355 13.164965 0.261376 0.024478
4876.007000 4876.000000 0.500000 3.892433 13.385259 0.273002 0.025945
4886.005000 4886.000000 0.500000 3.865883 13.596803 0.284778 0.027364
4896.006000 4896.000000 0.500000 3.839619 13.801045 0.296749 0.028637
4906.003000 4906.000000 0.500000 3.813150 13.998889 0.309075 0.030452
4916.002000 4916.000000 0.500000 3.786864 14.191506 0.321673 0.032056
4926.001000 4926.000000 0.500000 3.761133 14.386867 0.334600 0.033631
4936.001000 4936.000000 0.500000 3.735954 14.578693 0.347708 0.035241
4938.001000 4938.000000 0.500000 3.730444 14.616520 0.350538 0.035576
4939.997000 4940.000000 0.500000 3.725869 14.652821 0.353014 0.035961
4941.997000 4942.000000 0.500000 3.720768 14.686119 0.355629 0.036222
4944.007000 4944.000000 0.500000 3.715927 14.718803 0.358152 0.036245
4946.005000 4946.000000 0.500000 3.709818 14.752683 0.361176 0.036883
4948.003000 4948.000000 0.500000 3.705424 14.784190 0.363539 0.037474
4950.004000 4950.000000 0.500000 3.699902 14.820825 0.366458 0.037960
4952.000000 4952.000000 0.500000 3.695063 14.854363 0.369068 0.037953
4954.003000 4954.000000 0.500000 3.689990 14.883634 0.371678 0.038379
4956.001000 4956.000000 0.500000 3.686049 14.912177 0.373861 0.038506
4956.246000 4956.250000 0.500000 3.684816 14.914171 0.374372 0.038608
4956.496000 4956.500000 0.500000 3.684166 14.914861 0.374635 0.038598
4956.745000 4956.750000 0.500000 3.683513 14.917913 0.374955 0.038593
4956.995000 4957.000000 0.500000 3.683102 14.921611 0.375202 0.038542
4957.246000 4957.250000 0.500000 3.682527 14.923842 0.375473 0.038738
4957.496000 4957.500000 0.500000 3.682290 14.931383 0.375754 0.038747
4957.746000 4957.750000 0.500000 3.681691 14.935399 0.376080 0.038598
4957.997000 4958.000000 0.500000 3.680174 14.935716 0.376660 0.038836
4958.244000 4958.250000 0.500000 3.679699 14.947131 0.377124 0.038844
4958.494000 4958.500000 0.500000 3.679046 14.967217 0.377877 0.038777
4958.744000 4958.750000 0.500000 3.677974 14.973129 0.378431 0.038987
4958.997000 4959.000000 0.500000 3.678259 14.977261 0.378433 0.039143
4959.247000 4959.250000 0.500000 3.677325 14.978851 0.378822 0.038905
4959.496000 4959.500000 0.500000 3.676294 14.982635 0.379310 0.038924
4959.746000 4959.750000 0.500000 3.676266 14.984384 0.379367 0.039134
4959.998000 4960.000000 0.500000 3.675415 14.988113 0.379782 0.039078
4960.246000 4960.250000 0.500000 3.674622 14.989539 0.380120 0.039368
4960.495000 4960.500000 0.500000 3.674010 14.996076 0.380517 0.039052
4960.745000 4960.750000 0.500000 3.673474 15.002308 0.380880 0.039284
4960.995000 4961.000000 0.500000 3.673163 15.004900 0.381064 0.039226
4961.247000 4961.250000 0.500000 3.672865 15.008690 0.381275 0.039050
4961.498000 4961.500000 0.500000 3.671927 15.012357 0.381726 0.039159
4961.746000 4961.750000 0.500000 3.671199 15.015258 0.382076 0.039245
4961.997000 4962.000000 0.500000 3.671544 15.020831 0.382088 0.038976
4962.249000 4962.250000 0.500000 3.670116 15.024098 0.382719 0.038917
4962.494000 4962.500000 0.500000 3.669405 15.028669 0.383103 0.039021
4962.746000 4962.750000 0.500000 3.670133 15.032973 0.382937 0.038487
4962.995000 4963.000000 0.500000 3.668469 15.036109 0.383653 0.038681
4963.245000 4963.250000 0.500000 3.668611 15.041417 0.383737 0.038486
4963.498000 4963.500000 0.500000 3.667522 15.046587 0.384286 0.038499
4963.748000 4963.750000 0.500000 3.667691 15.051678 0.384351 0.037757
4963.998000 4964.000000 0.500000 3.666861 15.091040 0.385675 0.037208
4964.249000 4964.250000 0.500000 3.666556 15.093946 0.385866 0.036163
4964.496000 4964.500000 0.500000 3.665993 15.096386 0.386148 0.034484
4964.749000 4964.750000 0.500000 3.665049 15.098891 0.386574 0.032214
4964.993000 4965.000000 0.500000 3.665657 15.100959 0.386395 0.029882
4965.251000 4965.250000 0.500000 3.665436 15.105846 0.386605 0.027830
4965.499000 4965.500000 0.500000 3.665414 15.110964 0.386744 0.027161
4965.749000 4965.750000 0.500000 3.664814 15.116346 0.387113 0.027283
4965.999000 4966.000000 0.500000 3.665872 15.120380 0.386812 0.027949
4966.250000 4966.250000 0.500000 3.665570 15.122208 0.386969 0.029064
4966.498000 4966.500000 0.500000 3.667922 15.123273 0.386089 0.029877
4966.748000 4966.750000 0.500000 3.669756 15.128089 0.385504 0.030739
4966.999000 4967.000000 0.500000 3.674631 15.129390 0.383658 0.030614
4967.251000 4967.250000 0.500000 3.680672 15.130293 0.381368 0.030623
4967.499000 4967.500000 0.500000 3.687744 15.130366 0.378670 0.030155
4967.751000 4967.750000 0.500000 3.697124 15.135977 0.375284 0.029633
4968.001000 4968.000000 0.500000 3.706310 15.143906 0.372050 0.029204
4968.250000 4968.250000 0.500000 3.716009 15.147109 0.368549 0.028302
4968.498000 4968.500000 0.500000 3.722199 15.149503 0.366332 0.027686
4968.747000 4968.750000 0.500000 3.719453 15.150217 0.367356 0.027208
4968.999000 4969.000000 0.500000 3.706176 15.154854 0.372361 0.027316
4969.246000 4969.250000 0.500000 3.690826 15.156038 0.378095 0.027419
4969.497000 4969.500000 0.500000 3.679571 15.154808 0.382357 0.027536
4969.752000 4969.750000 0.500000 3.671825 15.153322 0.385351 0.027546
4969.999000 4970.000000 0.500000 3.667264 15.155965 0.387169 0.027308
4970.248000 4970.250000 0.500000 3.665618 15.164049 0.388017 0.027195
4970.499000 4970.500000 0.500000 3.664608 15.175445 0.388707 0.027306
4970.750000 4970.750000 0.500000 3.664810 15.216736 0.389686 0.027103
4971.001000 4971.000000 0.500000 3.664923 15.224623 0.389844 0.026973
4971.253000 4971.250000 0.500000 3.664832 15.234095 0.390123 0.026723
4971.501000 4971.500000 0.500000 3.664371 15.238835 0.390424 0.026599
4971.753000 4971.750000 0.500000 3.664008 15.242776 0.390666 0.026071
4971.999000 4972.000000 0.500000 3.664084 15.248224 0.390776 0.025779
4972.250000 4972.250000 0.500000 3.664498 15.251332 0.390695 0.025220
4972.498000 4972.500000 0.500000 3.665101 15.255108 0.390556 0.024435
4972.752000 4972.750000 0.500000 3.666290 15.258674 0.390184 0.023966
4973.001000 4973.000000 0.500000 3.664875 15.262547 0.390834 0.023526
4973.253000 4973.250000 0.500000 3.664882 15.265239 0.390900 0.023392
4973.502000 4973.500000 0.500000 3.664228 15.269368 0.391262 0.022777
4973.752000 4973.750000 0.500000 3.664241 15.270296 0.391280 0.022010
4973.999000 4974.000000 0.500000 3.664448 15.273998 0.391293 0.021737
4974.249000 4974.250000 0.500000 3.665110 15.275260 0.391070 0.021485
4974.500000 4974.500000 0.500000 3.666024 15.278308 0.390787 0.021212
4974.751000 4974.750000 0.500000 3.666226 15.278641 0.390718 0.020893
4975.002000 4975.000000 0.500000 3.667040 15.282534 0.390498 0.020414
4975.251000 4975.250000 0.500000 3.668314 15.280716 0.389959 0.019976
4975.504000 4975.500000 0.500000 3.669020 15.279899 0.389660 0.019646
4975.750000 4975.750000 0.500000 3.669401 15.280497 0.389527 0.019283
4976.002000 4976.000000 0.500000 3.669564 15.279336 0.389433 0.018864
4976.250000 4976.250000 0.500000 3.669771 15.277655 0.389310 0.018579
4976.501000 4976.500000 0.500000 3.670214 15.279615 0.389189 0.018284
4976.751000 4976.750000 0.500000 3.670150 15.277051 0.389146 0.017851
4977.004000 4977.000000 0.500000 3.670774 15.280584 0.388995 0.017672
4977.252000 4977.250000 0.500000 3.671582 15.282355 0.388724 0.017549
4977.500000 4977.500000 0.500000 3.672450 15.286365 0.388492 0.017457
4977.751000 4977.750000 0.500000 3.674231 15.289769 0.387882 0.017028
4978.000000 4978.000000 0.500000 3.675847 15.290725 0.387284 0.016799
4978.253000 4978.250000 0.500000 3.677434 15.294366 0.386760 0.016896
4978.502000 4978.500000 0.500000 3.679655 15.295789 0.385942 0.016803
4978.754000 4978.750000 0.500000 3.682877 15.295258 0.384681 0.016364
4979.001000 4979.000000 0.500000 3.685598 15.297877 0.383709 0.016346
4979.254000 4979.250000 0.500000 3.688606 15.295863 0.382498 0.016161
4979.499000 4979.500000 0.500000 3.689908 15.296704 0.382027 0.016373
4979.750000 4979.750000 0.500000 3.693759 15.292654 0.380454 0.016286
4980.000000 4980.000000 0.500000 3.695488 15.291486 0.379769 0.016081
4980.253000 4980.250000 0.500000 3.698225 15.290169 0.378686 0.016156
4980.500000 4980.500000 0.500000 3.701343 15.286889 0.377449 0.015946
4980.751000 4980.750000 0.500000 3.705191 15.283550 0.375909 0.015988
4981.002000 4981.000000 0.500000 3.709447 15.283942 0.374325 0.015729
4981.251000 4981.250000 0.500000 3.715689 15.282922 0.371956 0.015539
4981.499000 4981.500000 0.500000 3.721285 15.284571 0.369943 0.015322
4981.752000 4981.750000 0.500000 3.728198 15.286391 0.367404 0.015551
4982.000000 4982.000000 0.500000 3.736422 15.288405 0.364482 0.015112
4982.254000 4982.250000 0.500000 3.743767 15.289674 0.361802 0.015057
4982.502000 4982.500000 0.500000 3.750059 15.290721 0.359591 0.014829
4982.750000 4982.750000 0.500000 3.755125 15.294854 0.357862 0.014645
4983.001000 4983.000000 0.500000 3.759610 15.295497 0.356280 0.014674
4983.251000 4983.250000 0.500000 3.761940 15.295353 0.355438 0.014690
4983.501000 4983.500000 0.500000 3.764260 15.292769 0.354561 0.014340
4983.749000 4983.750000 0.500000 3.765683 15.290348 0.354000 0.014555
4984.003000 4984.000000 0.500000 3.767295 15.290228 0.353427 0.014764
4984.253000 4984.250000 0.500000 3.768245 15.289840 0.353079 0.014538
4984.502000 4984.500000 0.500000 3.769745 15.289027 0.352536 0.014529
4984.749000 4984.750000 0.500000 3.770188 15.288867 0.352376 0.014725
4985.000000 4985.000000 0.500000 3.768997 15.292858 0.352883 0.014845
4985.250000 4985.250000 0.500000 3.768658 15.294450 0.353042 0.014764
4985.501000 4985.500000 0.500000 3.767154 15.296301 0.353616 0.014851
4985.753000 4985.750000 0.500000 3.765843 15.298454 0.354135 0.015039
4986.003000 4986.000000 0.500000 3.763119 15.298140 0.355090 0.015205
4986.253000 4986.250000 0.500000 3.760979 15.294451 0.355765 0.015186
4986.500000 4986.500000 0.500000 3.758211 15.294968 0.356759 0.015279
4986.750000 4986.750000 0.500000 3.755270 15.293644 0.357777 0.015554
4987.001000 4987.000000 0.500000 3.752878 15.320197 0.359261 0.015515
4987.252000 4987.250000 0.500000 3.750434 15.317515 0.360078 0.015410
4987.503000 4987.500000 0.500000 3.748033 15.315942 0.360907 0.015727
4987.753000 4987.750000 0.500000 3.746669 15.320440 0.361503 0.015686
4988.001000 4988.000000 0.500000 3.745618 15.322062 0.361921 0.015712
4988.253000 4988.250000 0.500000 3.745037 15.326466 0.362238 0.015643
4988.499000 4988.500000 0.500000 3.744514 15.334188 0.362609 0.015983
4988.751000 4988.750000 0.500000 3.745197 15.344532 0.362606 0.015702
4989.000000 4989.000000 0.500000 3.744793 15.354965 0.363000 0.015696
4989.253000 4989.250000 0.500000 3.745195 15.367644 0.363154 0.015758
4989.502000 4989.500000 0.500000 3.744633 15.377256 0.363583 0.015989
4989.753000 4989.750000 0.500000 3.746092 15.389502 0.363344 0.015982
4990.002000 4990.000000 0.500000 3.745954 15.404128 0.363741 0.015651
4990.251000 4990.250000 0.500000 3.747441 15.415604 0.363474 0.015555
4990.500000 4990.500000 0.500000 3.747734 15.428824 0.363675 0.015960
4990.751000 4990.750000 0.500000 3.748871 15.440022 0.363526 0.015844
4991.002000 4991.000000 0.500000 3.749483 15.454425 0.363644 0.015956
4991.255000 4991.250000 0.500000 3.750004 15.461713 0.363620 0.015842
4991.502000 4991.500000 0.500000 3.750394 15.468913 0.363652 0.015929
4991.751000 4991.750000 0.500000 3.750549 15.478441 0.363818 0.015887
4992.001000 4992.000000 0.500000 3.749546 15.490467 0.364465 0.016165
4992.250000 4992.250000 0.500000 3.750130 15.498995 0.364455 0.015985
4992.500000 4992.500000 0.500000 3.749515 15.505685 0.364835 0.016131
4992.752000 4992.750000 0.500000 3.749465 15.510813 0.364973 0.016202
4993.004000 4993.000000 0.500000 3.750027 15.518331 0.364945 0.016183
4993.254000 4993.250000 0.500000 3.750711 15.525050 0.364856 0.016215
4993.503000 4993.500000 0.500000 3.752029 15.561878 0.365235 0.016098
4993.753000 4993.750000 0.500000 3.752794 15.566552 0.365070 0.016256
4994.003000 4994.000000 0.500000 3.753683 15.569062 0.364803 0.016189
4994.248000 4994.250000 0.500000 3.754994 15.574861 0.364466 0.016237
4994.500000 4994.500000 0.500000 3.755816 15.579337 0.364266 0.015914
4994.750000 4994.750000 0.500000 3.756670 15.583727 0.364058 0.015988
4995.003000 4995.000000 0.500000 3.758033 15.586612 0.363629 0.015742
4995.251000 4995.250000 0.500000 3.759075 15.590753 0.363348 0.015519
4995.503000 4995.500000 0.500000 3.759662 15.592017 0.363164 0.015598
4995.754000 4995.750000 0.500000 3.759985 15.602923 0.363301 0.015387
4995.999000 4996.000000 0.700000 3.759562 21.777511 0.507285 0.021582
4997.092000 4997.080000 0.710000 3.756797 22.159004 0.517607 0.021387
4998.182000 4998.180000 0.730000 3.750253 22.783882 0.535679 0.021908
4999.296000 4999.290000 0.740000 3.743991 23.108250 0.546732 0.021976
5000.436000 5000.430000 0.750000 3.738523 23.459842 0.558091 0.022120
5001.585000 5001.580000 0.760000 3.732619 23.847846 0.570677 0.023073
5002.768000 5002.760000 0.780000 3.726676 24.546425 0.590902 0.023777
5003.956000 5003.950000 0.790000 3.721637 24.917475 0.602867 0.024371
5005.164000 5005.160000 0.800000 3.715386 25.291250 0.615738 0.025130
5006.398000 5006.390000 0.810000 3.708542 25.682077 0.629554 0.026299
5007.647000 5007.640000 0.830000 3.703886 26.376182 0.649588 0.028063
5008.915000 5008.910000 0.840000 3.698377 26.746269 0.662334 0.029052
5010.206000 5010.200000 0.850000 3.691652 27.117702 0.676066 0.029721
5011.518000 5011.510000 0.860000 3.684509 27.501548 0.690555 0.031106
5012.833000 5012.830000 0.880000 3.680543 28.186391 0.710557 0.032086
5014.185000 5014.180000 0.890000 3.675962 28.558779 0.723252 0.032748
5015.547000 5015.540000 0.900000 3.671505 28.928082 0.735880 0.033722
5016.937000 5016.930000 0.910000 3.666973 29.312211 0.749041 0.034573
5018.333000 5018.330000 0.930000 3.661959 30.013237 0.770799 0.036094
5019.757000 5019.750000 0.940000 3.656045 30.400122 0.785375 0.036841
5021.190000 5021.190000 0.950000 3.650530 30.785635 0.799721 0.037827
5022.657000 5022.650000 0.960000 3.646362 31.177544 0.813297 0.038443
5024.136000 5024.130000 0.980000 3.642269 31.892165 0.835348 0.039603
5025.630000 5025.630000 0.990000 3.638532 32.285713 0.848816 0.040087
5027.144000 5027.140000 1.000000 3.633766 32.678951 0.863267 0.040778
5028.687000 5028.680000 1.010000 3.629009 33.077881 0.877975 0.041238
5030.247000 5030.240000 1.030000 3.624912 33.804607 0.900947 0.041712
5031.807000 5031.810000 1.040000 3.620853 34.199643 0.915162 0.041565
5033.408000 5033.400000 1.050000 3.616330 34.602081 0.930147 0.041609
5035.017000 5035.010000 1.060000 3.613057 35.006046 0.944098 0.041248
5036.649000 5036.650000 1.080000 3.610206 35.734500 0.966487 0.041603
5038.292000 5038.300000 1.090000 3.607607 36.145327 0.980126 0.041741
5039.965000 5039.970000 1.100000 3.606068 36.562117 0.992968 0.042240
5041.646000 5041.650000 1.110000 3.604496 36.977356 1.005829 0.042940
5043.355000 5043.360000 1.130000 3.602081 37.723074 1.028588 0.044567
5045.089000 5045.090000 1.140000 3.599610 38.142769 1.042613 0.045429
5046.828000 5046.830000 1.150000 3.596362 38.562983 1.057529 0.047059
5048.598000 5048.600000 1.160000 3.593797 38.984942 1.071843 0.048758
5050.378000 5050.380000 1.180000 3.591116 39.754997 1.095951 0.050724
5052.179000 5052.180000 1.190000 3.587777 40.187287 1.111569 0.052464
5053.998000 5054.000000 1.200000 3.583314 40.622902 1.128645 0.054492
5055.836000 5055.840000 1.210000 3.578628 41.059602 1.146129 0.055972
5057.695000 5057.700000 1.230000 3.574567 41.845811 1.172833 0.057419
5059.578000 5059.580000 1.240000 3.571110 42.296032 1.189561 0.058586
5061.477000 5061.480000 1.250000 3.568803 42.738549 1.204781 0.059286
5063.396000 5063.400000 1.260000 3.566170 43.189896 1.220712 0.060356
5065.330000 5065.330000 1.280000 3.563294 43.993772 1.247020 0.062083
5067.286000 5067.290000 1.290000 3.559916 44.444328 1.264050 0.063172
5069.256000 5069.260000 1.300000 3.555872 44.902318 1.282252 0.064637
5071.257000 5071.260000 1.310000 3.550600 45.370096 1.302456 0.065969
5073.267000 5073.270000 1.330000 3.544899 46.184228 1.333410 0.067704
5075.299000 5075.300000 1.340000 3.539042 46.740481 1.357399 0.068434
5077.350000 5077.350000 1.350000 3.533134 47.214798 1.379314 0.068565
5079.417000 5079.420000 1.360000 3.527093 47.694102 1.401744 0.069166
5081.509000 5081.510000 1.380000 3.521326 48.516173 1.434163 0.069606
5083.609000 5083.610000 1.390000 3.515718 48.997985 1.456545 0.069902
5085.742000 5085.740000 1.400000 3.509983 49.475907 1.479212 0.069503
5087.887000 5087.890000 1.410000 3.503996 49.955909 1.502520 0.069608
5090.053000 5090.050000 1.430000 3.498521 50.802199 1.536388 0.070704
5092.229000 5092.230000 1.440000 3.493154 51.298557 1.559723 0.072116
5094.440000 5094.440000 1.450000 3.487615 51.934621 1.587836 0.074533
5096.661000 5096.660000 1.460000 3.482293 52.438409 1.611789 0.077527
5098.902000 5098.900000 1.480000 3.476780 53.305292 1.647505 0.081592
5101.163000 5101.160000 1.490000 3.471672 53.811133 1.671647 0.085115
5103.441000 5103.440000 1.500000 3.466899 54.328305 1.695788 0.088187
5105.742000 5105.740000 1.510000 3.462057 54.886172 1.721515 0.090606
5108.050000 5108.050000 1.530000 3.457382 55.841727 1.759689 0.093202
5110.390000 5110.390000 1.540000 3.452517 56.364422 1.784819 0.094137
5112.741000 5112.740000 1.550000 3.447052 56.894365 1.811474 0.096209
5115.125000 5115.120000 1.560000 3.442140 57.415754 1.837091 0.097732
5117.514000 5117.510000 1.580000 3.437416 58.313402 1.874654 0.099547
5119.922000 5119.920000 1.590000 3.432117 58.854726 1.902099 0.101777
5122.350000 5122.350000 1.600000 3.426737 59.388741 1.929710 0.103704
5124.797000 5124.800000 1.610000 3.421562 59.931156 1.957422 0.105352
5127.267000 5127.270000 1.630000 3.416106 60.852655 1.998389 0.108186
5129.762000 5129.760000 1.640000 3.410983 61.405914 2.026932 0.110469
