# XDI/1.0 BlueSky/1.5.0
# Beamline.name: 6BM
# Beamline.xray_source: NSLS-II three-pole wiggler
# Beamline.collimation: paraboloid mirror, 5 nm Rh on 30 nm Pt
# Beamline.focusing: not in use
# Beamline.harmonic_rejection: flat mirror, Si stripe, pitch = 7.0 mrad relative to beam
# Detector.i0: 10 cm N2
# Detector.i1: 25 cm N2
# Detector.i2: 25 cm N2
# Element.symbol: Ti
# Element.edge: K
# Facility.name: NSLS-II
# Facility.energy: 3.0
# Facility.current: 219.8
# Facility.mode: top-off
# Facility.gup: 301027
# Facility.saf: 304156
# Mono.name: Si(111)
# Mono.d_spacing: 3.1352584
# Mono.encoder_resolution: 0.0000050 deg/ct
# Mono.angle_offset: 16.0571090 deg
# Mono.scan_mode: pseudo channel cut
# Mono.scan_type: step
# Mono.direction: forward in energy
# Sample.name: Ba1.2 Al2.4 Ti 5.6 O16
# Sample.prep: Powder in polyethylene glycol pellet
# Sample.x_position: -97.532 mm
# Sample.y_position: 117.543 mm
# Sample.wheel_position: -555.000 mm
# Scan.experimenters: Bruce Ravel, Martin Stennett
# Scan.edge_energy: 4966.0
# Scan.start_time: 2019-05-30T01:31:37
# Scan.end_time: 2019-05-30T02:14:24
# Scan.transient_id: 9779
# Scan.uid: fcdc081d-1def-417a-b5df-ca404ab65176
# Scan.plot_hint: ln(I0/It)  --  ln($5/$6)
# Scan.sequence: merge of 3 scans
# Column.1: energy eV
# Column.2: requested_energy eV
# Column.3: measurement_time seconds
# Column.4: mutrans
# Column.5: i0
# Column.6: itrans
# Column.7: irefer
# /////
#  sample disk prepared by Martin
# -----
# energy   requested_energy   measurement_time   mutrans   i0   itrans   irefer
4765.990000 4766.000000 0.500000 3.790129 11.069589 0.250123 0.020573
4776.008000 4776.000000 0.500000 3.773859 11.259750 0.258560 0.021526
4786.008000 4786.000000 0.500000 3.748198 11.485115 0.270591 0.022635
4796.010000 4796.000000 0.500000 3.722067 11.714277 0.283297 0.024191
4806.008000 4806.000000 0.500000 3.695172 11.944722 0.296744 0.025547
4816.007000 4816.000000 0.500000 3.669790 12.168178 0.310066 0.027005
4826.007000 4826.000000 0.500000 3.643599 12.394708 0.324214 0.028533
4836.008000 4836.000000 0.500000 3.617995 12.624423 0.338797 0.029909
4846.003000 4846.000000 0.500000 3.593244 12.853085 0.353572 0.031613
4856.009000 4856.000000 0.500000 3.567202 13.080223 0.369315 0.033689
4866.014000 4866.000000 0.500000 3.541933 13.302340 0.385205 0.035344
4876.002000 4876.000000 0.500000 3.516374 13.527102 0.401851 0.037493
4886.007000 4886.000000 0.500000 3.492634 13.745680 0.418156 0.039422
4896.005000 4896.000000 0.500000 3.467232 13.956883 0.435503 0.041511
4906.005000 4906.000000 0.500000 3.442754 14.164724 0.452942 0.043880
4916.003000 4916.000000 0.500000 3.418659 14.368871 0.470674 0.045711
4926.002000 4926.000000 0.500000 3.394296 14.573131 0.489137 0.048521
4936.001000 4936.000000 0.500000 3.370798 14.775575 0.507722 0.050481
4938.002000 4938.000000 0.500000 3.366531 14.809515 0.511068 0.051065
4939.999000 4940.000000 0.500000 3.361541 14.847523 0.514940 0.051620
4941.997000 4942.000000 0.500000 3.356870 14.885213 0.518659 0.052155
4944.007000 4944.000000 0.500000 3.352894 14.919895 0.521944 0.052595
4945.998000 4946.000000 0.500000 3.347825 14.952204 0.525726 0.053050
4948.007000 4948.000000 0.500000 3.342800 14.982591 0.529455 0.053827
4950.005000 4950.000000 0.500000 3.338821 15.018399 0.532838 0.054132
4952.005000 4952.000000 0.500000 3.333868 15.046984 0.536502 0.054622
4954.005000 4954.000000 0.500000 3.329807 15.080711 0.539894 0.054968
4956.005000 4956.000000 0.500000 3.325334 15.111053 0.543403 0.055423
4956.247000 4956.250000 0.500000 3.325133 15.111764 0.543539 0.055409
4956.496000 4956.500000 0.500000 3.324559 15.111223 0.543829 0.055258
4956.745000 4956.750000 0.500000 3.323750 15.117270 0.544487 0.055694
4956.995000 4957.000000 0.500000 3.323711 15.120424 0.544623 0.055351
4957.246000 4957.250000 0.500000 3.322919 15.122351 0.545122 0.055468
4957.495000 4957.500000 0.500000 3.322416 15.129486 0.545653 0.055615
4957.745000 4957.750000 0.500000 3.321975 15.167175 0.547255 0.055806
4957.995000 4958.000000 0.500000 3.320980 15.168966 0.547864 0.055774
4958.243000 4958.250000 0.500000 3.320958 15.175664 0.548117 0.055658
4958.496000 4958.500000 0.500000 3.320736 15.179221 0.548369 0.055796
4958.746000 4958.750000 0.500000 3.320060 15.183501 0.548895 0.055962
4958.996000 4959.000000 0.500000 3.319447 15.185683 0.549310 0.055938
4959.247000 4959.250000 0.500000 3.318991 15.188657 0.549667 0.055899
4959.499000 4959.500000 0.500000 3.318553 15.192194 0.550037 0.056132
4959.746000 4959.750000 0.500000 3.318022 15.194277 0.550403 0.056024
4959.995000 4960.000000 0.500000 3.317899 15.197532 0.550588 0.056132
4960.244000 4960.250000 0.500000 3.317375 15.201878 0.551034 0.056079
4960.497000 4960.500000 0.500000 3.316720 15.206963 0.551583 0.056292
4960.745000 4960.750000 0.500000 3.316475 15.211164 0.551867 0.056035
4960.998000 4961.000000 0.500000 3.316017 15.215032 0.552262 0.056148
4961.248000 4961.250000 0.500000 3.316355 15.219142 0.552225 0.055786
4961.497000 4961.500000 0.500000 3.315568 15.223241 0.552806 0.055876
4961.748000 4961.750000 0.500000 3.315120 15.227300 0.553203 0.055716
4961.996000 4962.000000 0.500000 3.314580 15.232145 0.553678 0.055829
4962.246000 4962.250000 0.500000 3.314713 15.236154 0.553751 0.055426
4962.497000 4962.500000 0.500000 3.313496 15.238214 0.554498 0.055741
4962.746000 4962.750000 0.500000 3.313713 15.243520 0.554574 0.055432
4962.998000 4963.000000 0.500000 3.313240 15.246820 0.554956 0.055277
4963.250000 4963.250000 0.500000 3.312342 15.253016 0.555679 0.055396
4963.495000 4963.500000 0.500000 3.312542 15.257532 0.555731 0.054732
4963.749000 4963.750000 0.500000 3.312298 15.261657 0.556018 0.053740
4963.995000 4964.000000 0.500000 3.312290 15.264460 0.556124 0.052626
4964.246000 4964.250000 0.500000 3.311690 15.269107 0.556626 0.051003
4964.500000 4964.500000 0.500000 3.311998 15.273719 0.556626 0.048053
4964.747000 4964.750000 0.500000 3.311913 15.276680 0.556778 0.044444
4964.998000 4965.000000 0.500000 3.311644 15.280627 0.557074 0.041090
4965.250000 4965.250000 0.500000 3.312438 15.284143 0.556760 0.038929
4965.499000 4965.500000 0.500000 3.312704 15.288174 0.556760 0.038360
4965.748000 4965.750000 0.500000 3.314306 15.313515 0.556792 0.038686
4965.997000 4966.000000 0.500000 3.315434 15.325347 0.556594 0.040270
4966.250000 4966.250000 0.500000 3.318643 15.330517 0.554983 0.041470
4966.497000 4966.500000 0.500000 3.323817 15.333580 0.552240 0.042753
4966.750000 4966.750000 0.500000 3.332743 15.330075 0.547190 0.042817
4967.003000 4967.000000 0.500000 3.341517 15.329538 0.542372 0.042915
4967.250000 4967.250000 0.500000 3.346693 15.332724 0.539724 0.042666
4967.501000 4967.500000 0.500000 3.344031 15.336307 0.541290 0.042570
4967.748000 4967.750000 0.500000 3.338230 15.344340 0.544712 0.042295
4967.999000 4968.000000 0.500000 3.335549 15.350342 0.546390 0.041922
4968.247000 4968.250000 0.500000 3.339674 15.352824 0.544248 0.040844
4968.496000 4968.500000 0.500000 3.349527 15.356156 0.539058 0.039946
4968.750000 4968.750000 0.500000 3.368112 15.359001 0.529156 0.038513
4968.999000 4969.000000 0.500000 3.392437 15.359582 0.516525 0.037188
4969.251000 4969.250000 0.500000 3.413045 15.357369 0.505913 0.036144
4969.500000 4969.500000 0.500000 3.424397 15.357997 0.500202 0.035191
4969.749000 4969.750000 0.500000 3.425008 15.373757 0.500405 0.035018
4969.999000 4970.000000 0.500000 3.419663 15.397088 0.503846 0.035113
4970.248000 4970.250000 0.500000 3.413177 15.407564 0.507438 0.035259
4970.501000 4970.500000 0.500000 3.404053 15.415588 0.512411 0.035407
4970.750000 4970.750000 0.500000 3.392058 15.426335 0.518949 0.035636
4971.004000 4971.000000 0.500000 3.379644 15.436919 0.525790 0.035749
4971.253000 4971.250000 0.500000 3.368517 15.445202 0.531965 0.035917
4971.501000 4971.500000 0.500000 3.361222 15.452722 0.536088 0.035703
4971.748000 4971.750000 0.500000 3.358978 15.452331 0.537284 0.034979
4971.998000 4972.000000 0.500000 3.361399 15.455533 0.536101 0.034221
4972.252000 4972.250000 0.500000 3.367967 15.461593 0.532778 0.033663
4972.499000 4972.500000 0.500000 3.375887 15.463436 0.528657 0.032771
4972.751000 4972.750000 0.500000 3.383123 15.466520 0.524950 0.031642
4973.001000 4973.000000 0.500000 3.386256 15.467880 0.523365 0.030987
4973.251000 4973.250000 0.500000 3.386665 15.472333 0.523295 0.030539
4973.499000 4973.500000 0.500000 3.385274 15.476322 0.524149 0.029552
4973.748000 4973.750000 0.500000 3.382949 15.477964 0.525428 0.029383
4973.999000 4974.000000 0.500000 3.381508 15.477556 0.526176 0.028871
4974.251000 4974.250000 0.500000 3.381690 15.478616 0.526115 0.028193
4974.503000 4974.500000 0.500000 3.384023 15.481788 0.524984 0.027619
4974.751000 4974.750000 0.500000 3.387968 15.484504 0.523019 0.027398
4975.002000 4975.000000 0.500000 3.394181 15.483997 0.519762 0.026472
4975.250000 4975.250000 0.500000 3.401657 15.486101 0.515987 0.025640
4975.501000 4975.500000 0.500000 3.409299 15.488672 0.512128 0.025494
4975.750000 4975.750000 0.500000 3.419096 15.482834 0.506972 0.024403
4976.000000 4976.000000 0.500000 3.429501 15.483541 0.501715 0.023830
4976.251000 4976.250000 0.500000 3.441409 15.480165 0.495651 0.023100
4976.504000 4976.500000 0.500000 3.454618 15.478762 0.489067 0.022456
4976.752000 4976.750000 0.500000 3.470695 15.478983 0.481326 0.021821
4977.001000 4977.000000 0.500000 3.490064 15.479954 0.472159 0.021056
4977.251000 4977.250000 0.500000 3.510693 15.482744 0.462566 0.020433
4977.500000 4977.500000 0.500000 3.533608 15.484157 0.452170 0.019915
4977.750000 4977.750000 0.500000 3.557909 15.486279 0.441350 0.019560
4978.002000 4978.000000 0.500000 3.583608 15.488891 0.430196 0.018679
4978.253000 4978.250000 0.500000 3.607396 15.490288 0.420057 0.018294
4978.501000 4978.500000 0.500000 3.630559 15.492254 0.410619 0.017622
4978.753000 4978.750000 0.500000 3.649906 15.495328 0.402753 0.017683
4979.000000 4979.000000 0.500000 3.666694 15.492729 0.396034 0.016954
4979.249000 4979.250000 0.500000 3.680113 15.492813 0.390774 0.016845
4979.502000 4979.500000 0.500000 3.691746 15.489198 0.386110 0.016620
4979.750000 4979.750000 0.500000 3.703244 15.485882 0.381620 0.016281
4980.000000 4980.000000 0.500000 3.714965 15.482129 0.377105 0.016106
4980.252000 4980.250000 0.500000 3.725523 15.483353 0.373167 0.015850
4980.500000 4980.500000 0.500000 3.736070 15.482067 0.369244 0.015706
4980.751000 4980.750000 0.500000 3.746161 15.480486 0.365471 0.015449
4980.999000 4981.000000 0.500000 3.757478 15.477860 0.361340 0.015393
4981.254000 4981.250000 0.500000 3.769513 15.475131 0.356847 0.015236
4981.502000 4981.500000 0.500000 3.783003 15.475033 0.352096 0.015048
4981.752000 4981.750000 0.500000 3.798188 15.476756 0.346831 0.014572
4982.001000 4982.000000 0.500000 3.816015 15.479499 0.340812 0.014483
4982.253000 4982.250000 0.500000 3.834496 15.481984 0.334575 0.014309
4982.501000 4982.500000 0.500000 3.854095 15.484868 0.328202 0.013891
4982.750000 4982.750000 0.500000 3.874463 15.484991 0.321572 0.013349
4983.000000 4983.000000 0.500000 3.893985 15.485548 0.315365 0.013277
4983.252000 4983.250000 0.500000 3.913019 15.485193 0.309355 0.013130
4983.503000 4983.500000 0.500000 3.929732 15.483809 0.304201 0.013024
4983.753000 4983.750000 0.500000 3.945626 15.481401 0.299384 0.012913
4984.001000 4984.000000 0.500000 3.961576 15.479576 0.294649 0.012631
4984.252000 4984.250000 0.500000 3.977484 15.479440 0.289998 0.012362
4984.499000 4984.500000 0.500000 3.992171 15.478641 0.285770 0.012419
4984.748000 4984.750000 0.500000 4.005284 15.478681 0.282053 0.012224
4985.000000 4985.000000 0.500000 4.019913 15.481091 0.277957 0.012037
4985.252000 4985.250000 0.500000 4.031304 15.481695 0.274806 0.012182
4985.503000 4985.500000 0.500000 4.042506 15.482978 0.271757 0.011845
4985.752000 4985.750000 0.500000 4.052631 15.481839 0.269030 0.011978
4986.002000 4986.000000 0.500000 4.060309 15.481735 0.266963 0.012073
4986.251000 4986.250000 0.500000 4.068466 15.483005 0.264825 0.011892
4986.500000 4986.500000 0.500000 4.075134 15.477378 0.262969 0.011913
4986.749000 4986.750000 0.500000 4.080476 15.476561 0.261562 0.011997
4987.001000 4987.000000 0.500000 4.085998 15.470888 0.260007 0.011954
4987.254000 4987.250000 0.500000 4.089899 15.480490 0.259155 0.011964
4987.504000 4987.500000 0.500000 4.094295 15.500972 0.258357 0.011910
4987.751000 4987.750000 0.500000 4.097391 15.503231 0.257608 0.012018
4988.002000 4988.000000 0.500000 4.102053 15.508062 0.256483 0.012026
4988.251000 4988.250000 0.500000 4.104889 15.514203 0.255867 0.011865
4988.502000 4988.500000 0.500000 4.108657 15.522187 0.255025 0.011671
4988.751000 4988.750000 0.500000 4.112531 15.529806 0.254162 0.011595
4989.003000 4989.000000 0.500000 4.116316 15.540770 0.253383 0.011737
4989.253000 4989.250000 0.500000 4.118229 15.553667 0.253104 0.011617
4989.504000 4989.500000 0.500000 4.121372 15.564355 0.252487 0.011769
4989.750000 4989.750000 0.500000 4.123166 15.581180 0.252310 0.011700
4990.004000 4990.000000 0.500000 4.122654 15.592758 0.252626 0.011854
4990.249000 4990.250000 0.500000 4.121719 15.602598 0.253021 0.011810
4990.500000 4990.500000 0.500000 4.119400 15.613425 0.253784 0.011898
4990.750000 4990.750000 0.500000 4.114775 15.624478 0.255144 0.011977
4991.001000 4991.000000 0.500000 4.109299 15.635124 0.256722 0.011795
4991.255000 4991.250000 0.500000 4.102671 15.645826 0.258626 0.012317
4991.500000 4991.500000 0.500000 4.094349 15.653348 0.260875 0.012272
4991.752000 4991.750000 0.500000 4.085168 15.661222 0.263419 0.012331
4991.998000 4992.000000 0.500000 4.074227 15.672667 0.266490 0.012548
4992.251000 4992.250000 0.500000 4.063269 15.680962 0.269575 0.012406
4992.501000 4992.500000 0.500000 4.052258 15.685083 0.272660 0.012678
4992.753000 4992.750000 0.500000 4.040648 15.691551 0.275971 0.012729
4993.002000 4993.000000 0.500000 4.030828 15.692280 0.278703 0.012714
4993.254000 4993.250000 0.500000 4.020062 15.698226 0.281836 0.013090
4993.501000 4993.500000 0.500000 4.011392 15.704413 0.284358 0.013200
4993.750000 4993.750000 0.500000 4.002538 15.710578 0.287003 0.013119
4994.000000 4994.000000 0.500000 3.994862 15.712746 0.289250 0.013179
4994.248000 4994.250000 0.500000 3.987887 15.715400 0.291326 0.013181
4994.501000 4994.500000 0.500000 3.983054 15.718211 0.292811 0.013290
4994.753000 4994.750000 0.500000 3.978220 15.722953 0.294326 0.013237
4995.002000 4995.000000 0.500000 3.974562 15.727278 0.295477 0.013449
4995.249000 4995.250000 0.500000 3.972670 15.755062 0.296554 0.013269
4995.502000 4995.500000 0.500000 3.971426 15.754026 0.296909 0.013400
4995.752000 4995.750000 0.500000 3.971987 15.754751 0.296755 0.013232
4996.000000 4996.000000 0.700000 3.974243 22.025617 0.413941 0.018014
4997.093000 4997.080000 0.710000 3.986301 22.383672 0.415620 0.017962
4998.184000 4998.180000 0.730000 4.003734 23.019830 0.420037 0.017847
4999.293000 4999.290000 0.740000 4.021204 23.347021 0.418657 0.017876
5000.438000 5000.430000 0.750000 4.035359 23.695371 0.418915 0.017646
5001.586000 5001.580000 0.760000 4.042700 24.052944 0.422132 0.017709
5002.766000 5002.760000 0.780000 4.039344 24.787704 0.436486 0.018485
5003.958000 5003.950000 0.790000 4.021493 25.156400 0.450973 0.019307
5005.166000 5005.160000 0.800000 3.991768 25.537312 0.471591 0.020172
5006.398000 5006.390000 0.810000 3.959004 25.924918 0.494713 0.021450
5007.648000 5007.640000 0.830000 3.932656 26.625322 0.521644 0.023341
5008.916000 5008.910000 0.840000 3.910153 26.994930 0.540900 0.024428
5010.206000 5010.200000 0.850000 3.879722 27.373372 0.565427 0.025865
5011.518000 5011.510000 0.860000 3.851583 27.755112 0.589701 0.027324
5012.837000 5012.830000 0.880000 3.834725 28.439965 0.614519 0.028599
5014.185000 5014.180000 0.890000 3.825872 28.807111 0.627976 0.029387
5015.548000 5015.540000 0.900000 3.824666 29.180513 0.636885 0.029716
5016.938000 5016.930000 0.910000 3.825886 29.560011 0.644383 0.030519
5018.337000 5018.330000 0.930000 3.825443 30.264130 0.660026 0.031741
5019.759000 5019.750000 0.940000 3.819990 30.649657 0.672100 0.032137
5021.190000 5021.190000 0.950000 3.810700 31.032465 0.686825 0.033406
5022.658000 5022.650000 0.960000 3.800736 31.425602 0.702509 0.034203
5024.138000 5024.130000 0.980000 3.793169 32.140807 0.723941 0.034981
5025.637000 5025.630000 0.990000 3.785748 32.534264 0.738264 0.035704
5027.136000 5027.140000 1.000000 3.779808 32.923859 0.751542 0.036274
5028.681000 5028.680000 1.010000 3.777116 33.321787 0.762686 0.036460
5030.237000 5030.240000 1.030000 3.774895 34.042097 0.780901 0.036849
5031.816000 5031.810000 1.040000 3.774187 34.437914 0.790548 0.036550
5033.407000 5033.400000 1.050000 3.775273 34.843785 0.798990 0.036361
5035.017000 5035.010000 1.060000 3.778697 35.235835 0.805224 0.035819
5036.650000 5036.650000 1.080000 3.785195 35.973970 0.816758 0.035849
5038.294000 5038.300000 1.090000 3.793965 36.376648 0.818703 0.035887
5039.964000 5039.970000 1.100000 3.803637 36.776523 0.819744 0.036082
5041.648000 5041.650000 1.110000 3.810671 37.188964 0.823114 0.036178
5043.356000 5043.360000 1.130000 3.813883 37.928261 0.836789 0.037022
5045.087000 5045.090000 1.140000 3.813509 38.344712 0.846291 0.038158
5046.829000 5046.830000 1.150000 3.811599 38.754461 0.856975 0.039187
5048.601000 5048.600000 1.160000 3.807801 39.176907 0.869615 0.040717
5050.380000 5050.380000 1.180000 3.802986 39.936698 0.890755 0.042645
5052.178000 5052.180000 1.190000 3.798732 40.359511 0.904019 0.043940
5053.999000 5054.000000 1.200000 3.794555 40.787233 0.917424 0.045332
5055.836000 5055.840000 1.210000 3.790773 41.212641 0.930501 0.046771
5057.698000 5057.700000 1.230000 3.786990 41.988575 0.951617 0.047767
5059.575000 5059.580000 1.240000 3.782791 42.424144 0.965530 0.048473
5061.476000 5061.480000 1.250000 3.778811 42.859935 0.979343 0.049267
5063.397000 5063.400000 1.260000 3.774500 43.305357 0.993796 0.050648
5065.326000 5065.330000 1.280000 3.770309 44.098109 1.016236 0.052109
5067.283000 5067.290000 1.290000 3.764386 44.547646 1.032685 0.053153
5069.259000 5069.260000 1.300000 3.758873 45.005489 1.049084 0.054059
5071.256000 5071.260000 1.310000 3.752549 45.468273 1.066589 0.055064
5073.270000 5073.270000 1.330000 3.744810 46.275764 1.093971 0.056756
5075.296000 5075.300000 1.340000 3.737304 46.729341 1.113003 0.057895
5077.351000 5077.350000 1.350000 3.731227 47.196571 1.130999 0.057936
5079.420000 5079.420000 1.360000 3.724860 47.766166 1.151951 0.057989
5081.511000 5081.510000 1.380000 3.718360 48.590392 1.179479 0.058688
5083.607000 5083.610000 1.390000 3.711939 49.061266 1.198568 0.058723
5085.744000 5085.740000 1.400000 3.705117 49.537957 1.218511 0.058680
5087.889000 5087.890000 1.410000 3.696467 50.013932 1.240892 0.058992
5090.050000 5090.050000 1.430000 3.687561 50.851683 1.272967 0.059900
5092.231000 5092.230000 1.440000 3.677797 51.348330 1.298026 0.061639
5094.443000 5094.440000 1.450000 3.667855 51.863740 1.324149 0.063529
5096.661000 5096.660000 1.460000 3.658228 52.354877 1.349611 0.066095
5098.901000 5098.900000 1.480000 3.649059 53.214214 1.384400 0.070090
5101.163000 5101.160000 1.490000 3.640359 53.715805 1.409672 0.073239
5103.439000 5103.440000 1.500000 3.632760 54.225790 1.433895 0.075998
5105.744000 5105.740000 1.510000 3.625863 54.854334 1.460566 0.078672
5108.051000 5108.050000 1.530000 3.620605 55.742380 1.492028 0.080594
5110.389000 5110.390000 1.540000 3.616255 56.249895 1.512169 0.081488
5112.740000 5112.740000 1.550000 3.612727 56.767976 1.531494 0.082798
5115.122000 5115.120000 1.560000 3.609982 57.275212 1.549431 0.084055
5117.514000 5117.510000 1.580000 3.607802 58.161157 1.576832 0.085785
5119.922000 5119.920000 1.590000 3.605561 58.686802 1.594653 0.087082
5122.351000 5122.350000 1.600000 3.603678 59.202281 1.611690 0.087845
5124.798000 5124.800000 1.610000 3.601774 59.732352 1.629216 0.089490
5127.271000 5127.270000 1.630000 3.600201 60.645583 1.656729 0.091477
5129.761000 5129.760000 1.640000 3.597739 61.223670 1.676645 0.092947
