# XDI/1.0 BlueSky/1.5.0
# Beamline.name: 6BM
# Beamline.xray_source: NSLS-II three-pole wiggler
# Beamline.collimation: paraboloid mirror, 5 nm Rh on 30 nm Pt
# Beamline.focusing: not in use
# Beamline.harmonic_rejection: flat mirror, Si stripe, pitch = 7.0 mrad relative to beam
# Detector.i0: 10 cm N2
# Detector.i1: 25 cm N2
# Detector.i2: 25 cm N2
# Element.symbol: Ti
# Element.edge: K
# Facility.name: NSLS-II
# Facility.energy: 3.0
# Facility.current: 219.4
# Facility.mode: top-off
# Facility.gup: 301027
# Facility.saf: 304156
# Mono.name: Si(111)
# Mono.d_spacing: 3.1352584
# Mono.encoder_resolution: 0.0000050 deg/ct
# Mono.angle_offset: 16.0571090 deg
# Mono.scan_mode: pseudo channel cut
# Mono.scan_type: step
# Mono.direction: forward in energy
# Sample.name: Na2Ti3O7
# Sample.prep: Powder in polyethylene glycol pellet
# Sample.x_position: -97.532 mm
# Sample.y_position: 117.543 mm
# Sample.wheel_position: -615.000 mm
# Scan.experimenters: Bruce Ravel, Martin Stennett
# Scan.edge_energy: 4966.0
# Scan.start_time: 2019-05-30T04:25:08
# Scan.end_time: 2019-05-30T05:08:07
# Scan.transient_id: 9791
# Scan.uid: 6c66a15e-738a-41e9-b3f1-0ee07b22b28b
# Scan.plot_hint: ln(I0/It)  --  ln($5/$6)
# Scan.sequence: merge of 3 scans
# Column.1: energy eV
# Column.2: requested_energy eV
# Column.3: measurement_time seconds
# Column.4: mutrans
# Column.5: i0
# Column.6: itrans
# Column.7: irefer
# /////
#  sample disk prepared by Martin
# -----
# energy   requested_energy   measurement_time   mutrans   i0   itrans   irefer
4765.998000 4766.000000 0.500000 3.272722 10.958315 0.415357 0.032736
4776.006000 4776.000000 0.500000 3.249270 11.180284 0.433822 0.034523
4786.009000 4786.000000 0.500000 3.225452 11.398351 0.452945 0.036482
4796.007000 4796.000000 0.500000 3.202833 11.643532 0.473275 0.038550
4806.010000 4806.000000 0.500000 3.179611 11.866704 0.493678 0.041190
4816.008000 4816.000000 0.500000 3.156811 12.083000 0.514267 0.043159
4826.008000 4826.000000 0.500000 3.134156 12.294018 0.535243 0.045560
4836.000000 4836.000000 0.500000 3.111761 12.520837 0.557456 0.048029
4845.999000 4846.000000 0.500000 3.089524 12.749621 0.580409 0.050866
4855.998000 4856.000000 0.500000 3.067892 12.970467 0.603364 0.053188
4866.008000 4866.000000 0.500000 3.045887 13.186512 0.627072 0.056413
4876.005000 4876.000000 0.500000 3.024228 13.404436 0.651395 0.059145
4886.003000 4886.000000 0.500000 3.002622 13.619387 0.676294 0.062354
4896.003000 4896.000000 0.500000 2.981134 13.823974 0.701364 0.065440
4906.000000 4906.000000 0.500000 2.959883 14.025423 0.726867 0.068844
4916.000000 4916.000000 0.500000 2.938232 14.218403 0.752996 0.072388
4926.001000 4926.000000 0.500000 2.917091 14.415696 0.779757 0.075689
4936.001000 4936.000000 0.500000 2.896831 14.610713 0.806482 0.079293
4938.001000 4938.000000 0.500000 2.891858 14.645764 0.812449 0.080115
4939.998000 4940.000000 0.500000 2.888523 14.683230 0.817245 0.080442
4942.003000 4942.000000 0.500000 2.884574 14.716436 0.822345 0.081504
4943.997000 4944.000000 0.500000 2.880024 14.779699 0.829629 0.082148
4946.006000 4946.000000 0.500000 2.876857 14.818510 0.834458 0.082921
4948.005000 4948.000000 0.500000 2.872577 14.847379 0.839663 0.083875
4950.005000 4950.000000 0.500000 2.869304 14.884674 0.844534 0.084003
4952.003000 4952.000000 0.500000 2.864733 14.914512 0.850102 0.085111
4954.003000 4954.000000 0.500000 2.861567 14.943228 0.854440 0.085591
4956.000000 4956.000000 0.500000 2.858013 14.971678 0.859113 0.086030
4956.246000 4956.250000 0.500000 2.858160 14.973956 0.859119 0.086096
4956.495000 4956.500000 0.500000 2.857483 14.976181 0.859828 0.086393
4956.744000 4956.750000 0.500000 2.857457 14.979249 0.860028 0.086253
4956.995000 4957.000000 0.500000 2.856745 14.981987 0.860799 0.086354
4957.246000 4957.250000 0.500000 2.856412 14.984428 0.861223 0.086469
4957.496000 4957.500000 0.500000 2.856137 14.988253 0.861682 0.086532
4957.745000 4957.750000 0.500000 2.855639 14.989239 0.862166 0.086729
4957.995000 4958.000000 0.500000 2.855092 14.993081 0.862859 0.086374
4958.246000 4958.250000 0.500000 2.854421 14.997746 0.863707 0.086801
4958.495000 4958.500000 0.500000 2.854411 14.998601 0.863765 0.086636
4958.744000 4958.750000 0.500000 2.854177 15.002675 0.864201 0.086661
4958.994000 4959.000000 0.500000 2.853858 15.006302 0.864686 0.086762
4959.247000 4959.250000 0.500000 2.853429 15.008516 0.865184 0.086752
4959.498000 4959.500000 0.500000 2.853361 15.011110 0.865396 0.086828
4959.746000 4959.750000 0.500000 2.852739 15.013279 0.866055 0.086664
4959.997000 4960.000000 0.500000 2.852386 15.051093 0.868545 0.087005
4960.246000 4960.250000 0.500000 2.852386 15.054583 0.868748 0.086819
4960.495000 4960.500000 0.500000 2.851683 15.057484 0.869521 0.087066
4960.744000 4960.750000 0.500000 2.851776 15.060514 0.869620 0.086913
4960.998000 4961.000000 0.500000 2.851059 15.064170 0.870457 0.086912
4961.243000 4961.250000 0.500000 2.850805 15.068769 0.870937 0.087048
4961.496000 4961.500000 0.500000 2.850595 15.074374 0.871448 0.086912
4961.749000 4961.750000 0.500000 2.850223 15.079233 0.872053 0.087077
4961.997000 4962.000000 0.500000 2.850690 15.081155 0.871759 0.086569
4962.247000 4962.250000 0.500000 2.850175 15.085498 0.872458 0.086675
4962.495000 4962.500000 0.500000 2.850510 15.088586 0.872346 0.086256
4962.745000 4962.750000 0.500000 2.849920 15.093573 0.873147 0.086376
4962.996000 4963.000000 0.500000 2.849913 15.099224 0.873481 0.086009
4963.246000 4963.250000 0.500000 2.850074 15.103805 0.873607 0.085490
4963.498000 4963.500000 0.500000 2.850387 15.110558 0.873721 0.084692
4963.748000 4963.750000 0.500000 2.850477 15.113716 0.873826 0.083613
4963.997000 4964.000000 0.500000 2.850846 15.115169 0.873589 0.082195
4964.248000 4964.250000 0.500000 2.850994 15.121694 0.873833 0.079118
4964.495000 4964.500000 0.500000 2.851696 15.123519 0.873334 0.075174
4964.748000 4964.750000 0.500000 2.852509 15.127789 0.872863 0.069594
4964.997000 4965.000000 0.500000 2.853328 15.131991 0.872393 0.064159
4965.245000 4965.250000 0.500000 2.854513 15.133940 0.871478 0.060217
4965.498000 4965.500000 0.500000 2.856059 15.136182 0.870258 0.058584
4965.749000 4965.750000 0.500000 2.858560 15.139091 0.868245 0.059199
4965.998000 4966.000000 0.500000 2.862282 15.143063 0.865241 0.060499
4966.250000 4966.250000 0.500000 2.868359 15.150033 0.860407 0.062486
4966.497000 4966.500000 0.500000 2.876749 15.149969 0.853228 0.063988
4966.748000 4966.750000 0.500000 2.890329 15.153048 0.841815 0.064638
4967.000000 4967.000000 0.500000 2.907333 15.154209 0.827761 0.064256
4967.250000 4967.250000 0.500000 2.923012 15.156545 0.814936 0.063176
4967.502000 4967.500000 0.500000 2.932655 15.160881 0.807382 0.062249
4967.751000 4967.750000 0.500000 2.934990 15.166522 0.805812 0.061919
4968.003000 4968.000000 0.500000 2.939689 15.172917 0.802258 0.060548
4968.247000 4968.250000 0.500000 2.956119 15.175659 0.789545 0.058562
4968.499000 4968.500000 0.500000 2.991496 15.177193 0.761837 0.055604
4968.745000 4968.750000 0.500000 3.042242 15.177313 0.724975 0.052172
4969.000000 4969.000000 0.500000 3.093265 15.179927 0.688482 0.048816
4969.250000 4969.250000 0.500000 3.123149 15.180652 0.668255 0.046910
4969.500000 4969.500000 0.500000 3.122206 15.182583 0.668942 0.046398
4969.752000 4969.750000 0.500000 3.097907 15.181849 0.685473 0.047410
4969.999000 4970.000000 0.500000 3.068675 15.185551 0.705756 0.048196
4970.251000 4970.250000 0.500000 3.045934 15.194530 0.722561 0.049270
4970.497000 4970.500000 0.500000 3.029746 15.199871 0.734466 0.049873
4970.751000 4970.750000 0.500000 3.016530 15.214484 0.745127 0.050491
4970.999000 4971.000000 0.500000 3.006075 15.225015 0.753425 0.050532
4971.253000 4971.250000 0.500000 2.998154 15.232306 0.759800 0.050581
4971.502000 4971.500000 0.500000 2.993273 15.232498 0.763496 0.050240
4971.753000 4971.750000 0.500000 2.992117 15.239949 0.764745 0.049457
4971.999000 4972.000000 0.500000 2.994153 15.245817 0.763498 0.048557
4972.252000 4972.250000 0.500000 2.997468 15.250806 0.761212 0.047277
4972.497000 4972.500000 0.500000 3.000186 15.256875 0.759470 0.045950
4972.749000 4972.750000 0.500000 3.000757 15.261136 0.759234 0.045149
4973.002000 4973.000000 0.500000 2.998514 15.263107 0.761045 0.044373
4973.253000 4973.250000 0.500000 2.993417 15.264292 0.764991 0.043654
4973.500000 4973.500000 0.500000 2.987044 15.265798 0.769911 0.042994
4973.751000 4973.750000 0.500000 2.979505 15.269249 0.775952 0.042358
4973.999000 4974.000000 0.500000 2.973071 15.271105 0.781048 0.041831
4974.249000 4974.250000 0.500000 2.968191 15.275441 0.785102 0.041254
4974.499000 4974.500000 0.500000 2.965483 15.275304 0.787216 0.040374
4974.752000 4974.750000 0.500000 2.965897 15.275548 0.786898 0.039786
4975.002000 4975.000000 0.500000 2.969784 15.277069 0.783920 0.038938
4975.251000 4975.250000 0.500000 2.976001 15.278912 0.779166 0.038083
4975.502000 4975.500000 0.500000 2.984826 15.276765 0.772223 0.037267
4975.749000 4975.750000 0.500000 2.995981 15.276572 0.763749 0.036080
4976.001000 4976.000000 0.500000 3.009509 15.277564 0.753361 0.034641
4976.249000 4976.250000 0.500000 3.026185 15.278810 0.741094 0.033841
4976.505000 4976.500000 0.500000 3.046385 15.277079 0.725909 0.032579
4976.751000 4976.750000 0.500000 3.069416 15.276677 0.709640 0.031457
4977.002000 4977.000000 0.500000 3.094619 15.275728 0.691803 0.030143
4977.251000 4977.250000 0.500000 3.120063 15.314622 0.676276 0.029338
4977.501000 4977.500000 0.500000 3.144331 15.313657 0.659953 0.028270
4977.747000 4977.750000 0.500000 3.166888 15.318232 0.645584 0.027604
4978.000000 4978.000000 0.500000 3.188518 15.320024 0.631742 0.026625
4978.252000 4978.250000 0.500000 3.207234 15.324543 0.620144 0.025942
4978.502000 4978.500000 0.500000 3.223332 15.327979 0.610380 0.025461
4978.753000 4978.750000 0.500000 3.238997 15.332230 0.601058 0.024774
4979.001000 4979.000000 0.500000 3.254453 15.334322 0.591959 0.024478
4979.252000 4979.250000 0.500000 3.269282 15.330889 0.583067 0.023888
4979.501000 4979.500000 0.500000 3.284306 15.327667 0.574269 0.023718
4979.749000 4979.750000 0.500000 3.301430 15.328591 0.564584 0.023123
4980.000000 4980.000000 0.500000 3.320356 15.326873 0.553926 0.022556
4980.252000 4980.250000 0.500000 3.338534 15.322151 0.543779 0.022154
4980.502000 4980.500000 0.500000 3.356930 15.321664 0.533824 0.021860
4980.754000 4980.750000 0.500000 3.376249 15.322130 0.523639 0.021299
4981.000000 4981.000000 0.500000 3.395830 15.320305 0.513437 0.020768
4981.249000 4981.250000 0.500000 3.416952 15.320079 0.502769 0.020284
4981.500000 4981.500000 0.500000 3.438378 15.322413 0.492133 0.020165
4981.753000 4981.750000 0.500000 3.461595 15.322303 0.480759 0.019677
4982.002000 4982.000000 0.500000 3.486922 15.325585 0.468749 0.019029
4982.256000 4982.250000 0.500000 3.511461 15.327036 0.457443 0.018453
4982.501000 4982.500000 0.500000 3.535431 15.329394 0.446794 0.018204
4982.752000 4982.750000 0.500000 3.558690 15.365762 0.437609 0.017598
4982.998000 4983.000000 0.500000 3.579794 15.371253 0.428633 0.017309
4983.249000 4983.250000 0.500000 3.599643 15.370664 0.420177 0.017030
4983.501000 4983.500000 0.500000 3.616823 15.370706 0.412960 0.016918
4983.753000 4983.750000 0.500000 3.632207 15.365545 0.406521 0.016597
4984.002000 4984.000000 0.500000 3.645583 15.362813 0.401058 0.016405
4984.253000 4984.250000 0.500000 3.657111 15.365604 0.396545 0.016213
4984.501000 4984.500000 0.500000 3.665634 15.365033 0.393167 0.016267
4984.752000 4984.750000 0.500000 3.671406 15.363990 0.390887 0.015995
4984.999000 4985.000000 0.500000 3.676407 15.367564 0.389017 0.016063
4985.252000 4985.250000 0.500000 3.679663 15.369750 0.387801 0.016149
4985.503000 4985.500000 0.500000 3.679895 15.371572 0.387759 0.016206
4985.755000 4985.750000 0.500000 3.679556 15.370789 0.387866 0.016344
4986.003000 4986.000000 0.500000 3.680286 15.375008 0.387696 0.016400
4986.252000 4986.250000 0.500000 3.678545 15.373822 0.388335 0.016653
4986.500000 4986.500000 0.500000 3.677558 15.370438 0.388632 0.016717
4986.752000 4986.750000 0.500000 3.676686 15.368569 0.388926 0.016775
4986.998000 4987.000000 0.500000 3.676455 15.369092 0.389028 0.016815
4987.253000 4987.250000 0.500000 3.676615 15.369699 0.388985 0.016960
4987.503000 4987.500000 0.500000 3.675830 15.365697 0.389186 0.016815
4987.755000 4987.750000 0.500000 3.676323 15.368413 0.389059 0.016919
4988.002000 4988.000000 0.500000 3.678079 15.370046 0.388426 0.016566
4988.252000 4988.250000 0.500000 3.679548 15.378042 0.388056 0.016755
4988.500000 4988.500000 0.500000 3.681627 15.387029 0.387484 0.016806
4988.750000 4988.750000 0.500000 3.683368 15.398618 0.387092 0.016971
4989.000000 4989.000000 0.500000 3.687667 15.446963 0.386649 0.016545
4989.253000 4989.250000 0.500000 3.690239 15.460805 0.385988 0.016734
4989.503000 4989.500000 0.500000 3.692328 15.473781 0.385513 0.016854
4989.753000 4989.750000 0.500000 3.694965 15.484839 0.384768 0.016786
4990.001000 4990.000000 0.500000 3.695840 15.496212 0.384721 0.016957
4990.252000 4990.250000 0.500000 3.696550 15.510207 0.384792 0.016722
4990.500000 4990.500000 0.500000 3.696687 15.521511 0.385020 0.016568
4990.750000 4990.750000 0.500000 3.694599 15.534640 0.386149 0.016766
4991.000000 4991.000000 0.500000 3.691022 15.546406 0.387830 0.016910
4991.252000 4991.250000 0.500000 3.685024 15.557536 0.390437 0.016855
4991.504000 4991.500000 0.500000 3.679283 15.570225 0.393030 0.017234
4991.750000 4991.750000 0.500000 3.671481 15.577922 0.396252 0.017448
4992.001000 4992.000000 0.500000 3.663803 15.587576 0.399565 0.017378
4992.249000 4992.250000 0.500000 3.655129 15.592135 0.403145 0.017593
4992.502000 4992.500000 0.500000 3.648130 15.603624 0.406329 0.017755
4992.749000 4992.750000 0.500000 3.640231 15.611393 0.409720 0.018028
4993.003000 4993.000000 0.500000 3.633518 15.618733 0.412710 0.018033
4993.252000 4993.250000 0.500000 3.627363 15.622902 0.415356 0.018271
4993.505000 4993.500000 0.500000 3.621902 15.629485 0.417820 0.018224
4993.751000 4993.750000 0.500000 3.617900 15.636284 0.419651 0.018242
4994.001000 4994.000000 0.500000 3.613870 15.641868 0.421502 0.018287
4994.250000 4994.250000 0.500000 3.611595 15.645408 0.422559 0.018400
4994.500000 4994.500000 0.500000 3.609937 15.651415 0.423425 0.018452
4994.753000 4994.750000 0.500000 3.608190 15.655193 0.424272 0.018274
4995.002000 4995.000000 0.500000 3.607615 15.660191 0.424649 0.018091
4995.252000 4995.250000 0.500000 3.606454 15.662683 0.425209 0.018076
4995.500000 4995.500000 0.500000 3.606596 15.666789 0.425262 0.018164
4995.751000 4995.750000 0.500000 3.605737 15.669315 0.425692 0.018248
4996.001000 4996.000000 0.700000 3.606695 21.928711 0.595175 0.025135
4997.093000 4997.080000 0.710000 3.608550 22.269237 0.603297 0.024660
4998.187000 4998.180000 0.730000 3.610619 22.895911 0.618992 0.024790
4999.296000 4999.290000 0.740000 3.613712 23.230241 0.626092 0.024715
5000.440000 5000.430000 0.750000 3.620946 23.581448 0.630967 0.025000
5001.587000 5001.580000 0.760000 3.628173 23.937587 0.635896 0.025342
5002.768000 5002.760000 0.780000 3.629274 24.617208 0.653228 0.026063
5003.957000 5003.950000 0.790000 3.621827 24.986918 0.668015 0.026941
5005.166000 5005.160000 0.800000 3.607265 25.364054 0.688028 0.027920
5006.395000 5006.390000 0.810000 3.586301 25.746945 0.713203 0.029307
5007.644000 5007.640000 0.830000 3.563430 26.444646 0.749482 0.031407
5008.911000 5008.910000 0.840000 3.537499 26.821554 0.780064 0.033750
5010.206000 5010.200000 0.850000 3.508147 27.203232 0.814807 0.035391
5011.515000 5011.510000 0.860000 3.482730 27.579979 0.847348 0.037557
5012.834000 5012.830000 0.880000 3.468655 28.267845 0.880779 0.039035
5014.184000 5014.180000 0.890000 3.462034 28.639388 0.898292 0.040101
5015.547000 5015.540000 0.900000 3.461445 29.012139 0.910527 0.040907
5016.936000 5016.930000 0.910000 3.464095 29.394051 0.920072 0.042041
5018.335000 5018.330000 0.930000 3.467517 30.097081 0.938862 0.042984
5019.756000 5019.750000 0.940000 3.464527 30.480110 0.953654 0.044292
5021.199000 5021.190000 0.950000 3.457906 30.871766 0.972339 0.045299
5022.657000 5022.650000 0.960000 3.449845 31.260045 0.992530 0.046467
5024.138000 5024.130000 0.980000 3.442479 31.977409 1.022813 0.047965
5025.640000 5025.630000 0.990000 3.437834 32.370233 1.040196 0.048135
5027.138000 5027.140000 1.000000 3.434197 32.761943 1.056609 0.049131
5028.688000 5028.680000 1.010000 3.432638 33.162828 1.071215 0.049647
5030.246000 5030.240000 1.030000 3.432334 33.884765 1.094866 0.050142
5031.815000 5031.810000 1.040000 3.433794 34.281242 1.106064 0.049497
5033.407000 5033.400000 1.050000 3.435642 34.758646 1.119393 0.049286
5035.018000 5035.010000 1.060000 3.435387 35.156916 1.132513 0.048771
5036.659000 5036.650000 1.080000 3.434092 35.893167 1.157734 0.049230
5038.293000 5038.300000 1.090000 3.432327 36.304580 1.173064 0.049326
5039.965000 5039.970000 1.100000 3.429519 36.707787 1.189420 0.049962
5041.645000 5041.650000 1.110000 3.425627 37.122699 1.207558 0.050953
5043.355000 5043.360000 1.130000 3.420871 37.863882 1.237542 0.052596
5045.089000 5045.090000 1.140000 3.415783 38.278798 1.257493 0.054271
5046.828000 5046.830000 1.150000 3.410768 38.696315 1.277596 0.056265
5048.600000 5048.600000 1.160000 3.406793 39.119460 1.296713 0.058379
5050.380000 5050.380000 1.180000 3.404536 39.883510 1.325022 0.060899
5052.177000 5052.180000 1.190000 3.403924 40.309438 1.339991 0.062685
5053.999000 5054.000000 1.200000 3.405344 40.743532 1.352500 0.064316
5055.836000 5055.840000 1.210000 3.407784 41.176501 1.363545 0.066001
5057.696000 5057.700000 1.230000 3.411266 42.038975 1.387265 0.066940
5059.577000 5059.580000 1.240000 3.412854 42.481460 1.399641 0.067897
5061.476000 5061.480000 1.250000 3.414013 42.920578 1.412467 0.068736
5063.395000 5063.400000 1.260000 3.413046 43.360128 1.428312 0.069998
5065.326000 5065.330000 1.280000 3.410396 44.161523 1.458570 0.071881
5067.287000 5067.290000 1.290000 3.405807 44.616231 1.480375 0.073495
5069.257000 5069.260000 1.300000 3.400101 45.069658 1.503975 0.075195
5071.258000 5071.260000 1.310000 3.393186 45.527036 1.529778 0.076681
5073.268000 5073.270000 1.330000 3.385164 46.340847 1.569655 0.079101
5075.297000 5075.300000 1.340000 3.376538 46.800962 1.598982 0.079942
5077.348000 5077.350000 1.350000 3.367831 47.273366 1.629236 0.080701
5079.420000 5079.420000 1.360000 3.359387 47.815313 1.661898 0.081327
5081.508000 5081.510000 1.380000 3.351342 48.659385 1.704896 0.082043
5083.603000 5083.610000 1.390000 3.342957 49.133454 1.735970 0.082194
5085.739000 5085.740000 1.400000 3.334037 49.607476 1.768446 0.082520
5087.886000 5087.890000 1.410000 3.324373 50.084205 1.802778 0.082832
5090.050000 5090.050000 1.430000 3.315513 50.928970 1.849509 0.084369
5092.231000 5092.230000 1.440000 3.307513 51.424127 1.882496 0.086055
5094.441000 5094.440000 1.450000 3.300513 51.938391 1.914682 0.088655
5096.663000 5096.660000 1.460000 3.295633 52.430396 1.942273 0.092307
5098.903000 5098.900000 1.480000 3.292931 53.294049 1.979604 0.097397
5101.164000 5101.160000 1.490000 3.291253 53.793282 2.001505 0.100865
5103.443000 5103.440000 1.500000 3.289422 54.304664 2.024233 0.104384
5105.741000 5105.740000 1.510000 3.286448 54.819012 2.049489 0.106929
5108.051000 5108.050000 1.530000 3.282339 55.693688 2.090763 0.109510
5110.390000 5110.390000 1.540000 3.276969 56.206829 2.121388 0.111211
5112.740000 5112.740000 1.550000 3.271435 56.732400 2.153095 0.113609
5115.120000 5115.120000 1.560000 3.266081 57.252874 2.184516 0.115372
5117.513000 5117.510000 1.580000 3.260922 58.146281 2.230088 0.118121
5119.922000 5119.920000 1.590000 3.256532 58.678704 2.260412 0.120072
5122.352000 5122.350000 1.600000 3.253097 59.200963 2.288383 0.121681
5124.801000 5124.800000 1.610000 3.249049 59.733042 2.318311 0.124107
5127.269000 5127.270000 1.630000 3.245224 60.644845 2.362705 0.127246
5129.762000 5129.760000 1.640000 3.241167 61.196123 2.393890 0.129863
