# XDI/1.0 BlueSky/1.5.0
# Beamline.name: 6BM
# Beamline.xray_source: NSLS-II three-pole wiggler
# Beamline.collimation: paraboloid mirror, 5 nm Rh on 30 nm Pt
# Beamline.focusing: not in use
# Beamline.harmonic_rejection: flat mirror, Si stripe, pitch = 7.0 mrad relative to beam
# Detector.i0: 10 cm N2
# Detector.i1: 25 cm N2
# Detector.i2: 25 cm N2
# Element.symbol: Ti
# Element.edge: K
# Facility.name: NSLS-II
# Facility.energy: 3.0
# Facility.current: 220.4
# Facility.mode: top-off
# Facility.gup: 301027
# Facility.saf: 304156
# Mono.name: Si(111)
# Mono.d_spacing: 3.1352584
# Mono.encoder_resolution: 0.0000050 deg/ct
# Mono.angle_offset: 16.0571090 deg
# Mono.scan_mode: pseudo channel cut
# Mono.scan_type: step
# Mono.direction: forward in energy
# Sample.name: Nd2Ti2O7
# Sample.prep: Powder in polyethylene glycol pellet
# Sample.x_position: -97.532 mm
# Sample.y_position: 117.543 mm
# Sample.wheel_position: -525.000 mm
# Scan.experimenters: Bruce Ravel, Martin Stennett
# Scan.edge_energy: 4966.0
# Scan.start_time: 2019-05-30T00:04:44
# Scan.end_time: 2019-05-30T00:47:57
# Scan.transient_id: 9773
# Scan.uid: 2ed10ec1-f110-4f87-8e39-c609e5f3e271
# Scan.plot_hint: ln(I0/It)  --  ln($5/$6)
# Scan.sequence: merge of 3 scans
# Column.1: energy eV
# Column.2: requested_energy eV
# Column.3: measurement_time seconds
# Column.4: mutrans
# Column.5: i0
# Column.6: itrans
# Column.7: irefer
# /////
#  sample disk prepared by Martin
# -----
# energy   requested_energy   measurement_time   mutrans   i0   itrans   irefer
4765.991000 4766.000000 0.500000 3.657538 11.076297 0.285852 0.023352
4776.005000 4776.000000 0.500000 3.652943 11.267989 0.292007 0.023984
4786.009000 4786.000000 0.500000 3.626543 11.501209 0.306023 0.025467
4796.007000 4796.000000 0.500000 3.602157 11.735179 0.319958 0.026797
4806.007000 4806.000000 0.500000 3.576866 11.972501 0.334790 0.028551
4816.006000 4816.000000 0.500000 3.552279 12.203359 0.349738 0.030161
4826.007000 4826.000000 0.500000 3.527610 12.432004 0.365202 0.031744
4835.998000 4836.000000 0.500000 3.503106 12.666637 0.381311 0.033661
4845.998000 4846.000000 0.500000 3.478883 12.900398 0.397871 0.035551
4856.000000 4856.000000 0.500000 3.455355 13.132609 0.414668 0.037711
4866.010000 4866.000000 0.500000 3.432534 13.359474 0.431579 0.039418
4876.003000 4876.000000 0.500000 3.409187 13.585622 0.449251 0.041716
4886.004000 4886.000000 0.500000 3.386822 13.807693 0.466922 0.043675
4896.002000 4896.000000 0.500000 3.363767 14.022610 0.485246 0.045909
4906.001000 4906.000000 0.500000 3.341419 14.238257 0.503845 0.048498
4916.000000 4916.000000 0.500000 3.318688 14.454771 0.523265 0.050756
4925.999000 4926.000000 0.500000 3.296520 14.669854 0.542955 0.053690
4936.000000 4936.000000 0.500000 3.274697 14.876363 0.562748 0.056035
4938.002000 4938.000000 0.500000 3.270052 14.914756 0.566830 0.056805
4940.000000 4940.000000 0.500000 3.265437 14.952151 0.570881 0.057098
4941.997000 4942.000000 0.500000 3.261464 14.987208 0.574496 0.057477
4943.994000 4944.000000 0.500000 3.256986 15.026034 0.578560 0.058099
4946.002000 4946.000000 0.500000 3.252926 15.063715 0.582380 0.058539
4947.994000 4948.000000 0.500000 3.247483 15.094535 0.586747 0.059358
4950.005000 4950.000000 0.500000 3.243544 15.129242 0.590425 0.059602
4952.003000 4952.000000 0.500000 3.239612 15.159807 0.593947 0.060035
4954.005000 4954.000000 0.500000 3.234857 15.191248 0.598016 0.060899
4956.003000 4956.000000 0.500000 3.230765 15.221293 0.601655 0.060892
4956.246000 4956.250000 0.500000 3.230026 15.221345 0.602102 0.061302
4956.495000 4956.500000 0.500000 3.229605 15.223511 0.602442 0.061053
4956.745000 4956.750000 0.500000 3.229074 15.226667 0.602888 0.061260
4956.996000 4957.000000 0.500000 3.228547 15.231176 0.603384 0.061295
4957.245000 4957.250000 0.500000 3.228257 15.234822 0.603703 0.061351
4957.495000 4957.500000 0.500000 3.227801 15.240249 0.604194 0.061147
4957.745000 4957.750000 0.500000 3.227283 15.243965 0.604653 0.061425
4957.994000 4958.000000 0.500000 3.226399 15.246235 0.605276 0.061424
4958.246000 4958.250000 0.500000 3.226099 15.250556 0.605632 0.061537
4958.495000 4958.500000 0.500000 3.225996 15.254050 0.605833 0.061260
4958.745000 4958.750000 0.500000 3.224909 15.259699 0.606716 0.061698
4958.995000 4959.000000 0.500000 3.225070 15.261180 0.606678 0.061561
4959.247000 4959.250000 0.500000 3.224046 15.264560 0.607436 0.061686
4959.497000 4959.500000 0.500000 3.223662 15.269008 0.607844 0.061791
4959.746000 4959.750000 0.500000 3.223134 15.272071 0.608287 0.061547
4959.997000 4960.000000 0.500000 3.222422 15.276138 0.608883 0.061729
4960.245000 4960.250000 0.500000 3.221886 15.277467 0.609258 0.061681
4960.496000 4960.500000 0.500000 3.221459 15.283945 0.609780 0.061911
4960.745000 4960.750000 0.500000 3.221007 15.288585 0.610241 0.061645
4960.996000 4961.000000 0.500000 3.220368 15.295235 0.610898 0.061674
4961.246000 4961.250000 0.500000 3.219145 15.297151 0.611721 0.061692
4961.496000 4961.500000 0.500000 3.219121 15.301148 0.611895 0.061702
4961.748000 4961.750000 0.500000 3.218438 15.304691 0.612457 0.061694
4961.997000 4962.000000 0.500000 3.218100 15.311574 0.612937 0.061693
4962.247000 4962.250000 0.500000 3.217897 15.316618 0.613264 0.061459
4962.494000 4962.500000 0.500000 3.217142 15.320469 0.613876 0.061314
4962.746000 4962.750000 0.500000 3.216396 15.321964 0.614401 0.061272
4962.996000 4963.000000 0.500000 3.216184 15.324783 0.614643 0.061003
4963.248000 4963.250000 0.500000 3.215913 15.331523 0.615087 0.060515
4963.499000 4963.500000 0.500000 3.214860 15.369077 0.617238 0.060118
4963.748000 4963.750000 0.500000 3.214690 15.374188 0.617547 0.059261
4964.000000 4964.000000 0.500000 3.213881 15.379286 0.618251 0.057605
4964.247000 4964.250000 0.500000 3.213851 15.384852 0.618495 0.055264
4964.498000 4964.500000 0.500000 3.213622 15.388221 0.618768 0.051802
4964.746000 4964.750000 0.500000 3.212819 15.392287 0.619428 0.047610
4964.996000 4965.000000 0.500000 3.212393 15.396180 0.619849 0.044612
4965.248000 4965.250000 0.500000 3.211758 15.397910 0.620314 0.042758
4965.499000 4965.500000 0.500000 3.212101 15.398361 0.620120 0.042314
4965.749000 4965.750000 0.500000 3.211420 15.405833 0.620843 0.043394
4966.001000 4966.000000 0.500000 3.211439 15.408449 0.620937 0.044946
4966.249000 4966.250000 0.500000 3.211338 15.411697 0.621131 0.046728
4966.500000 4966.500000 0.500000 3.212162 15.413976 0.620711 0.047860
4966.749000 4966.750000 0.500000 3.213420 15.413720 0.619920 0.048627
4967.000000 4967.000000 0.500000 3.215100 15.415838 0.618963 0.048797
4967.252000 4967.250000 0.500000 3.215512 15.420112 0.618884 0.048559
4967.500000 4967.500000 0.500000 3.215036 15.423689 0.619320 0.048065
4967.752000 4967.750000 0.500000 3.214752 15.461621 0.621018 0.047673
4967.999000 4968.000000 0.500000 3.215656 15.466545 0.620657 0.046765
4968.247000 4968.250000 0.500000 3.218497 15.470343 0.619056 0.046190
4968.500000 4968.500000 0.500000 3.224538 15.472896 0.615418 0.044981
4968.747000 4968.750000 0.500000 3.231263 15.478411 0.611525 0.044112
4968.998000 4969.000000 0.500000 3.236785 15.478914 0.608175 0.043027
4969.249000 4969.250000 0.500000 3.237078 15.479462 0.608011 0.042872
4969.500000 4969.500000 0.500000 3.231984 15.475083 0.610944 0.042682
4969.749000 4969.750000 0.500000 3.226082 15.478246 0.614656 0.042691
4969.998000 4970.000000 0.500000 3.221130 15.486846 0.618042 0.042469
4970.251000 4970.250000 0.500000 3.219304 15.497355 0.619619 0.042225
4970.497000 4970.500000 0.500000 3.216624 15.510423 0.621802 0.042445
4970.749000 4970.750000 0.500000 3.215227 15.515212 0.622876 0.042198
4971.002000 4971.000000 0.500000 3.213300 15.523908 0.624429 0.042094
4971.254000 4971.250000 0.500000 3.213306 15.531317 0.624721 0.041651
4971.502000 4971.500000 0.500000 3.213132 15.538811 0.625126 0.040961
4971.753000 4971.750000 0.500000 3.214211 15.545686 0.624730 0.040535
4971.998000 4972.000000 0.500000 3.215812 15.549619 0.623902 0.039599
4972.250000 4972.250000 0.500000 3.217526 15.552528 0.622947 0.038414
4972.498000 4972.500000 0.500000 3.218829 15.574947 0.623031 0.037736
4972.752000 4972.750000 0.500000 3.218548 15.595290 0.624019 0.037058
4973.001000 4973.000000 0.500000 3.218172 15.599908 0.624438 0.036163
4973.252000 4973.250000 0.500000 3.217550 15.602371 0.624923 0.035499
4973.501000 4973.500000 0.500000 3.216971 15.607342 0.625482 0.035026
4973.750000 4973.750000 0.500000 3.215603 15.610281 0.626451 0.034461
4973.997000 4974.000000 0.500000 3.214439 15.609138 0.627130 0.033737
4974.250000 4974.250000 0.500000 3.213482 15.610513 0.627796 0.033045
4974.498000 4974.500000 0.500000 3.212673 15.613964 0.628443 0.032568
4974.752000 4974.750000 0.500000 3.212387 15.617267 0.628761 0.031864
4975.004000 4975.000000 0.500000 3.211873 15.621649 0.629260 0.031609
4975.251000 4975.250000 0.500000 3.211035 15.618438 0.629654 0.031072
4975.500000 4975.500000 0.500000 3.211212 15.613975 0.629364 0.030278
4975.750000 4975.750000 0.500000 3.211644 15.613991 0.629094 0.029340
4976.000000 4976.000000 0.500000 3.212129 15.615319 0.628842 0.029125
4976.253000 4976.250000 0.500000 3.211889 15.616035 0.629019 0.028705
4976.503000 4976.500000 0.500000 3.212531 15.615867 0.628604 0.028513
4976.751000 4976.750000 0.500000 3.214091 15.616475 0.627655 0.027810
4977.001000 4977.000000 0.500000 3.215040 15.615742 0.627031 0.027641
4977.251000 4977.250000 0.500000 3.217000 15.618099 0.625901 0.027070
4977.501000 4977.500000 0.500000 3.218671 15.622621 0.625032 0.026802
4977.749000 4977.750000 0.500000 3.220828 15.626187 0.623842 0.026592
4978.001000 4978.000000 0.500000 3.223373 15.625740 0.622222 0.026255
4978.253000 4978.250000 0.500000 3.226117 15.625887 0.620520 0.025726
4978.504000 4978.500000 0.500000 3.228856 15.627100 0.618857 0.025849
4978.753000 4978.750000 0.500000 3.231965 15.631234 0.617112 0.025496
4979.003000 4979.000000 0.500000 3.236185 15.631253 0.614513 0.025109
4979.251000 4979.250000 0.500000 3.240296 15.628995 0.611927 0.025271
4979.502000 4979.500000 0.500000 3.245350 15.625861 0.608699 0.024707
4979.751000 4979.750000 0.500000 3.250631 15.621129 0.605305 0.024772
4980.000000 4980.000000 0.500000 3.256584 15.618051 0.601603 0.024651
4980.252000 4980.250000 0.500000 3.262550 15.616198 0.597939 0.024345
4980.504000 4980.500000 0.500000 3.268742 15.615712 0.594195 0.024017
4980.751000 4980.750000 0.500000 3.275946 15.613725 0.589925 0.023712
4980.998000 4981.000000 0.500000 3.282584 15.612744 0.586015 0.023608
4981.250000 4981.250000 0.500000 3.288986 15.613144 0.582275 0.023271
4981.500000 4981.500000 0.500000 3.295041 15.612372 0.578700 0.023128
4981.751000 4981.750000 0.500000 3.300884 15.615434 0.575442 0.022996
4982.001000 4982.000000 0.500000 3.306271 15.617184 0.572402 0.022794
4982.252000 4982.250000 0.500000 3.311956 15.621023 0.569296 0.022652
4982.503000 4982.500000 0.500000 3.317916 15.622199 0.565943 0.022400
4982.750000 4982.750000 0.500000 3.324002 15.621773 0.562529 0.022158
4982.999000 4983.000000 0.500000 3.329639 15.622189 0.559398 0.021979
4983.250000 4983.250000 0.500000 3.334304 15.621975 0.556779 0.021946
4983.502000 4983.500000 0.500000 3.337317 15.620858 0.555034 0.021940
4983.753000 4983.750000 0.500000 3.340518 15.617491 0.553143 0.021734
4984.001000 4984.000000 0.500000 3.341773 15.615334 0.552380 0.021735
4984.250000 4984.250000 0.500000 3.340821 15.613840 0.552851 0.022056
4984.502000 4984.500000 0.500000 3.339459 15.614190 0.553616 0.022409
4984.750000 4984.750000 0.500000 3.338190 15.618158 0.554459 0.022139
4985.000000 4985.000000 0.500000 3.335441 15.620385 0.556052 0.022382
4985.250000 4985.250000 0.500000 3.332024 15.622228 0.558035 0.022733
4985.504000 4985.500000 0.500000 3.329041 15.617572 0.559545 0.022575
4985.754000 4985.750000 0.500000 3.325637 15.618329 0.561486 0.022876
4986.003000 4986.000000 0.500000 3.322226 15.619698 0.563449 0.022970
4986.252000 4986.250000 0.500000 3.319259 15.621312 0.565177 0.023255
4986.502000 4986.500000 0.500000 3.316092 15.616632 0.566796 0.023389
4986.750000 4986.750000 0.500000 3.313878 15.612652 0.567895 0.023532
4987.000000 4987.000000 0.500000 3.311116 15.609537 0.569360 0.023716
4987.251000 4987.250000 0.500000 3.309132 15.607622 0.570426 0.023630
4987.502000 4987.500000 0.500000 3.307229 15.608997 0.571564 0.023576
4987.752000 4987.750000 0.500000 3.304817 15.608697 0.572932 0.024078
4988.003000 4988.000000 0.500000 3.303178 15.613828 0.574061 0.024083
4988.254000 4988.250000 0.500000 3.302059 15.620224 0.574941 0.023867
4988.499000 4988.500000 0.500000 3.300410 15.630881 0.576272 0.024054
4988.751000 4988.750000 0.500000 3.299050 15.640815 0.577423 0.023855
4989.000000 4989.000000 0.500000 3.297409 15.652117 0.578795 0.024215
4989.252000 4989.250000 0.500000 3.296135 15.666138 0.580054 0.024162
4989.502000 4989.500000 0.500000 3.295092 15.677734 0.581093 0.024189
4989.753000 4989.750000 0.500000 3.294338 15.690087 0.581989 0.024104
4990.002000 4990.000000 0.500000 3.293656 15.704533 0.582920 0.024265
4990.250000 4990.250000 0.500000 3.292370 15.715452 0.584072 0.024311
4990.500000 4990.500000 0.500000 3.292245 15.726150 0.584544 0.024505
4990.751000 4990.750000 0.500000 3.292155 15.737845 0.585034 0.024726
4991.003000 4991.000000 0.500000 3.292592 15.748713 0.585181 0.024473
4991.251000 4991.250000 0.500000 3.293144 15.760004 0.585277 0.024586
4991.501000 4991.500000 0.500000 3.293707 15.766858 0.585202 0.024753
4991.753000 4991.750000 0.500000 3.294333 15.774587 0.585118 0.024576
4992.002000 4992.000000 0.500000 3.295636 15.781216 0.584607 0.024414
4992.250000 4992.250000 0.500000 3.296041 15.791407 0.584749 0.024759
4992.501000 4992.500000 0.500000 3.297387 15.796773 0.584161 0.024716
4992.750000 4992.750000 0.500000 3.298534 15.803115 0.583727 0.024636
4993.001000 4993.000000 0.500000 3.298990 15.807578 0.583621 0.024766
4993.252000 4993.250000 0.500000 3.300154 15.812125 0.583109 0.024599
4993.501000 4993.500000 0.500000 3.302004 15.818715 0.582273 0.024641
4993.754000 4993.750000 0.500000 3.302909 15.824029 0.581944 0.024583
4994.001000 4994.000000 0.500000 3.303346 15.838720 0.582230 0.024674
4994.252000 4994.250000 0.500000 3.304352 15.867197 0.582693 0.024562
4994.501000 4994.500000 0.500000 3.304554 15.867989 0.582601 0.024779
4994.750000 4994.750000 0.500000 3.305709 15.870414 0.582021 0.024405
4995.003000 4995.000000 0.500000 3.305895 15.876495 0.582131 0.024296
4995.251000 4995.250000 0.500000 3.306571 15.881747 0.581932 0.024055
4995.505000 4995.500000 0.500000 3.306798 15.883707 0.581871 0.023933
4995.751000 4995.750000 0.500000 3.306836 15.882822 0.581817 0.023845
4996.002000 4996.000000 0.700000 3.306833 22.202323 0.813312 0.033225
4997.093000 4997.080000 0.710000 3.305908 22.563304 0.827308 0.032835
4998.183000 4998.180000 0.730000 3.302885 23.247071 0.854942 0.033355
4999.298000 4999.290000 0.740000 3.298230 23.583971 0.871397 0.033400
5000.438000 5000.430000 0.750000 3.291917 23.939858 0.890148 0.034163
5001.586000 5001.580000 0.760000 3.285378 24.302714 0.909554 0.035223
5002.769000 5002.760000 0.780000 3.278446 24.994922 0.941987 0.036450
5003.957000 5003.950000 0.790000 3.272060 25.372060 0.962319 0.037418
5005.166000 5005.160000 0.800000 3.266480 25.750513 0.982126 0.038672
5006.398000 5006.390000 0.810000 3.261366 26.139977 1.002107 0.040513
5007.648000 5007.640000 0.830000 3.257398 26.849253 1.033387 0.042625
5008.916000 5008.910000 0.840000 3.252694 27.227038 1.052862 0.044505
5010.209000 5010.200000 0.850000 3.245527 27.608422 1.075303 0.046234
5011.518000 5011.510000 0.860000 3.238781 27.984534 1.097321 0.047507
5012.835000 5012.830000 0.880000 3.232924 28.726077 1.133011 0.049416
5014.187000 5014.180000 0.890000 3.227897 29.126319 1.154596 0.050511
5015.551000 5015.540000 0.900000 3.223505 29.500414 1.174581 0.052141
5016.936000 5016.930000 0.910000 3.220255 29.874303 1.193325 0.053520
5018.337000 5018.330000 0.930000 3.217629 30.590733 1.225152 0.055363
5019.758000 5019.750000 0.940000 3.214626 30.985205 1.244698 0.056585
5021.199000 5021.190000 0.950000 3.211225 31.376825 1.264714 0.058009
5022.656000 5022.650000 0.960000 3.208512 31.767289 1.283930 0.058971
5024.131000 5024.130000 0.980000 3.205597 32.491499 1.317025 0.060663
5025.634000 5025.630000 0.990000 3.203156 32.885706 1.336278 0.061375
5027.145000 5027.140000 1.000000 3.200494 33.279412 1.355882 0.061976
5028.680000 5028.680000 1.010000 3.197008 33.674486 1.376743 0.062337
5030.240000 5030.240000 1.030000 3.193448 34.407048 1.411720 0.063302
5031.816000 5031.810000 1.040000 3.189916 34.803818 1.433062 0.063072
5033.407000 5033.400000 1.050000 3.186722 35.208261 1.454370 0.062724
5035.006000 5035.010000 1.060000 3.184123 35.605206 1.474564 0.062349
5036.645000 5036.650000 1.080000 3.182147 36.344583 1.508168 0.062327
5038.294000 5038.300000 1.090000 3.179782 36.752719 1.528715 0.062984
5039.962000 5039.970000 1.100000 3.177394 37.160792 1.549378 0.063793
5041.646000 5041.650000 1.110000 3.174197 37.569452 1.571444 0.064994
5043.355000 5043.360000 1.130000 3.170789 38.310886 1.607920 0.067213
5045.090000 5045.090000 1.140000 3.167261 38.732120 1.631357 0.069570
5046.829000 5046.830000 1.150000 3.164176 39.146075 1.653890 0.071787
5048.601000 5048.600000 1.160000 3.160825 39.559846 1.676976 0.074159
5050.378000 5050.380000 1.180000 3.158024 40.323684 1.714147 0.077342
5052.177000 5052.180000 1.190000 3.154874 40.742989 1.737430 0.080445
5053.999000 5054.000000 1.200000 3.151972 41.171740 1.760827 0.082718
5055.832000 5055.840000 1.210000 3.148782 41.603376 1.784958 0.084959
5057.695000 5057.700000 1.230000 3.145682 42.366568 1.823351 0.087366
5059.576000 5059.580000 1.240000 3.142466 42.804698 1.848135 0.088426
5061.479000 5061.480000 1.250000 3.139017 43.250338 1.873840 0.089984
5063.399000 5063.400000 1.260000 3.135494 43.682937 1.899261 0.091680
5065.328000 5065.330000 1.280000 3.131865 44.481052 1.940994 0.094466
5067.287000 5067.290000 1.290000 3.127673 44.930524 1.968853 0.096437
5069.258000 5069.260000 1.300000 3.123406 45.382754 1.997162 0.098256
5071.259000 5071.260000 1.310000 3.118791 45.836182 2.026443 0.100512
5073.269000 5073.270000 1.330000 3.114223 46.646945 2.071735 0.102825
5075.299000 5075.300000 1.340000 3.109566 47.094713 2.101387 0.103732
5077.351000 5077.350000 1.350000 3.104943 47.562868 2.132114 0.104323
5079.421000 5079.420000 1.360000 3.099887 48.026470 2.163802 0.104259
5081.507000 5081.510000 1.380000 3.094232 48.849255 2.213339 0.104873
5083.612000 5083.610000 1.390000 3.088594 49.316393 2.247152 0.105129
5085.739000 5085.740000 1.400000 3.082684 49.788355 2.282088 0.105002
5087.891000 5087.890000 1.410000 3.077118 50.261588 2.316645 0.104914
5090.049000 5090.050000 1.430000 3.071952 51.108142 2.367862 0.106975
5092.229000 5092.230000 1.440000 3.066939 51.689106 2.406818 0.108731
5094.442000 5094.440000 1.450000 3.062331 52.227697 2.443132 0.112328
5096.663000 5096.660000 1.460000 3.058158 52.717897 2.476379 0.116648
5098.905000 5098.900000 1.480000 3.053865 53.575429 2.527499 0.122844
5101.164000 5101.160000 1.490000 3.049333 54.072854 2.562557 0.128036
5103.443000 5103.440000 1.500000 3.044431 54.581065 2.599344 0.132911
5105.743000 5105.740000 1.510000 3.039908 55.084534 2.635216 0.136373
5108.052000 5108.050000 1.530000 3.035279 55.948490 2.688960 0.139710
5110.389000 5110.390000 1.540000 3.030900 56.453429 2.725125 0.141746
5112.741000 5112.740000 1.550000 3.026558 56.964068 2.761737 0.144079
5115.118000 5115.120000 1.560000 3.022155 57.467351 2.798423 0.146376
5117.513000 5117.510000 1.580000 3.017383 58.444620 2.859645 0.150055
5119.922000 5119.920000 1.590000 3.012685 59.003392 2.900581 0.152463
5122.351000 5122.350000 1.600000 3.007503 59.532852 2.941817 0.155173
5124.801000 5124.800000 1.610000 3.002512 60.059713 2.982703 0.157923
5127.271000 5127.270000 1.630000 2.997607 60.969082 3.042753 0.162464
5129.759000 5129.760000 1.640000 2.992521 61.518097 3.085781 0.165397
