# XDI/1.0 BlueSky/1.5.0
# Beamline.name: 6BM
# Beamline.xray_source: NSLS-II three-pole wiggler
# Beamline.collimation: paraboloid mirror, 5 nm Rh on 30 nm Pt
# Beamline.focusing: not in use
# Beamline.harmonic_rejection: flat mirror, Si stripe, pitch = 7.0 mrad relative to beam
# Detector.i0: 10 cm N2
# Detector.i1: 25 cm N2
# Detector.i2: 25 cm N2
# Element.symbol: Ti
# Element.edge: K
# Facility.name: NSLS-II
# Facility.energy: 3.0
# Facility.current: 220.0
# Facility.mode: top-off
# Facility.gup: 301027
# Facility.saf: 304156
# Mono.name: Si(111)
# Mono.d_spacing: 3.1352584
# Mono.encoder_resolution: 0.0000050 deg/ct
# Mono.angle_offset: 16.0571090 deg
# Mono.scan_mode: pseudo channel cut
# Mono.scan_type: step
# Mono.direction: forward in energy
# Sample.name: TiO2 rutile
# Sample.prep: Powder in polyethylene glycol pellet
# Sample.x_position: -97.532 mm
# Sample.y_position: 117.543 mm
# Sample.wheel_position: -435.000 mm
# Scan.experimenters: Bruce Ravel, Martin Stennett
# Scan.edge_energy: 4966.0
# Scan.start_time: 2019-05-29T19:44:03
# Scan.end_time: 2019-05-29T20:27:44
# Scan.transient_id: 9755
# Scan.uid: a441e553-4511-4c6f-a87d-f75b7327d180
# Scan.plot_hint: ln(I0/It)  --  ln($5/$6)
# Scan.sequence: merge of 3 scans
# Column.1: energy eV
# Column.2: requested_energy eV
# Column.3: measurement_time seconds
# Column.4: mutrans
# Column.5: i0
# Column.6: itrans
# Column.7: irefer
# /////
#  sample disk prepared by Martin
# -----
# energy   requested_energy   measurement_time   mutrans   i0   itrans   irefer
4765.985000 4766.000000 0.500000 3.821011 10.830792 0.237257 0.019936
4776.006000 4776.000000 0.500000 3.792224 11.054577 0.249230 0.020771
4786.008000 4786.000000 0.500000 3.763010 11.305103 0.262434 0.022477
4796.011000 4796.000000 0.500000 3.735676 11.555490 0.275682 0.023588
4806.009000 4806.000000 0.500000 3.708448 11.812830 0.289599 0.025074
4816.007000 4816.000000 0.500000 3.681680 12.061456 0.303716 0.026460
4826.007000 4826.000000 0.500000 3.653840 12.307149 0.318651 0.028177
4836.008000 4836.000000 0.500000 3.626753 12.556501 0.334034 0.029758
4846.004000 4846.000000 0.500000 3.599852 12.808870 0.350030 0.031624
4856.017000 4856.000000 0.500000 3.573838 13.059566 0.366298 0.033490
4866.013000 4866.000000 0.500000 3.547293 13.302836 0.383158 0.035458
4876.009000 4876.000000 0.500000 3.521239 13.545614 0.400451 0.037700
4886.005000 4886.000000 0.500000 3.495573 13.782972 0.418059 0.039633
4896.006000 4896.000000 0.500000 3.470059 14.021355 0.436279 0.041706
4906.002000 4906.000000 0.500000 3.445330 14.266516 0.455019 0.043803
4916.002000 4916.000000 0.500000 3.420315 14.505628 0.474364 0.046549
4926.004000 4926.000000 0.500000 3.395419 14.740691 0.494204 0.048949
4936.004000 4936.000000 0.500000 3.371507 14.970104 0.514044 0.051463
4938.003000 4938.000000 0.500000 3.367342 15.010963 0.517598 0.051950
4939.999000 4940.000000 0.500000 3.361965 15.054012 0.521881 0.052698
4942.008000 4942.000000 0.500000 3.358073 15.096246 0.525393 0.053156
4944.008000 4944.000000 0.500000 3.352566 15.136651 0.529703 0.053451
4946.007000 4946.000000 0.500000 3.348716 15.177089 0.533167 0.053885
4947.999000 4948.000000 0.500000 3.343784 15.210202 0.536963 0.054559
4950.007000 4950.000000 0.500000 3.338909 15.250412 0.541020 0.054985
4952.006000 4952.000000 0.500000 3.335013 15.287781 0.544463 0.055488
4954.007000 4954.000000 0.500000 3.330709 15.324497 0.548124 0.055983
4956.005000 4956.000000 0.500000 3.327290 15.395929 0.552561 0.056241
4956.245000 4956.250000 0.500000 3.326894 15.399321 0.552902 0.056571
4956.494000 4956.500000 0.500000 3.326117 15.401920 0.553422 0.056569
4956.745000 4956.750000 0.500000 3.325870 15.405932 0.553707 0.056397
4956.995000 4957.000000 0.500000 3.325862 15.408702 0.553811 0.056470
4957.245000 4957.250000 0.500000 3.325038 15.412735 0.554413 0.056724
4957.494000 4957.500000 0.500000 3.324342 15.415085 0.554882 0.056861
4957.744000 4957.750000 0.500000 3.324187 15.419210 0.555118 0.056462
4957.996000 4958.000000 0.500000 3.323726 15.422775 0.555503 0.056737
4958.245000 4958.250000 0.500000 3.323411 15.426311 0.555803 0.056835
4958.496000 4958.500000 0.500000 3.322717 15.461463 0.557458 0.056811
4958.745000 4958.750000 0.500000 3.322228 15.466367 0.557907 0.057035
4958.994000 4959.000000 0.500000 3.322033 15.468874 0.558106 0.057018
4959.244000 4959.250000 0.500000 3.321550 15.473118 0.558524 0.056862
4959.497000 4959.500000 0.500000 3.320803 15.478232 0.559132 0.057058
4959.745000 4959.750000 0.500000 3.320431 15.481724 0.559466 0.057171
4959.998000 4960.000000 0.500000 3.319882 15.520841 0.561189 0.057218
4960.248000 4960.250000 0.500000 3.320075 15.525738 0.561260 0.057199
4960.497000 4960.500000 0.500000 3.319644 15.529822 0.561646 0.057189
4960.747000 4960.750000 0.500000 3.319441 15.535172 0.561955 0.057105
4960.995000 4961.000000 0.500000 3.319774 15.540003 0.561941 0.056930
4961.244000 4961.250000 0.500000 3.318656 15.544819 0.562740 0.057025
4961.498000 4961.500000 0.500000 3.318494 15.550626 0.563047 0.057010
4961.747000 4961.750000 0.500000 3.318209 15.553737 0.563322 0.057220
4961.998000 4962.000000 0.500000 3.318094 15.559456 0.563591 0.056959
4962.249000 4962.250000 0.500000 3.318081 15.563565 0.563751 0.056818
4962.496000 4962.500000 0.500000 3.317322 15.569476 0.564388 0.056770
4962.746000 4962.750000 0.500000 3.317034 15.575106 0.564757 0.056880
4962.996000 4963.000000 0.500000 3.317428 15.578528 0.564660 0.056264
4963.246000 4963.250000 0.500000 3.317458 15.584088 0.564842 0.055793
4963.497000 4963.500000 0.500000 3.317054 15.589665 0.565274 0.055764
4963.750000 4963.750000 0.500000 3.317459 15.595567 0.565259 0.055131
4963.998000 4964.000000 0.500000 3.317253 15.598775 0.565492 0.053826
4964.250000 4964.250000 0.500000 3.317246 15.604431 0.565696 0.052239
4964.498000 4964.500000 0.500000 3.317671 15.608766 0.565617 0.049455
4964.749000 4964.750000 0.500000 3.317988 15.613252 0.565600 0.045807
4964.998000 4965.000000 0.500000 3.318277 15.616142 0.565541 0.042382
4965.249000 4965.250000 0.500000 3.319102 15.622208 0.565295 0.039959
4965.499000 4965.500000 0.500000 3.319984 15.625660 0.564917 0.038902
4965.747000 4965.750000 0.500000 3.321740 15.630164 0.564093 0.039405
4966.000000 4966.000000 0.500000 3.324147 15.635026 0.562893 0.040334
4966.253000 4966.250000 0.500000 3.328723 15.637707 0.560412 0.041789
4966.500000 4966.500000 0.500000 3.335272 15.642551 0.556951 0.042778
4966.750000 4966.750000 0.500000 3.346299 15.645453 0.550962 0.043290
4966.998000 4967.000000 0.500000 3.360092 15.648860 0.543588 0.043007
4967.249000 4967.250000 0.500000 3.370284 15.651478 0.538111 0.042681
4967.498000 4967.500000 0.500000 3.369790 15.658056 0.538601 0.042733
4967.750000 4967.750000 0.500000 3.364075 15.662355 0.541825 0.042212
4968.003000 4968.000000 0.500000 3.361388 15.668940 0.543461 0.041905
4968.250000 4968.250000 0.500000 3.368423 15.675479 0.539868 0.040727
4968.501000 4968.500000 0.500000 3.387034 15.680411 0.530117 0.039496
4968.749000 4968.750000 0.500000 3.415035 15.683787 0.515651 0.037896
4968.995000 4969.000000 0.500000 3.449194 15.686732 0.498710 0.036066
4969.249000 4969.250000 0.500000 3.483183 15.685952 0.481696 0.034755
4969.500000 4969.500000 0.500000 3.512015 15.687786 0.468047 0.033286
4969.749000 4969.750000 0.500000 3.533965 15.689105 0.457947 0.032456
4970.001000 4970.000000 0.500000 3.545889 15.695033 0.452692 0.032121
4970.251000 4970.250000 0.500000 3.545592 15.704525 0.453099 0.031775
4970.502000 4970.500000 0.500000 3.533246 15.717173 0.459139 0.032150
4970.748000 4970.750000 0.500000 3.511114 15.728816 0.469639 0.032956
4970.998000 4971.000000 0.500000 3.486500 15.737721 0.481542 0.033197
4971.251000 4971.250000 0.500000 3.465547 15.746985 0.492188 0.033504
4971.501000 4971.500000 0.500000 3.453635 15.753166 0.498279 0.033540
4971.752000 4971.750000 0.500000 3.452641 15.759926 0.498937 0.033152
4972.001000 4972.000000 0.500000 3.465243 15.764915 0.492871 0.032020
4972.253000 4972.250000 0.500000 3.484921 15.769954 0.483434 0.031192
4972.501000 4972.500000 0.500000 3.504626 15.774866 0.474173 0.029700
4972.749000 4972.750000 0.500000 3.517262 15.778940 0.468383 0.028870
4973.002000 4973.000000 0.500000 3.520143 15.785186 0.467173 0.028182
4973.248000 4973.250000 0.500000 3.516591 15.786871 0.468866 0.027842
4973.502000 4973.500000 0.500000 3.506984 15.791795 0.473615 0.027497
4973.752000 4973.750000 0.500000 3.494886 15.794091 0.479452 0.027211
4974.001000 4974.000000 0.500000 3.481619 15.797665 0.485903 0.026875
4974.250000 4974.250000 0.500000 3.470621 15.799187 0.491298 0.026627
4974.500000 4974.500000 0.500000 3.462103 15.803024 0.495616 0.026239
4974.750000 4974.750000 0.500000 3.455741 15.804483 0.498842 0.026206
4974.997000 4975.000000 0.500000 3.455205 15.804847 0.499128 0.025649
4975.250000 4975.250000 0.500000 3.460168 15.806201 0.496696 0.025089
4975.502000 4975.500000 0.500000 3.469329 15.804337 0.492104 0.024726
4975.754000 4975.750000 0.500000 3.484677 15.805892 0.484585 0.023713
4976.001000 4976.000000 0.500000 3.506321 15.805585 0.474308 0.022819
4976.253000 4976.250000 0.500000 3.531843 15.806755 0.462346 0.021903
4976.499000 4976.500000 0.500000 3.562605 15.809315 0.448599 0.021126
4976.751000 4976.750000 0.500000 3.599279 15.809516 0.432312 0.020350
4976.998000 4977.000000 0.500000 3.641972 15.812700 0.414453 0.018882
4977.251000 4977.250000 0.500000 3.689255 15.815122 0.395155 0.018338
4977.502000 4977.500000 0.500000 3.741248 15.818665 0.375236 0.017131
4977.754000 4977.750000 0.500000 3.800945 15.820022 0.353427 0.016191
4978.000000 4978.000000 0.500000 3.866568 15.826203 0.331369 0.015135
4978.253000 4978.250000 0.500000 3.935216 15.827809 0.309304 0.014052
4978.500000 4978.500000 0.500000 4.000130 15.831590 0.290038 0.013225
4978.751000 4978.750000 0.500000 4.060849 15.833847 0.272933 0.012557
4979.000000 4979.000000 0.500000 4.107651 15.833941 0.260420 0.011863
4979.252000 4979.250000 0.500000 4.134673 15.834149 0.253473 0.011833
4979.502000 4979.500000 0.500000 4.145806 15.831978 0.250627 0.011613
4979.753000 4979.750000 0.500000 4.150135 15.830580 0.249522 0.011701
4980.000000 4980.000000 0.500000 4.156381 15.826586 0.247913 0.011514
4980.250000 4980.250000 0.500000 4.170645 15.825346 0.244403 0.011400
4980.498000 4980.500000 0.500000 4.193561 15.820331 0.238806 0.011192
4980.751000 4980.750000 0.500000 4.225951 15.819573 0.231158 0.010825
4981.001000 4981.000000 0.500000 4.265322 15.817806 0.222186 0.010212
4981.252000 4981.250000 0.500000 4.308673 15.817365 0.212744 0.010048
4981.503000 4981.500000 0.500000 4.353139 15.818217 0.203489 0.009364
4981.752000 4981.750000 0.500000 4.397836 15.821124 0.194663 0.009145
4981.999000 4982.000000 0.500000 4.442334 15.823561 0.186312 0.009027
4982.251000 4982.250000 0.500000 4.486712 15.827235 0.178189 0.008625
4982.500000 4982.500000 0.500000 4.531039 15.829996 0.170494 0.008210
4982.751000 4982.750000 0.500000 4.579140 15.832573 0.162468 0.008037
4983.004000 4983.000000 0.500000 4.638505 15.833777 0.153037 0.007454
4983.253000 4983.250000 0.500000 4.708540 15.831728 0.142684 0.007272
4983.505000 4983.500000 0.500000 4.789399 15.832936 0.131570 0.006767
4983.749000 4983.750000 0.500000 4.881101 15.830163 0.120178 0.006260
4984.001000 4984.000000 0.500000 4.979966 15.827592 0.108894 0.006007
4984.248000 4984.250000 0.500000 5.077793 15.827489 0.098736 0.005817
4984.502000 4984.500000 0.500000 5.164014 15.838218 0.090553 0.005529
4984.750000 4984.750000 0.500000 5.239773 15.864502 0.084109 0.005267
4985.001000 4985.000000 0.500000 5.293182 15.866038 0.079730 0.005086
4985.251000 4985.250000 0.500000 5.327062 15.867305 0.077089 0.005040
4985.503000 4985.500000 0.500000 5.334146 15.870084 0.076559 0.004965
4985.751000 4985.750000 0.500000 5.325741 15.870661 0.077201 0.005127
4985.999000 4986.000000 0.500000 5.305793 15.870817 0.078754 0.005022
4986.252000 4986.250000 0.500000 5.280244 15.868096 0.080785 0.005149
4986.502000 4986.500000 0.500000 5.259943 15.868452 0.082455 0.005170
4986.753000 4986.750000 0.500000 5.240644 15.865532 0.084042 0.005468
4987.001000 4987.000000 0.500000 5.232464 15.862642 0.084712 0.005174
4987.254000 4987.250000 0.500000 5.229353 15.858427 0.084950 0.005602
4987.501000 4987.500000 0.500000 5.237391 15.866300 0.084318 0.005133
4987.752000 4987.750000 0.500000 5.247414 15.864912 0.083469 0.005418
4988.000000 4988.000000 0.500000 5.259123 15.884933 0.082609 0.005633
4988.251000 4988.250000 0.500000 5.284148 15.901376 0.080640 0.005211
4988.499000 4988.500000 0.500000 5.302202 15.913030 0.079269 0.005466
4988.751000 4988.750000 0.500000 5.333377 15.925003 0.076876 0.005232
4989.002000 4989.000000 0.500000 5.361224 15.976513 0.075005 0.005289
4989.253000 4989.250000 0.500000 5.392133 15.989366 0.072786 0.004905
4989.501000 4989.500000 0.500000 5.416156 16.000721 0.071118 0.004975
4989.749000 4989.750000 0.500000 5.440784 16.013439 0.069452 0.004736
4990.002000 4990.000000 0.500000 5.464778 16.024988 0.067836 0.004660
4990.250000 4990.250000 0.500000 5.478643 16.042050 0.066983 0.004889
4990.503000 4990.500000 0.500000 5.486710 16.052990 0.066483 0.004597
4990.751000 4990.750000 0.500000 5.486422 16.061203 0.066537 0.004644
4991.004000 4991.000000 0.500000 5.476366 16.075424 0.067277 0.004658
4991.251000 4991.250000 0.500000 5.456875 16.084873 0.068627 0.004927
4991.500000 4991.500000 0.500000 5.437087 16.094313 0.070032 0.004905
4991.752000 4991.750000 0.500000 5.410279 16.104197 0.072000 0.004846
4991.998000 4992.000000 0.500000 5.385074 16.113184 0.073852 0.004836
4992.250000 4992.250000 0.500000 5.357341 16.121366 0.075985 0.005080
4992.500000 4992.500000 0.500000 5.329099 16.127928 0.078196 0.005252
4992.754000 4992.750000 0.500000 5.303708 16.132846 0.080253 0.005117
4993.000000 4993.000000 0.500000 5.275521 16.138715 0.082538 0.005283
4993.252000 4993.250000 0.500000 5.244258 16.144507 0.085203 0.005564
4993.500000 4993.500000 0.500000 5.214780 16.149095 0.087757 0.005491
4993.748000 4993.750000 0.500000 5.186235 16.154583 0.090326 0.005730
4994.002000 4994.000000 0.500000 5.153915 16.159089 0.093359 0.005621
4994.252000 4994.250000 0.500000 5.123206 16.163613 0.096293 0.005871
4994.503000 4994.500000 0.500000 5.091940 16.167367 0.099387 0.006024
4994.753000 4994.750000 0.500000 5.061582 16.174161 0.102482 0.006110
4995.002000 4995.000000 0.500000 5.035476 16.176070 0.105195 0.006185
4995.250000 4995.250000 0.500000 5.013072 16.179463 0.107595 0.006156
4995.501000 4995.500000 0.500000 4.997560 16.183335 0.109295 0.006372
4995.749000 4995.750000 0.500000 4.985851 16.186753 0.110612 0.006218
4996.001000 4996.000000 0.700000 4.982125 22.666719 0.155482 0.008876
4997.093000 4997.080000 0.710000 5.012999 23.002826 0.152986 0.008381
4998.185000 4998.180000 0.730000 5.061958 23.648525 0.149762 0.008685
4999.294000 4999.290000 0.740000 5.120391 23.987493 0.143310 0.008168
5000.438000 5000.430000 0.750000 5.187434 24.350036 0.136015 0.008041
5001.587000 5001.580000 0.760000 5.266894 24.725053 0.127565 0.007859
5002.766000 5002.760000 0.780000 5.321340 25.428749 0.124258 0.007655
5003.959000 5003.950000 0.790000 5.287048 25.812039 0.130545 0.008104
5005.167000 5005.160000 0.800000 5.194661 26.201140 0.145334 0.008573
5006.396000 5006.390000 0.810000 5.078716 26.600175 0.165649 0.009980
5007.649000 5007.640000 0.830000 4.973612 27.318531 0.189016 0.010777
5008.917000 5008.910000 0.840000 4.885182 27.706035 0.209420 0.011828
5010.204000 5010.200000 0.850000 4.783047 28.094527 0.235129 0.013055
5011.517000 5011.510000 0.860000 4.692840 28.484887 0.260943 0.014192
5012.838000 5012.830000 0.880000 4.642400 29.200002 0.281332 0.015279
5014.186000 5014.180000 0.890000 4.636112 29.580114 0.286786 0.015486
5015.547000 5015.540000 0.900000 4.657343 29.959232 0.284365 0.015645
5016.937000 5016.930000 0.910000 4.682666 30.348980 0.280855 0.015725
5018.339000 5018.330000 0.930000 4.698584 31.076015 0.283052 0.016079
5019.756000 5019.750000 0.940000 4.685849 31.470219 0.290317 0.016597
5021.195000 5021.190000 0.950000 4.649014 31.864225 0.304966 0.017182
5022.656000 5022.650000 0.960000 4.602199 32.262076 0.323574 0.017827
5024.137000 5024.130000 0.980000 4.559848 32.997210 0.345273 0.019119
5025.634000 5025.630000 0.990000 4.530990 33.395799 0.359663 0.019736
5027.146000 5027.140000 1.000000 4.518832 33.794745 0.368421 0.020259
5028.684000 5028.680000 1.010000 4.526310 34.196988 0.370034 0.020024
5030.247000 5030.240000 1.030000 4.543392 34.938379 0.371650 0.020216
5031.818000 5031.810000 1.040000 4.562804 35.342141 0.368700 0.019807
5033.407000 5033.400000 1.050000 4.578065 35.737228 0.367188 0.019285
5035.015000 5035.010000 1.060000 4.589103 36.136615 0.367221 0.019020
5036.655000 5036.650000 1.080000 4.606563 36.881927 0.368308 0.019051
5038.297000 5038.300000 1.090000 4.647087 37.291304 0.357632 0.018359
5039.968000 5039.970000 1.100000 4.708313 37.697862 0.340025 0.017796
5041.648000 5041.650000 1.110000 4.764787 38.108329 0.324859 0.017291
5043.357000 5043.360000 1.130000 4.796867 38.854714 0.320767 0.017012
5045.087000 5045.090000 1.140000 4.799711 39.262008 0.323211 0.017748
5046.829000 5046.830000 1.150000 4.788613 39.676512 0.330275 0.018359
5048.598000 5048.600000 1.160000 4.769308 40.091347 0.340223 0.019164
5050.378000 5050.380000 1.180000 4.747628 40.853193 0.354290 0.020049
5052.176000 5052.180000 1.190000 4.730911 41.264699 0.363888 0.021048
5053.999000 5054.000000 1.200000 4.721642 41.694824 0.371111 0.021629
5055.838000 5055.840000 1.210000 4.712218 42.118967 0.378438 0.022089
5057.699000 5057.700000 1.230000 4.700280 42.899454 0.390075 0.022916
5059.579000 5059.580000 1.240000 4.693926 43.337333 0.396567 0.023232
5061.478000 5061.480000 1.250000 4.692032 43.771075 0.401295 0.023494
5063.398000 5063.400000 1.260000 4.691658 44.202125 0.405398 0.023960
5065.326000 5065.330000 1.280000 4.693040 45.077962 0.412859 0.024134
5067.291000 5067.290000 1.290000 4.693840 45.525403 0.416634 0.024949
5069.259000 5069.260000 1.300000 4.684748 45.966406 0.424518 0.025415
5071.260000 5071.260000 1.310000 4.658297 46.407559 0.440079 0.026365
5073.271000 5073.270000 1.330000 4.625289 47.283689 0.463431 0.027566
5075.300000 5075.300000 1.340000 4.599728 47.773233 0.480341 0.028418
5077.352000 5077.350000 1.350000 4.595459 48.259804 0.487298 0.028513
5079.419000 5079.420000 1.360000 4.608814 48.790483 0.486126 0.028043
5081.509000 5081.510000 1.380000 4.623459 49.614010 0.487149 0.027859
5083.612000 5083.610000 1.390000 4.625877 50.075463 0.490505 0.027359
5085.739000 5085.740000 1.400000 4.610977 50.536769 0.502445 0.028081
5087.890000 5087.890000 1.410000 4.585721 50.999812 0.520023 0.028825
5090.049000 5090.050000 1.430000 4.559186 51.831447 0.542709 0.029645
5092.229000 5092.230000 1.440000 4.534254 52.304670 0.561482 0.030352
5094.439000 5094.440000 1.450000 4.506817 52.783586 0.582378 0.031537
5096.657000 5096.660000 1.460000 4.474624 53.244551 0.606673 0.033407
5098.896000 5098.900000 1.480000 4.445426 54.074706 0.634376 0.035638
5101.158000 5101.160000 1.490000 4.423109 54.542013 0.654306 0.037500
5103.439000 5103.440000 1.500000 4.412587 55.022811 0.667076 0.039111
5105.739000 5105.740000 1.510000 4.410692 55.490323 0.674026 0.039844
5108.050000 5108.050000 1.530000 4.408325 56.328287 0.685828 0.040542
5110.394000 5110.390000 1.540000 4.402108 56.810907 0.696022 0.041455
5112.741000 5112.740000 1.550000 4.395900 57.295085 0.706321 0.042043
5115.122000 5115.120000 1.560000 4.393624 57.778121 0.713895 0.042240
5117.511000 5117.510000 1.580000 4.402668 58.649911 0.718149 0.042974
5119.921000 5119.920000 1.590000 4.418713 59.149198 0.712733 0.043103
5122.350000 5122.350000 1.600000 4.433221 59.654034 0.708468 0.042883
5124.801000 5124.800000 1.610000 4.441631 60.169833 0.708604 0.043125
5127.274000 5127.270000 1.630000 4.442998 61.064833 0.718162 0.044034
5129.761000 5129.760000 1.640000 4.440147 61.598293 0.726505 0.044966
