# XDI/1.0 BlueSky/1.5.0
# Beamline.name: 6BM
# Beamline.xray_source: NSLS-II three-pole wiggler
# Beamline.collimation: paraboloid mirror, 5 nm Rh on 30 nm Pt
# Beamline.focusing: not in use
# Beamline.harmonic_rejection: flat mirror, Si stripe, pitch = 7.0 mrad relative to beam
# Detector.i0: 10 cm N2
# Detector.i1: 25 cm N2
# Detector.i2: 25 cm N2
# Element.symbol: Ti
# Element.edge: K
# Facility.name: NSLS-II
# Facility.energy: 3.0
# Facility.current: 219.4
# Facility.mode: top-off
# Facility.gup: 301027
# Facility.saf: 304156
# Mono.name: Si(111)
# Mono.d_spacing: 3.1352584
# Mono.encoder_resolution: 0.0000050 deg/ct
# Mono.angle_offset: 16.0571090 deg
# Mono.scan_mode: pseudo channel cut
# Mono.scan_type: step
# Mono.direction: forward in energy
# Sample.name: CaCe2Ti4O12
# Sample.prep: Powder in polyethylene glycol pellet
# Sample.x_position: -113.290 mm
# Sample.y_position: 117.505 mm
# Sample.wheel_position: 225.000 mm
# Scan.experimenters: Bruce Ravel, Martin Stennett
# Scan.edge_energy: 4966.0
# Scan.start_time: 2019-05-30T19:31:03
# Scan.end_time: 2019-05-30T20:15:10
# Scan.transient_id: 9852
# Scan.uid: b8f09ba5-23aa-449f-920b-bdfdb9eaf65b
# Scan.plot_hint: (DTC1 + DTC2 + DTC3 + DTC4) / I0  --  ($8+$9+$10+$11) / $5
# Scan.sequence: merge of 3 scans
# Column.1: energy eV
# Column.2: requested_energy eV
# Column.3: measurement_time seconds
# Column.4: mutrans
# Column.5: i0
# Column.6: itrans
# Column.7: irefer
# /////
#  sample disk prepared by Martin
# -----
# energy   requested_energy   measurement_time   mutrans   i0   itrans   irefer
4765.997000 4766.000000 0.500000 76.092465 10.549803 0.037192 0.005294
4776.007000 4776.000000 0.500000 76.187673 10.793918 0.038261 0.005387
4786.009000 4786.000000 0.500000 74.289515 11.054296 0.040756 0.005704
4796.009000 4796.000000 0.500000 69.461281 11.342896 0.043405 0.006049
4806.007000 4806.000000 0.500000 67.855966 11.606212 0.046102 0.006235
4816.007000 4816.000000 0.500000 62.759159 11.868998 0.049000 0.006531
4826.007000 4826.000000 0.500000 59.198416 12.134094 0.051998 0.006986
4835.999000 4836.000000 0.500000 59.032153 12.387395 0.055518 0.007556
4845.998000 4846.000000 0.500000 52.861993 12.642573 0.058480 0.007866
4856.000000 4856.000000 0.500000 48.473173 12.908588 0.062151 0.008264
4866.007000 4866.000000 0.500000 47.636533 13.194622 0.066033 0.008915
4876.006000 4876.000000 0.500000 43.682921 13.464226 0.069730 0.009637
4886.004000 4886.000000 0.500000 40.725001 13.726913 0.073761 0.010079
4896.003000 4896.000000 0.500000 36.205237 13.990672 0.077827 0.010563
4906.006000 4906.000000 0.500000 35.372974 14.263346 0.082430 0.011372
4916.005000 4916.000000 0.500000 33.767792 14.533597 0.086776 0.011751
4925.999000 4926.000000 0.500000 30.072015 14.799655 0.091857 0.012657
4935.999000 4936.000000 0.500000 29.782189 15.051471 0.096576 0.013267
4937.997000 4938.000000 0.500000 31.475207 15.099182 0.097468 0.013502
4939.995000 4940.000000 0.500000 30.373546 15.152294 0.098560 0.013639
4941.994000 4942.000000 0.500000 30.617358 15.199616 0.099292 0.013643
4944.003000 4944.000000 0.500000 30.395979 15.245199 0.100349 0.013898
4946.003000 4946.000000 0.500000 30.128865 15.285925 0.101216 0.013840
4948.003000 4948.000000 0.500000 31.704997 15.324529 0.102276 0.014042
4950.004000 4950.000000 0.500000 30.024562 15.373784 0.103220 0.014064
4951.999000 4952.000000 0.500000 31.127147 15.418013 0.104484 0.014472
4954.004000 4954.000000 0.500000 32.844355 15.461810 0.105210 0.014516
4956.000000 4956.000000 0.500000 33.775275 15.506408 0.106142 0.014567
4956.246000 4956.250000 0.500000 34.483966 15.510877 0.106516 0.014835
4956.496000 4956.500000 0.500000 33.018648 15.516990 0.106464 0.014799
4956.743000 4956.750000 0.500000 33.939300 15.520837 0.106720 0.014840
4956.994000 4957.000000 0.500000 34.166939 15.523253 0.106862 0.014792
4957.242000 4957.250000 0.500000 34.328766 15.526120 0.106770 0.014928
4957.493000 4957.500000 0.500000 34.178791 15.530094 0.106773 0.014646
4957.746000 4957.750000 0.500000 33.584318 15.534406 0.107005 0.014799
4957.995000 4958.000000 0.500000 33.546149 15.540068 0.107301 0.014967
4958.243000 4958.250000 0.500000 36.101528 15.544120 0.107363 0.014941
4958.496000 4958.500000 0.500000 35.308953 15.549720 0.107601 0.014914
4958.745000 4958.750000 0.500000 35.694518 15.554362 0.107397 0.014833
4958.995000 4959.000000 0.500000 34.544472 15.560005 0.107814 0.014957
4959.245000 4959.250000 0.500000 34.278583 15.561096 0.107804 0.014875
4959.495000 4959.500000 0.500000 35.373930 15.566855 0.107853 0.014809
4959.744000 4959.750000 0.500000 35.829568 15.572694 0.108059 0.014823
4959.998000 4960.000000 0.500000 36.341874 15.578709 0.107989 0.014880
4960.246000 4960.250000 0.500000 36.477527 15.581931 0.108235 0.015014
4960.496000 4960.500000 0.500000 35.931340 15.587672 0.108086 0.014919
4960.749000 4960.750000 0.500000 37.519370 15.595170 0.108107 0.014778
4960.994000 4961.000000 0.500000 37.623368 15.598679 0.108480 0.014957
4961.245000 4961.250000 0.500000 37.296461 15.604288 0.108791 0.015056
4961.497000 4961.500000 0.500000 37.277695 15.607858 0.108816 0.014899
4961.746000 4961.750000 0.500000 39.517223 15.613873 0.108892 0.014959
4961.997000 4962.000000 0.500000 37.792192 15.620609 0.108870 0.014879
4962.249000 4962.250000 0.500000 39.297167 15.624705 0.109006 0.014751
4962.498000 4962.500000 0.500000 40.368407 15.627780 0.109192 0.014936
4962.746000 4962.750000 0.500000 40.100430 15.631862 0.109041 0.014851
4962.999000 4963.000000 0.500000 40.802389 15.635759 0.109239 0.014809
4963.246000 4963.250000 0.500000 42.118987 15.643495 0.109691 0.014784
4963.495000 4963.500000 0.500000 41.930634 15.650532 0.109639 0.014860
4963.746000 4963.750000 0.500000 42.760166 15.652100 0.109696 0.014601
4963.999000 4964.000000 0.500000 42.717521 15.656326 0.109894 0.014381
4964.247000 4964.250000 0.500000 45.468740 15.664195 0.109905 0.014005
4964.497000 4964.500000 0.500000 42.548767 15.668717 0.110004 0.013508
4964.751000 4964.750000 0.500000 47.100676 15.675754 0.110095 0.012716
4964.996000 4965.000000 0.500000 49.331782 15.682489 0.110264 0.011885
4965.248000 4965.250000 0.500000 49.344577 15.684081 0.110189 0.011145
4965.499000 4965.500000 0.500000 53.404907 15.687555 0.110328 0.010893
4965.745000 4965.750000 0.500000 56.222565 15.691787 0.110181 0.010687
4965.998000 4966.000000 0.500000 59.942188 15.699937 0.110174 0.010885
4966.251000 4966.250000 0.500000 65.812184 15.706388 0.110249 0.011175
4966.502000 4966.500000 0.500000 72.307048 15.711851 0.110054 0.011472
4966.749000 4966.750000 0.500000 86.019518 15.717066 0.109886 0.011764
4966.998000 4967.000000 0.500000 101.279355 15.720950 0.109198 0.011966
4967.251000 4967.250000 0.500000 122.592610 15.719648 0.108782 0.011955
4967.497000 4967.500000 0.500000 129.812289 15.722715 0.108416 0.011735
4967.750000 4967.750000 0.500000 129.109048 15.726285 0.108692 0.011780
4968.002000 4968.000000 0.500000 127.385467 15.736246 0.108870 0.011551
4968.250000 4968.250000 0.500000 130.432459 15.744579 0.108894 0.011567
4968.503000 4968.500000 0.500000 145.777849 15.748516 0.108669 0.011361
4968.749000 4968.750000 0.500000 175.118810 15.751288 0.107637 0.011107
4968.997000 4969.000000 0.500000 211.660103 15.752417 0.106239 0.010735
4969.247000 4969.250000 0.500000 246.688238 15.753050 0.105432 0.010766
4969.497000 4969.500000 0.500000 267.007670 15.754059 0.104620 0.010334
4969.752000 4969.750000 0.500000 267.063215 15.756707 0.105031 0.010392
4969.997000 4970.000000 0.500000 252.154896 15.760388 0.105617 0.010215
4970.252000 4970.250000 0.500000 240.295940 15.765929 0.105895 0.010293
4970.501000 4970.500000 0.500000 235.520770 15.779939 0.106201 0.010325
4970.748000 4970.750000 0.500000 228.862113 15.789601 0.106582 0.010154
4971.000000 4971.000000 0.500000 226.497122 15.801803 0.107245 0.010538
4971.249000 4971.250000 0.500000 221.546766 15.812750 0.106996 0.010223
4971.502000 4971.500000 0.500000 225.071914 15.820368 0.107352 0.010150
4971.749000 4971.750000 0.500000 237.851991 15.826593 0.107020 0.010117
4972.002000 4972.000000 0.500000 252.634322 15.831541 0.106477 0.009937
4972.252000 4972.250000 0.500000 284.691679 15.836641 0.105707 0.009576
4972.504000 4972.500000 0.500000 304.378528 15.840472 0.104979 0.009425
4972.749000 4972.750000 0.500000 324.024735 15.843464 0.104641 0.009238
4973.000000 4973.000000 0.500000 333.594480 15.848721 0.104637 0.009270
4973.250000 4973.250000 0.500000 346.487987 15.852617 0.104142 0.008787
4973.503000 4973.500000 0.500000 344.102023 15.865072 0.104481 0.008871
4973.750000 4973.750000 0.500000 337.537392 15.894802 0.104825 0.008550
4974.001000 4974.000000 0.500000 329.657774 15.895326 0.105033 0.008431
4974.254000 4974.250000 0.500000 320.649601 15.900657 0.105656 0.008463
4974.500000 4974.500000 0.500000 311.708488 15.904658 0.106108 0.008481
4974.750000 4974.750000 0.500000 305.988965 15.908027 0.106457 0.008074
4975.002000 4975.000000 0.500000 296.480425 15.909389 0.106982 0.007928
4975.249000 4975.250000 0.500000 289.456358 15.909861 0.107054 0.007926
4975.502000 4975.500000 0.500000 284.909525 15.909698 0.107323 0.007776
4975.753000 4975.750000 0.500000 279.896920 15.935596 0.107894 0.007871
4976.003000 4976.000000 0.500000 286.537198 15.947370 0.107785 0.007572
4976.253000 4976.250000 0.500000 290.193490 15.945043 0.107977 0.007478
4976.501000 4976.500000 0.500000 294.407379 15.943996 0.107697 0.007291
4976.748000 4976.750000 0.500000 301.662987 15.946498 0.107579 0.007294
4977.000000 4977.000000 0.500000 308.337804 15.948511 0.107264 0.007137
4977.250000 4977.250000 0.500000 334.097426 15.950772 0.106876 0.007233
4977.502000 4977.500000 0.500000 348.638469 15.950882 0.106147 0.006962
4977.751000 4977.750000 0.500000 375.073658 15.953139 0.105303 0.007050
4978.001000 4978.000000 0.500000 413.650147 15.958041 0.104308 0.006874
4978.252000 4978.250000 0.500000 444.959228 15.962186 0.103335 0.006830
4978.501000 4978.500000 0.500000 485.772247 15.968660 0.102037 0.006581
4978.751000 4978.750000 0.500000 529.302286 16.015189 0.100956 0.006374
4979.000000 4979.000000 0.500000 570.610886 16.015401 0.099520 0.006341
4979.253000 4979.250000 0.500000 623.369696 16.016662 0.098186 0.006481
4979.503000 4979.500000 0.500000 673.384345 16.018304 0.096942 0.006373
4979.751000 4979.750000 0.500000 722.124098 16.014790 0.095056 0.006086
4980.001000 4980.000000 0.500000 775.730283 16.012449 0.093516 0.006043
4980.249000 4980.250000 0.500000 840.461281 16.011082 0.091755 0.005860
4980.502000 4980.500000 0.500000 907.283644 16.008030 0.089701 0.005965
4980.748000 4980.750000 0.500000 975.409854 16.006555 0.087398 0.005577
4980.999000 4981.000000 0.500000 1063.825451 16.006825 0.085141 0.005570
4981.250000 4981.250000 0.500000 1161.151174 16.005832 0.082581 0.005541
4981.503000 4981.500000 0.500000 1263.629716 16.007117 0.079647 0.005372
4981.752000 4981.750000 0.500000 1378.635979 16.009039 0.076814 0.005120
4982.000000 4982.000000 0.500000 1473.165726 16.010061 0.074008 0.005143
4982.249000 4982.250000 0.500000 1596.747470 16.014456 0.070876 0.004763
4982.502000 4982.500000 0.500000 1708.317321 16.017716 0.068199 0.004823
4982.751000 4982.750000 0.500000 1815.128139 16.021065 0.065851 0.004579
4983.001000 4983.000000 0.500000 1905.709938 16.022659 0.063859 0.004626
4983.253000 4983.250000 0.500000 1980.294870 16.025376 0.062106 0.004379
4983.503000 4983.500000 0.500000 2045.164061 16.024563 0.060990 0.004502
4983.751000 4983.750000 0.500000 2050.628744 16.024812 0.060159 0.004440
4983.999000 4984.000000 0.500000 2084.705603 16.024833 0.060046 0.004255
4984.250000 4984.250000 0.500000 2087.746595 16.024582 0.060064 0.004366
4984.500000 4984.500000 0.500000 2064.988710 16.023045 0.060750 0.004483
4984.754000 4984.750000 0.500000 2037.653073 16.025153 0.061542 0.004678
4985.001000 4985.000000 0.500000 1994.589853 16.027051 0.062504 0.004660
4985.251000 4985.250000 0.500000 1933.204521 16.030892 0.063633 0.004806
4985.504000 4985.500000 0.500000 1909.585548 16.033110 0.064300 0.004586
4985.749000 4985.750000 0.500000 1871.999513 16.034538 0.065520 0.004743
4985.998000 4986.000000 0.500000 1842.338153 16.035589 0.066452 0.004935
4986.249000 4986.250000 0.500000 1799.055138 16.036748 0.067470 0.004831
4986.502000 4986.500000 0.500000 1765.765712 16.037451 0.068003 0.004944
4986.753000 4986.750000 0.500000 1744.730165 16.035477 0.068676 0.004894
4987.002000 4987.000000 0.500000 1715.298186 16.033120 0.069242 0.005036
4987.252000 4987.250000 0.500000 1708.324555 16.029429 0.069762 0.005079
4987.501000 4987.500000 0.500000 1689.247642 16.029070 0.070169 0.005186
4987.746000 4987.750000 0.500000 1681.172182 16.030841 0.070395 0.005053
4988.002000 4988.000000 0.500000 1701.646276 16.033546 0.070448 0.005046
4988.251000 4988.250000 0.500000 1692.773018 16.038824 0.070648 0.005138
4988.502000 4988.500000 0.500000 1689.961347 16.048736 0.070733 0.005189
4988.753000 4988.750000 0.500000 1693.685110 16.057927 0.070702 0.005029
4989.004000 4989.000000 0.500000 1707.635770 16.072366 0.070660 0.005033
4989.250000 4989.250000 0.500000 1717.137090 16.085569 0.070541 0.004992
4989.499000 4989.500000 0.500000 1725.323578 16.098068 0.070750 0.005128
4989.749000 4989.750000 0.500000 1728.536003 16.111802 0.070499 0.005038
4990.001000 4990.000000 0.500000 1744.938607 16.126617 0.069984 0.004870
4990.253000 4990.250000 0.500000 1754.502515 16.143633 0.070136 0.005269
4990.503000 4990.500000 0.500000 1762.191839 16.154954 0.069943 0.005187
4990.752000 4990.750000 0.500000 1791.986006 16.169737 0.069417 0.005171
4991.004000 4991.000000 0.500000 1799.227946 16.182482 0.069401 0.005213
4991.249000 4991.250000 0.500000 1797.317913 16.194565 0.069054 0.004925
4991.501000 4991.500000 0.500000 1824.687131 16.206638 0.069028 0.005115
4991.748000 4991.750000 0.500000 1837.056839 16.217490 0.068761 0.005115
4992.001000 4992.000000 0.500000 1848.061849 16.227082 0.068512 0.004961
4992.252000 4992.250000 0.500000 1863.811436 16.237320 0.068458 0.005097
4992.499000 4992.500000 0.500000 1863.846452 16.245070 0.068290 0.004994
4992.753000 4992.750000 0.500000 1892.409147 16.252190 0.067987 0.004972
4992.999000 4993.000000 0.500000 1896.446649 16.259285 0.067796 0.004906
4993.249000 4993.250000 0.500000 1913.184057 16.266418 0.067792 0.005162
4993.499000 4993.500000 0.500000 1918.925584 16.274045 0.067531 0.004938
4993.750000 4993.750000 0.500000 1924.095625 16.280827 0.067229 0.004939
4994.002000 4994.000000 0.500000 1924.223907 16.286132 0.067472 0.005106
4994.252000 4994.250000 0.500000 1934.036298 16.289485 0.067144 0.004911
4994.502000 4994.500000 0.500000 1934.449034 16.295684 0.067164 0.004853
4994.752000 4994.750000 0.500000 1959.091330 16.303292 0.067244 0.004951
4994.999000 4995.000000 0.500000 1956.868633 16.308240 0.066987 0.004768
4995.249000 4995.250000 0.500000 1951.494736 16.311840 0.067056 0.004888
4995.499000 4995.500000 0.500000 1958.381332 16.314634 0.067174 0.005072
4995.751000 4995.750000 0.500000 1983.052212 16.344628 0.067112 0.004979
4996.005000 4996.000000 0.700000 1978.925360 22.854207 0.093705 0.006942
4997.091000 4997.080000 0.710000 1992.225199 23.196885 0.095049 0.006826
4998.187000 4998.180000 0.730000 1984.344776 23.852369 0.098145 0.006886
4999.298000 4999.290000 0.740000 1966.979619 24.200298 0.100705 0.007091
5000.436000 5000.430000 0.750000 1945.527985 24.566855 0.103603 0.007104
5001.588000 5001.580000 0.760000 1902.684782 24.946015 0.107072 0.007323
5002.765000 5002.760000 0.780000 1867.454367 25.659758 0.112600 0.007582
5003.956000 5003.950000 0.790000 1823.689807 26.052380 0.116561 0.008019
5005.167000 5005.160000 0.800000 1775.193854 26.449402 0.120393 0.008179
5006.395000 5006.390000 0.810000 1728.436235 26.857663 0.125165 0.008646
5007.644000 5007.640000 0.830000 1690.373265 27.590701 0.130879 0.009113
5008.917000 5008.910000 0.840000 1658.699068 27.984002 0.134981 0.009433
5010.205000 5010.200000 0.850000 1603.704083 28.379608 0.139725 0.009881
5011.515000 5011.510000 0.860000 1562.547254 28.773284 0.144768 0.010118
5012.834000 5012.830000 0.880000 1536.801143 29.496663 0.150440 0.010608
5014.186000 5014.180000 0.890000 1505.346071 29.927720 0.154444 0.010827
5015.544000 5015.540000 0.900000 1508.267488 30.344370 0.158037 0.011254
5016.935000 5016.930000 0.910000 1511.638507 30.799415 0.161208 0.011485
5018.336000 5018.330000 0.930000 1518.811700 31.557544 0.165301 0.011801
5019.755000 5019.750000 0.940000 1519.251807 31.963344 0.168426 0.012147
5021.195000 5021.190000 0.950000 1509.389386 32.368567 0.171812 0.012380
5022.653000 5022.650000 0.960000 1503.434475 32.776865 0.175406 0.012562
5024.131000 5024.130000 0.980000 1500.162588 33.530465 0.180634 0.013273
5025.637000 5025.630000 0.990000 1507.002610 33.940301 0.183084 0.013039
5027.146000 5027.140000 1.000000 1526.658614 34.348973 0.185424 0.013234
5028.684000 5028.680000 1.010000 1532.640711 34.759112 0.188144 0.013422
5030.242000 5030.240000 1.030000 1533.125866 35.512706 0.193311 0.013960
5031.816000 5031.810000 1.040000 1542.450107 36.014757 0.197114 0.013420
5033.407000 5033.400000 1.050000 1544.746631 36.427526 0.200443 0.013574
5035.006000 5035.010000 1.060000 1538.455417 36.834193 0.203577 0.013365
5036.657000 5036.650000 1.080000 1561.176173 37.598444 0.208406 0.013611
5038.296000 5038.300000 1.090000 1584.396797 38.021461 0.210162 0.013633
5039.976000 5039.970000 1.100000 1604.940323 38.437708 0.212580 0.014262
5041.656000 5041.650000 1.110000 1623.968038 38.853115 0.214390 0.014164
5043.358000 5043.360000 1.130000 1633.173660 39.615159 0.219182 0.014542
5045.087000 5045.090000 1.140000 1643.671577 40.037709 0.222496 0.014826
5046.834000 5046.830000 1.150000 1643.505111 40.454532 0.226583 0.015534
5048.596000 5048.600000 1.160000 1649.738970 40.884140 0.229536 0.015679
5050.372000 5050.380000 1.180000 1665.994065 41.661428 0.234433 0.016035
5052.172000 5052.180000 1.190000 1693.626794 42.089011 0.236729 0.016849
5053.995000 5054.000000 1.200000 1722.555741 42.520375 0.238349 0.016984
5055.832000 5055.840000 1.210000 1755.570244 42.950439 0.240339 0.017643
5057.694000 5057.700000 1.230000 1765.189430 43.742873 0.244688 0.018266
5059.575000 5059.580000 1.240000 1790.364516 44.180060 0.247718 0.018174
5061.476000 5061.480000 1.250000 1787.151710 44.621446 0.251436 0.018275
5063.394000 5063.400000 1.260000 1803.050864 45.056761 0.255573 0.018770
5065.329000 5065.330000 1.280000 1785.758178 45.852758 0.262461 0.019270
5067.285000 5067.290000 1.290000 1768.563368 46.300247 0.268843 0.019883
5069.256000 5069.260000 1.300000 1745.020139 46.745496 0.274954 0.020196
5071.255000 5071.260000 1.310000 1734.000934 47.187558 0.281249 0.021048
5073.268000 5073.270000 1.330000 1716.898905 47.996164 0.288703 0.021495
5075.295000 5075.300000 1.340000 1729.151818 48.436993 0.293644 0.021567
5077.347000 5077.350000 1.350000 1727.815694 48.882133 0.298064 0.021627
5079.418000 5079.420000 1.360000 1729.652206 49.326447 0.303236 0.022052
5081.505000 5081.510000 1.380000 1715.482806 50.124827 0.311207 0.022032
5083.604000 5083.610000 1.390000 1704.762528 50.563459 0.317759 0.022256
5085.740000 5085.740000 1.400000 1685.738966 51.009792 0.324911 0.022202
5087.893000 5087.890000 1.410000 1668.177339 51.452582 0.332065 0.022892
5090.048000 5090.050000 1.430000 1662.789625 52.259610 0.340395 0.022981
5092.233000 5092.230000 1.440000 1666.275193 52.700930 0.345730 0.023366
5094.445000 5094.440000 1.450000 1663.797153 53.147346 0.351290 0.024207
5096.662000 5096.660000 1.460000 1668.683598 53.602316 0.356609 0.024632
5098.902000 5098.900000 1.480000 1671.987741 54.410715 0.364655 0.026103
5101.164000 5101.160000 1.490000 1675.701323 54.857885 0.369764 0.026834
5103.439000 5103.440000 1.500000 1686.004923 55.315480 0.375822 0.028125
5105.741000 5105.740000 1.510000 1687.625774 55.769412 0.381165 0.028566
5108.050000 5108.050000 1.530000 1698.751321 56.585735 0.389138 0.029066
5110.391000 5110.390000 1.540000 1703.370470 57.050891 0.395398 0.029656
