# XDI/1.0 BlueSky/1.5.0
# Beamline.name: 6BM
# Beamline.xray_source: NSLS-II three-pole wiggler
# Beamline.collimation: paraboloid mirror, 5 nm Rh on 30 nm Pt
# Beamline.focusing: not in use
# Beamline.harmonic_rejection: flat mirror, Si stripe, pitch = 7.0 mrad relative to beam
# Detector.i0: 10 cm N2
# Detector.i1: 25 cm N2
# Detector.i2: 25 cm N2
# Element.symbol: Ti
# Element.edge: K
# Facility.name: NSLS-II
# Facility.energy: 3.0
# Facility.current: 220.4
# Facility.mode: top-off
# Facility.gup: 301027
# Facility.saf: 304156
# Mono.name: Si(111)
# Mono.d_spacing: 3.1352584
# Mono.encoder_resolution: 0.0000050 deg/ct
# Mono.angle_offset: 16.0571090 deg
# Mono.scan_mode: pseudo channel cut
# Mono.scan_type: step
# Mono.direction: forward in energy
# Sample.name: Fe2TiO5
# Sample.prep: Powder in polyethylene glycol pellet
# Sample.x_position: -97.532 mm
# Sample.y_position: 117.543 mm
# Sample.wheel_position: -600.000 mm
# Scan.experimenters: Bruce Ravel, Martin Stennett
# Scan.edge_energy: 4966.0
# Scan.start_time: 2019-05-30T03:41:45
# Scan.end_time: 2019-05-30T04:24:42
# Scan.transient_id: 9788
# Scan.uid: d9aa5281-2d45-470e-9237-65acae46ec2d
# Scan.plot_hint: ln(I0/It)  --  ln($5/$6)
# Scan.sequence: merge of 3 scans
# Column.1: energy eV
# Column.2: requested_energy eV
# Column.3: measurement_time seconds
# Column.4: mutrans
# Column.5: i0
# Column.6: itrans
# Column.7: irefer
# /////
#  sample disk prepared by Martin
# -----
# energy   requested_energy   measurement_time   mutrans   i0   itrans   irefer
4765.992000 4766.000000 0.500000 3.535705 10.997460 0.320446 0.025681
4776.006000 4776.000000 0.500000 3.510751 11.254793 0.336230 0.027349
4786.009000 4786.000000 0.500000 3.487568 11.476809 0.350903 0.028711
4796.008000 4796.000000 0.500000 3.462394 11.698638 0.366805 0.030527
4806.007000 4806.000000 0.500000 3.438726 11.925763 0.382883 0.032019
4816.008000 4816.000000 0.500000 3.414578 12.142600 0.399373 0.034049
4826.008000 4826.000000 0.500000 3.391243 12.358683 0.416083 0.035833
4836.000000 4836.000000 0.500000 3.366967 12.586176 0.434148 0.037940
4846.000000 4846.000000 0.500000 3.344032 12.815833 0.452326 0.039751
4855.997000 4856.000000 0.500000 3.320828 13.040783 0.471062 0.041864
4866.008000 4866.000000 0.500000 3.297090 13.262923 0.490607 0.044377
4876.005000 4876.000000 0.500000 3.274079 13.483432 0.510371 0.046801
4886.004000 4886.000000 0.500000 3.251408 13.697289 0.530356 0.049272
4896.001000 4896.000000 0.500000 3.228391 13.904171 0.550897 0.051879
4906.001000 4906.000000 0.500000 3.205903 14.106202 0.571616 0.054362
4916.003000 4916.000000 0.500000 3.183258 14.303932 0.592905 0.057282
4926.001000 4926.000000 0.500000 3.160569 14.504266 0.615006 0.060216
4936.001000 4936.000000 0.500000 3.138244 14.697307 0.637260 0.062930
4938.001000 4938.000000 0.500000 3.134314 14.733287 0.641337 0.063511
4939.998000 4940.000000 0.500000 3.129591 14.772207 0.646074 0.064309
4941.996000 4942.000000 0.500000 3.125057 14.806350 0.650509 0.064947
4943.998000 4944.000000 0.500000 3.120884 14.840685 0.654740 0.065310
4946.006000 4946.000000 0.500000 3.117137 14.874694 0.658708 0.065842
4948.006000 4948.000000 0.500000 3.112337 14.906878 0.663313 0.066747
4950.006000 4950.000000 0.500000 3.107481 14.941859 0.668104 0.067540
4952.004000 4952.000000 0.500000 3.103794 14.973669 0.671998 0.067966
4954.003000 4954.000000 0.500000 3.099520 15.003127 0.676202 0.068284
4956.001000 4956.000000 0.500000 3.095225 15.033919 0.680507 0.068500
4956.246000 4956.250000 0.500000 3.095229 15.037887 0.680687 0.068785
4956.495000 4956.500000 0.500000 3.094455 15.037964 0.681216 0.068910
4956.745000 4956.750000 0.500000 3.093685 15.039425 0.681807 0.068831
4956.995000 4957.000000 0.500000 3.093611 15.043744 0.682054 0.068876
4957.245000 4957.250000 0.500000 3.092740 15.045148 0.682707 0.068850
4957.495000 4957.500000 0.500000 3.092611 15.048646 0.682958 0.069043
4957.745000 4957.750000 0.500000 3.092155 15.054273 0.683525 0.068990
4957.995000 4958.000000 0.500000 3.091636 15.056420 0.683977 0.069176
4958.245000 4958.250000 0.500000 3.091025 15.060785 0.684593 0.069197
4958.494000 4958.500000 0.500000 3.090893 15.064859 0.684869 0.069253
4958.745000 4958.750000 0.500000 3.090448 15.067702 0.685304 0.069180
4958.996000 4959.000000 0.500000 3.089625 15.069543 0.685952 0.068990
4959.248000 4959.250000 0.500000 3.089410 15.072311 0.686229 0.069144
4959.497000 4959.500000 0.500000 3.088850 15.074945 0.686729 0.069272
4959.746000 4959.750000 0.500000 3.088344 15.081986 0.687398 0.069288
4959.998000 4960.000000 0.500000 3.088125 15.086085 0.687736 0.069483
4960.245000 4960.250000 0.500000 3.087666 15.087449 0.688110 0.069260
4960.495000 4960.500000 0.500000 3.087227 15.093429 0.688688 0.069436
4960.746000 4960.750000 0.500000 3.086506 15.097276 0.689359 0.069331
4960.997000 4961.000000 0.500000 3.085960 15.102552 0.689978 0.069600
4961.245000 4961.250000 0.500000 3.085533 15.105913 0.690427 0.069363
4961.497000 4961.500000 0.500000 3.085186 15.109889 0.690848 0.069291
4961.748000 4961.750000 0.500000 3.084849 15.115218 0.691326 0.069393
4961.998000 4962.000000 0.500000 3.084240 15.118425 0.691893 0.069495
4962.248000 4962.250000 0.500000 3.084025 15.122938 0.692249 0.068984
4962.495000 4962.500000 0.500000 3.083476 15.126435 0.692788 0.068860
4962.745000 4962.750000 0.500000 3.083516 15.131841 0.693007 0.068825
4962.996000 4963.000000 0.500000 3.082870 15.138985 0.693784 0.068642
4963.247000 4963.250000 0.500000 3.082952 15.141172 0.693825 0.068109
4963.499000 4963.500000 0.500000 3.082793 15.145832 0.694150 0.067710
4963.749000 4963.750000 0.500000 3.082294 15.149067 0.694645 0.067028
4963.998000 4964.000000 0.500000 3.082234 15.156900 0.695047 0.065648
4964.249000 4964.250000 0.500000 3.082037 15.159186 0.695288 0.063389
4964.496000 4964.500000 0.500000 3.081991 15.162094 0.695454 0.060235
4964.747000 4964.750000 0.500000 3.081677 15.162737 0.695699 0.055567
4964.998000 4965.000000 0.500000 3.081729 15.197924 0.697282 0.051549
4965.247000 4965.250000 0.500000 3.081713 15.211179 0.697897 0.048656
4965.499000 4965.500000 0.500000 3.082639 15.215187 0.697436 0.047498
4965.749000 4965.750000 0.500000 3.083795 15.216134 0.696673 0.047566
4966.000000 4966.000000 0.500000 3.085604 15.217804 0.695492 0.049165
4966.250000 4966.250000 0.500000 3.088915 15.223036 0.693420 0.050850
4966.496000 4966.500000 0.500000 3.093844 15.223542 0.690062 0.052259
4966.749000 4966.750000 0.500000 3.102857 15.228804 0.684078 0.053153
4966.999000 4967.000000 0.500000 3.114224 15.231473 0.676437 0.052876
4967.251000 4967.250000 0.500000 3.125508 15.230955 0.668851 0.052490
4967.503000 4967.500000 0.500000 3.131738 15.236626 0.664951 0.051806
4967.750000 4967.750000 0.500000 3.132500 15.241421 0.664660 0.051248
4968.001000 4968.000000 0.500000 3.129934 15.243154 0.666439 0.050616
4968.248000 4968.250000 0.500000 3.131551 15.251298 0.665703 0.049590
4968.499000 4968.500000 0.500000 3.140544 15.251678 0.659772 0.048193
4968.747000 4968.750000 0.500000 3.155040 15.252453 0.650327 0.046936
4969.000000 4969.000000 0.500000 3.170838 15.255438 0.640239 0.045739
4969.251000 4969.250000 0.500000 3.179809 15.254716 0.634507 0.044669
4969.500000 4969.500000 0.500000 3.180406 15.256690 0.634204 0.044137
4969.751000 4969.750000 0.500000 3.173789 15.256366 0.638387 0.044238
4969.999000 4970.000000 0.500000 3.164200 15.261091 0.644743 0.044281
4970.250000 4970.250000 0.500000 3.155130 15.269428 0.650965 0.044345
4970.497000 4970.500000 0.500000 3.147014 15.280830 0.656767 0.044614
4970.750000 4970.750000 0.500000 3.139073 15.291724 0.662478 0.044797
4971.002000 4971.000000 0.500000 3.130711 15.298902 0.668390 0.044972
4971.252000 4971.250000 0.500000 3.123805 15.305821 0.673294 0.044739
4971.503000 4971.500000 0.500000 3.118023 15.314247 0.677588 0.044829
4971.752000 4971.750000 0.500000 3.114109 15.318523 0.680421 0.044187
4972.000000 4972.000000 0.500000 3.111849 15.322556 0.682141 0.043279
4972.250000 4972.250000 0.500000 3.111133 15.324664 0.682718 0.042347
4972.497000 4972.500000 0.500000 3.110760 15.331428 0.683275 0.041765
4972.751000 4972.750000 0.500000 3.110644 15.332127 0.683391 0.040808
4973.002000 4973.000000 0.500000 3.110704 15.334415 0.683452 0.039960
4973.252000 4973.250000 0.500000 3.110251 15.335722 0.683818 0.039044
4973.500000 4973.500000 0.500000 3.110102 15.340320 0.684124 0.038234
4973.752000 4973.750000 0.500000 3.111126 15.346028 0.683677 0.037473
4973.999000 4974.000000 0.500000 3.112326 15.381356 0.684433 0.036959
4974.251000 4974.250000 0.500000 3.114991 15.384629 0.682748 0.036034
4974.499000 4974.500000 0.500000 3.118476 15.384934 0.680393 0.035402
4974.752000 4974.750000 0.500000 3.123119 15.386463 0.677298 0.034466
4975.003000 4975.000000 0.500000 3.128199 15.388634 0.673956 0.033883
4975.254000 4975.250000 0.500000 3.133449 15.387890 0.670388 0.032950
4975.499000 4975.500000 0.500000 3.139834 15.385873 0.666089 0.032130
4975.750000 4975.750000 0.500000 3.146830 15.386805 0.661469 0.031402
4975.999000 4976.000000 0.500000 3.155422 15.418741 0.657153 0.030526
4976.251000 4976.250000 0.500000 3.163803 15.419239 0.651691 0.029559
4976.500000 4976.500000 0.500000 3.172677 15.418487 0.645917 0.029012
4976.752000 4976.750000 0.500000 3.183244 15.417031 0.639052 0.028493
4977.003000 4977.000000 0.500000 3.193028 15.420415 0.632955 0.028131
4977.252000 4977.250000 0.500000 3.202154 15.420233 0.627206 0.027254
4977.500000 4977.500000 0.500000 3.210246 15.422153 0.622240 0.026910
4977.749000 4977.750000 0.500000 3.218036 15.423277 0.617480 0.026214
4978.001000 4978.000000 0.500000 3.224771 15.430967 0.613618 0.025904
4978.251000 4978.250000 0.500000 3.231402 15.435818 0.609736 0.025819
4978.503000 4978.500000 0.500000 3.237889 15.439292 0.605915 0.025281
4978.752000 4978.750000 0.500000 3.244811 15.435545 0.601618 0.025077
4979.002000 4979.000000 0.500000 3.252526 15.438959 0.597130 0.024472
4979.250000 4979.250000 0.500000 3.260163 15.437576 0.592534 0.024811
4979.501000 4979.500000 0.500000 3.269443 15.436059 0.586990 0.024000
4979.750000 4979.750000 0.500000 3.279733 15.434367 0.580945 0.023888
4980.002000 4980.000000 0.500000 3.291036 15.430425 0.574225 0.023514
4980.251000 4980.250000 0.500000 3.303891 15.429498 0.566879 0.023075
4980.504000 4980.500000 0.500000 3.317539 15.425210 0.559016 0.022821
4980.750000 4980.750000 0.500000 3.332430 15.421781 0.550721 0.022270
4981.002000 4981.000000 0.500000 3.348358 15.421536 0.541956 0.022055
4981.249000 4981.250000 0.500000 3.363809 15.422418 0.533689 0.021518
4981.501000 4981.500000 0.500000 3.379991 15.423979 0.525118 0.021403
4981.750000 4981.750000 0.500000 3.396501 15.429254 0.516753 0.020694
4982.003000 4982.000000 0.500000 3.412824 15.430630 0.508367 0.020374
4982.252000 4982.250000 0.500000 3.428615 15.432028 0.500452 0.020005
4982.503000 4982.500000 0.500000 3.443253 15.433405 0.493212 0.019702
4982.751000 4982.750000 0.500000 3.457505 15.435072 0.486372 0.019644
4982.999000 4983.000000 0.500000 3.471506 15.436583 0.479654 0.019255
4983.251000 4983.250000 0.500000 3.484414 15.436623 0.473452 0.018996
4983.500000 4983.500000 0.500000 3.496117 15.435946 0.467947 0.018848
4983.753000 4983.750000 0.500000 3.507349 15.432346 0.462599 0.018500
4984.001000 4984.000000 0.500000 3.518172 15.428532 0.457542 0.018346
4984.252000 4984.250000 0.500000 3.527613 15.427595 0.453192 0.018061
4984.502000 4984.500000 0.500000 3.535688 15.428599 0.449584 0.018202
4984.751000 4984.750000 0.500000 3.542927 15.431324 0.446417 0.018028
4985.000000 4985.000000 0.500000 3.548673 15.433549 0.443912 0.018235
4985.249000 4985.250000 0.500000 3.552942 15.435545 0.442078 0.018362
4985.503000 4985.500000 0.500000 3.555959 15.434770 0.440721 0.018331
4985.752000 4985.750000 0.500000 3.558125 15.435907 0.439806 0.018386
4986.001000 4986.000000 0.500000 3.557766 15.435025 0.439936 0.018290
4986.253000 4986.250000 0.500000 3.556317 15.433950 0.440549 0.018544
4986.501000 4986.500000 0.500000 3.553867 15.433644 0.441609 0.018762
4986.751000 4986.750000 0.500000 3.549860 15.432752 0.443357 0.018694
4987.000000 4987.000000 0.500000 3.545067 15.432265 0.445473 0.019064
4987.252000 4987.250000 0.500000 3.539370 15.427122 0.447874 0.018882
4987.502000 4987.500000 0.500000 3.534453 15.426996 0.450076 0.019227
4987.754000 4987.750000 0.500000 3.527796 15.427239 0.453099 0.019298
4988.001000 4988.000000 0.500000 3.522162 15.430620 0.455742 0.019520
4988.253000 4988.250000 0.500000 3.517117 15.437555 0.458257 0.019537
4988.502000 4988.500000 0.500000 3.511466 15.444990 0.461083 0.019678
4988.749000 4988.750000 0.500000 3.507402 15.451250 0.463132 0.019833
4989.002000 4989.000000 0.500000 3.503616 15.462652 0.465261 0.019754
4989.252000 4989.250000 0.500000 3.500345 15.473073 0.467086 0.019738
4989.505000 4989.500000 0.500000 3.498191 15.486522 0.468505 0.019834
4989.752000 4989.750000 0.500000 3.496746 15.500927 0.469612 0.019923
4990.002000 4990.000000 0.500000 3.494876 15.513592 0.470877 0.020041
4990.251000 4990.250000 0.500000 3.493977 15.524355 0.471624 0.020052
4990.502000 4990.500000 0.500000 3.493631 15.537293 0.472183 0.020246
4990.747000 4990.750000 0.500000 3.492898 15.549436 0.472898 0.020159
4991.001000 4991.000000 0.500000 3.491975 15.559098 0.473629 0.020495
4991.253000 4991.250000 0.500000 3.491592 15.569858 0.474140 0.020265
4991.506000 4991.500000 0.500000 3.490766 15.577932 0.474776 0.020562
4991.752000 4991.750000 0.500000 3.490835 15.588784 0.475075 0.020421
4992.002000 4992.000000 0.500000 3.490199 15.595080 0.475568 0.020165
4992.252000 4992.250000 0.500000 3.489918 15.602185 0.475920 0.020408
4992.500000 4992.500000 0.500000 3.489169 15.609340 0.476493 0.020401
4992.749000 4992.750000 0.500000 3.488901 15.616754 0.476846 0.020646
4993.003000 4993.000000 0.500000 3.488719 15.620076 0.477037 0.020445
4993.254000 4993.250000 0.500000 3.488297 15.624114 0.477361 0.020733
4993.504000 4993.500000 0.500000 3.488128 15.628366 0.477577 0.020362
4993.752000 4993.750000 0.500000 3.487721 15.634417 0.477950 0.020779
4994.000000 4994.000000 0.500000 3.487721 15.638314 0.478070 0.020704
4994.252000 4994.250000 0.500000 3.488687 15.641502 0.477708 0.020273
4994.500000 4994.500000 0.500000 3.489026 15.644780 0.477643 0.020853
4994.754000 4994.750000 0.500000 3.490494 15.669060 0.477684 0.020277
4995.003000 4995.000000 0.500000 3.490923 15.671537 0.477555 0.020453
4995.254000 4995.250000 0.500000 3.492431 15.674111 0.476910 0.020032
4995.504000 4995.500000 0.500000 3.493980 15.677517 0.476281 0.020063
4995.753000 4995.750000 0.500000 3.495770 15.699032 0.476079 0.019843
4996.001000 4996.000000 0.700000 3.496773 21.916558 0.663966 0.027782
4997.086000 4997.080000 0.710000 3.502517 22.279155 0.671096 0.027645
4998.187000 4998.180000 0.730000 3.505626 22.908482 0.687899 0.027270
4999.298000 4999.290000 0.740000 3.502927 23.234642 0.699580 0.027480
5000.438000 5000.430000 0.750000 3.496426 23.584266 0.714739 0.027861
5001.588000 5001.580000 0.760000 3.488798 23.939948 0.731074 0.028654
5002.768000 5002.760000 0.780000 3.479802 24.620523 0.758643 0.029635
5003.958000 5003.950000 0.790000 3.466483 24.993905 0.780491 0.030813
5005.167000 5005.160000 0.800000 3.451288 25.367656 0.804272 0.032310
5006.399000 5006.390000 0.810000 3.436655 25.752509 0.828521 0.033814
5007.648000 5007.640000 0.830000 3.424873 26.450198 0.861051 0.036045
5008.915000 5008.910000 0.840000 3.413953 26.822707 0.882746 0.037832
5010.208000 5010.200000 0.850000 3.400297 27.199349 0.907470 0.039455
5011.517000 5011.510000 0.860000 3.388101 27.573896 0.931243 0.040801
5012.834000 5012.830000 0.880000 3.379062 28.265143 0.963253 0.042355
5014.185000 5014.180000 0.890000 3.372163 28.637861 0.982710 0.043628
5015.548000 5015.540000 0.900000 3.367281 29.006031 1.000219 0.044864
5016.938000 5016.930000 0.910000 3.364772 29.384590 1.015824 0.046145
5018.334000 5018.330000 0.930000 3.362302 30.115115 1.043645 0.048008
5019.758000 5019.750000 0.940000 3.357247 30.540983 1.063782 0.048897
5021.198000 5021.190000 0.950000 3.351084 30.930978 1.084022 0.050130
5022.657000 5022.650000 0.960000 3.345883 31.320955 1.103407 0.051201
5024.136000 5024.130000 0.980000 3.341995 32.107026 1.135511 0.052789
5025.638000 5025.630000 0.990000 3.339678 32.499465 1.152054 0.053422
5027.145000 5027.140000 1.000000 3.338582 32.888324 1.167118 0.053942
5028.683000 5028.680000 1.010000 3.337493 33.284259 1.182453 0.054168
5030.243000 5030.240000 1.030000 3.336552 34.010215 1.209380 0.054786
5031.812000 5031.810000 1.040000 3.335343 34.408124 1.225008 0.054274
5033.407000 5033.400000 1.050000 3.334913 34.812836 1.239952 0.054016
5035.010000 5035.010000 1.060000 3.335000 35.212255 1.254073 0.053749
5036.650000 5036.650000 1.080000 3.334205 35.950245 1.281373 0.054153
5038.295000 5038.300000 1.090000 3.332303 36.350651 1.298101 0.054127
5039.964000 5039.970000 1.100000 3.328413 36.760759 1.317848 0.054893
5041.647000 5041.650000 1.110000 3.323387 37.171773 1.339327 0.056369
5043.356000 5043.360000 1.130000 3.318027 37.919807 1.373621 0.058114
5045.089000 5045.090000 1.140000 3.313006 38.338885 1.395796 0.059832
5046.827000 5046.830000 1.150000 3.309460 38.752533 1.415861 0.061822
5048.599000 5048.600000 1.160000 3.307871 39.170862 1.433419 0.063721
5050.375000 5050.380000 1.180000 3.308265 39.936411 1.460857 0.066592
5052.175000 5052.180000 1.190000 3.309545 40.361201 1.474509 0.068671
5053.998000 5054.000000 1.200000 3.310607 40.795039 1.488776 0.070737
5055.834000 5055.840000 1.210000 3.310773 41.221006 1.504071 0.072281
5057.696000 5057.700000 1.230000 3.310451 42.002648 1.533084 0.073753
5059.574000 5059.580000 1.240000 3.308713 42.441510 1.551795 0.074752
5061.477000 5061.480000 1.250000 3.306871 42.883910 1.570864 0.075893
5063.397000 5063.400000 1.260000 3.303330 43.326382 1.592700 0.077304
5065.331000 5065.330000 1.280000 3.298956 44.128833 1.629319 0.079932
5067.290000 5067.290000 1.290000 3.294190 44.583934 1.653983 0.081902
5069.260000 5069.260000 1.300000 3.289810 45.040476 1.678257 0.083374
5071.258000 5071.260000 1.310000 3.285464 45.496595 1.702630 0.084980
5073.270000 5073.270000 1.330000 3.279615 46.304506 1.743042 0.087279
5075.299000 5075.300000 1.340000 3.272273 46.765195 1.773339 0.088114
5077.348000 5077.350000 1.350000 3.264309 47.231775 1.805359 0.089046
5079.418000 5079.420000 1.360000 3.256136 47.704371 1.838385 0.089773
5081.509000 5081.510000 1.380000 3.248485 48.524247 1.884336 0.090070
5083.606000 5083.610000 1.390000 3.240755 49.000571 1.917586 0.090516
5085.739000 5085.740000 1.400000 3.233348 49.476101 1.950605 0.090619
5087.889000 5087.890000 1.410000 3.226133 49.960568 1.983963 0.090608
5090.049000 5090.050000 1.430000 3.218676 50.799709 2.032395 0.092121
5092.231000 5092.230000 1.440000 3.210892 51.295948 2.068301 0.093863
5094.443000 5094.440000 1.450000 3.203977 51.813090 2.103650 0.097328
5096.663000 5096.660000 1.460000 3.197976 52.310706 2.136628 0.101313
5098.902000 5098.900000 1.480000 3.193727 53.171891 2.181042 0.106579
5101.166000 5101.160000 1.490000 3.191927 53.676527 2.205715 0.110857
5103.441000 5103.440000 1.500000 3.190491 54.190145 2.230015 0.114570
5105.744000 5105.740000 1.510000 3.188708 54.701128 2.255062 0.117615
5108.050000 5108.050000 1.530000 3.186959 55.587941 2.295633 0.119496
5110.389000 5110.390000 1.540000 3.184114 56.226859 2.328626 0.121859
5112.740000 5112.740000 1.550000 3.180337 56.746829 2.359051 0.123681
5115.122000 5115.120000 1.560000 3.175740 57.264254 2.391540 0.125921
5117.513000 5117.510000 1.580000 3.169935 58.159215 2.443056 0.128916
5119.922000 5119.920000 1.590000 3.163694 58.691246 2.480849 0.131070
5122.352000 5122.350000 1.600000 3.157466 59.222338 2.518937 0.133618
5124.800000 5124.800000 1.610000 3.151544 59.758716 2.556832 0.136625
5127.269000 5127.270000 1.630000 3.146224 60.671665 2.609731 0.139914
5129.762000 5129.760000 1.640000 3.140836 61.226839 2.647856 0.142518
