# XDI/1.0 BlueSky/1.10.0 BMM/2023-1.0-py310-tiled
# Beamline.name: BMM (06BM) -- Beamline for Materials Measurement (NIST)
# Beamline.xray_source: NSLS-II three-pole wiggler
# Beamline.collimation: paraboloid mirror, 5 nm Rh on 30 nm Pt
# Beamline.focusing: not in use
# Beamline.harmonic_rejection: flat mirror, Si stripe, pitch = 7.0 mrad relative to beam
# Beamline.software: Bluesky 1.10.0, Ophyd 1.7.0, DataBroker 2.0.0b13, Python 3.10.8, 2023-1.0-py310-tiled
# Detector.I0: 10 cm N2
# Detector.I1: 25 cm N2
# Detector.I2: 25 cm N2
# Element.symbol: Ti
# Element.edge: K
# Element.reference: Ti
# Element.reference_material: Ti foil
# Facility.name: NSLS-II
# Facility.energy: 3.0
# Facility.current: 400.3
# Facility.mode: top-off
# Facility.GUP: 301027
# Facility.SAF: 310583
# Facility.cycle: 2023-2
# Mono.name: Si(111)
# Mono.d_spacing: 3.1351860
# Mono.encoder_resolution: 0.0000050 deg/ct
# Mono.angle_offset: 16.0754326 deg
# Mono.scan_mode: pseudo channel cut
# Mono.scan_type: step
# Mono.direction: forward in energy
# Sample.name: Ti foil
# Sample.prep: reference foil
# Sample.x: 109.138 mm
# Sample.y: 153.150 mm
# Sample.SDD_position: 205.000 mm
# Scan.experimenters: Bruce Ravel
# Scan.edge_energy: 4966.4
# Scan.start_time: 2023-05-28T10:45:17
# Scan.end_time: 2023-05-28T10:53:20
# Scan.transient_id: 78609
# Scan.uid: 326d4dd8-c810-4d41-931a-3abae9d4b2f6
# Scan.plot_hint: ln(It/Ir)  --  ln($6/$7)
# Column.1: energy eV
# Column.2: requested_energy eV
# Column.3: measurement_time seconds
# Column.4: xmu 
# Column.5: I0 nA
# Column.6: It nA
# Column.7: Ir nA
# ///////////
# standard reference foil
# -----------
# energy  requested_energy  measurement_time  xmu  I0  It  Ir
  4766.411  4766.400  0.500  3.399720  66.229399  13.167387  0.439562
  4776.408  4776.400  0.500  3.378617  67.202751  13.544539  0.461795
  4786.411  4786.400  0.500  3.357625  68.195402  13.944196  0.485507
  4796.408  4796.400  0.500  3.336215  69.157991  14.335963  0.509950
  4806.408  4806.400  0.500  3.315662  70.138497  14.732927  0.534953
  4816.408  4816.400  0.500  3.295430  71.090099  15.140491  0.560987
  4826.407  4826.400  0.500  3.274559  72.005513  15.556293  0.588550
  4836.403  4836.400  0.500  3.254228  72.928194  15.956483  0.616090
  4846.404  4846.400  0.500  3.234159  73.869191  16.393181  0.645782
  4856.406  4856.400  0.500  3.213834  74.748337  16.818173  0.676127
  4866.405  4866.400  0.500  3.194062  75.667103  17.255666  0.707568
  4876.404  4876.400  0.500  3.174364  76.563212  17.691139  0.739856
  4886.406  4886.400  0.500  3.155519  77.416614  18.121090  0.772254
  4896.404  4896.400  0.500  3.136185  78.281060  18.561592  0.806468
  4906.403  4906.400  0.500  3.117011  79.155622  19.011396  0.842002
  4916.404  4916.400  0.500  3.098169  80.032415  19.456555  0.878108
  4926.403  4926.400  0.500  3.079965  80.903763  19.903371  0.914777
  4936.404  4936.400  0.500  3.062799  81.736620  20.370358  0.952449
  4938.401  4938.400  0.500  3.059302  81.929292  20.473895  0.960644
  4940.409  4940.400  0.500  3.055936  82.100396  20.573985  0.968595
  4942.403  4942.400  0.500  3.052522  82.250269  20.650415  0.975518
  4944.403  4944.400  0.500  3.049505  82.409639  20.743637  0.982882
  4946.403  4946.400  0.500  3.046590  82.576641  20.835599  0.990122
  4948.403  4948.400  0.500  3.043355  82.766443  20.934261  0.998034
  4950.401  4950.400  0.500  3.041015  82.927671  21.029472  1.004922
  4952.405  4952.400  0.500  3.038667  83.069841  21.115728  1.011415
  4954.403  4954.400  0.500  3.036730  83.275256  21.228626  1.018795
  4956.402  4956.400  0.500  3.036172  83.436200  21.326641  1.024070
  4956.694  4956.700  0.500  3.036260  83.452219  21.333884  1.024328
  4956.993  4957.000  0.500  3.036217  83.483156  21.357729  1.025516
  4957.293  4957.300  0.500  3.036072  83.495358  21.364560  1.025993
  4957.591  4957.600  0.500  3.036577  83.525183  21.382131  1.026319
  4957.892  4957.900  0.500  3.036375  83.519523  21.376370  1.026250
  4958.193  4958.200  0.500  3.037041  83.570113  21.405638  1.026971
  4958.491  4958.500  0.500  3.037020  83.566708  21.424449  1.027895
  4958.792  4958.800  0.500  3.037541  83.594694  21.436145  1.027920
  4959.092  4959.100  0.500  3.037611  83.634613  21.451797  1.028599
  4959.393  4959.400  0.500  3.037890  83.657407  21.462238  1.028812
  4959.693  4959.700  0.500  3.039056  83.680708  21.474860  1.028217
  4959.995  4960.000  0.500  3.039502  83.688259  21.470370  1.027544
  4960.294  4960.300  0.500  3.040653  83.707119  21.484772  1.027051
  4960.593  4960.600  0.500  3.041917  83.723197  21.505157  1.026726
  4960.893  4960.900  0.500  3.043581  83.737209  21.511992  1.025346
  4961.194  4961.200  0.500  3.045295  83.758703  21.532533  1.024567
  4961.496  4961.500  0.500  3.047344  83.782944  21.558449  1.023700
  4961.796  4961.800  0.500  3.049556  83.820955  21.569873  1.021980
  4962.097  4962.100  0.500  3.052457  83.825208  21.573504  1.019191
  4962.396  4962.400  0.500  3.056556  83.861646  21.603372  1.016427
  4962.696  4962.700  0.500  3.061892  83.883337  21.617951  1.011700
  4962.994  4963.000  0.500  3.067985  83.885362  21.627409  1.005994
  4963.295  4963.300  0.500  3.076744  83.918174  21.638621  0.997738
  4963.596  4963.600  0.500  3.089359  83.925197  21.643185  0.985439
  4963.899  4963.900  0.500  3.107103  83.958212  21.659408  0.968833
  4964.199  4964.200  0.500  3.136972  83.958781  21.668628  0.940723
  4964.497  4964.500  0.500  3.189778  83.996829  21.686863  0.893087
  4964.796  4964.800  0.500  3.283319  84.014575  21.697704  0.813742
  4965.097  4965.100  0.500  3.437788  84.037242  21.712397  0.697743
  4965.397  4965.400  0.500  3.633147  84.053868  21.729785  0.574380
  4965.699  4965.700  0.500  3.778479  84.077260  21.744976  0.497034
  4965.999  4966.000  0.500  3.819850  84.105402  21.761895  0.477262
  4966.300  4966.300  0.500  3.775473  84.114084  21.768443  0.499068
  4966.597  4966.600  0.500  3.692276  84.150900  21.782439  0.542714
  4966.899  4966.900  0.500  3.614473  84.157947  21.797368  0.587027
  4967.199  4967.200  0.500  3.564488  84.149778  21.799211  0.617168
  4967.498  4967.500  0.500  3.545048  84.193946  21.810324  0.629604
  4967.798  4967.800  0.500  3.549598  84.213363  21.822795  0.627104
  4968.101  4968.100  0.500  3.570507  84.235297  21.842291  0.614677
  4968.400  4968.400  0.500  3.604523  84.250746  21.841194  0.594090
  4968.700  4968.700  0.500  3.645663  84.305015  21.860237  0.570642
  4969.000  4969.000  0.500  3.686545  84.305071  21.879304  0.548261
  4969.300  4969.300  0.500  3.724181  84.323518  21.888434  0.528230
  4969.600  4969.600  0.500  3.755989  84.348188  21.908305  0.512157
  4969.901  4969.900  0.500  3.780474  84.372053  21.931866  0.500307
  4970.198  4970.200  0.500  3.798310  84.399221  21.939000  0.491623
  4970.501  4970.500  0.500  3.810887  84.417356  21.952216  0.485770
  4970.802  4970.800  0.500  3.819128  84.426862  21.959814  0.481950
  4971.101  4971.100  0.500  3.828597  84.477901  21.970121  0.477633
  4971.400  4971.400  0.500  3.844011  84.487609  21.978497  0.470506
  4971.698  4971.700  0.500  3.868172  84.509790  21.998374  0.459690
  4971.996  4972.000  0.500  3.899598  84.538455  22.017658  0.445859
  4972.299  4972.300  0.500  3.941654  84.539438  22.025116  0.427641
  4972.602  4972.600  0.500  3.990081  84.575414  22.040975  0.407719
  4972.904  4972.900  0.500  4.039991  84.578723  22.043921  0.387921
  4973.200  4973.200  0.500  4.091543  84.608480  22.068568  0.368841
  4973.501  4973.500  0.500  4.142323  84.632181  22.086984  0.350872
  4973.801  4973.800  0.500  4.191273  84.652006  22.096848  0.334259
  4974.105  4974.100  0.500  4.238777  84.680424  22.120352  0.319091
  4974.404  4974.400  0.500  4.286318  84.697721  22.146985  0.304642
  4974.702  4974.700  0.500  4.331260  84.720998  22.161184  0.291441
  4975.005  4975.000  0.500  4.375068  84.726941  22.166117  0.279011
  4975.304  4975.300  0.500  4.422254  84.996364  22.227504  0.266889
  4975.602  4975.600  0.500  4.467875  85.048995  22.255685  0.255310
  4975.904  4975.900  0.500  4.512539  85.077989  22.282357  0.244450
  4976.203  4976.200  0.500  4.558048  85.085802  22.279906  0.233549
  4976.503  4976.500  0.500  4.602857  85.083864  22.283147  0.223348
  4976.806  4976.800  0.500  4.643291  85.087014  22.271755  0.214387
  4977.104  4977.100  0.500  4.680528  85.119150  22.289992  0.206720
  4977.400  4977.400  0.500  4.714437  85.139643  22.303225  0.199946
  4977.704  4977.700  0.500  4.744217  85.153524  22.321378  0.194238
  4978.000  4978.000  0.500  4.768939  85.188305  22.344244  0.189689
  4978.303  4978.300  0.500  4.792917  85.206684  22.356487  0.185296
  4978.603  4978.600  0.500  4.813258  85.234144  22.380670  0.181762
  4978.902  4978.900  0.500  4.830778  85.249352  22.401221  0.178769
  4979.202  4979.200  0.500  4.845697  85.256960  22.416654  0.176243
  4979.500  4979.500  0.500  4.858190  85.273148  22.426667  0.174132
  4979.800  4979.800  0.500  4.868457  85.293737  22.438534  0.172445
  4980.099  4980.100  0.500  4.877673  85.299989  22.456295  0.170998
  4980.400  4980.400  0.500  4.886043  85.333385  22.473399  0.169702
  4980.703  4980.700  0.500  4.894485  85.344356  22.490575  0.168404
  4981.005  4981.000  0.500  4.899572  85.366949  22.492503  0.167564
  4981.301  4981.300  0.500  4.907355  85.368038  22.501076  0.166328
  4981.600  4981.600  0.500  4.914583  85.412500  22.517443  0.165250
  4981.898  4981.900  0.500  4.923336  85.421063  22.535022  0.163938
  4982.199  4982.200  0.500  4.932389  85.436873  22.522908  0.162374
  4982.503  4982.500  0.500  4.940775  85.450414  22.546882  0.161189
  4982.804  4982.800  0.500  4.949401  85.460749  22.542631  0.159774
  4983.101  4983.100  0.500  4.957202  85.500271  22.555808  0.158625
  4983.400  4983.400  0.500  4.963815  85.524889  22.588365  0.157807
  4983.700  4983.700  0.500  4.966317  85.539006  22.608886  0.157556
  4984.000  4984.000  0.500  4.967275  85.542769  22.613424  0.157437
  4984.301  4984.300  0.500  4.964249  85.547992  22.639169  0.158094
  4984.604  4984.600  0.500  4.959693  85.588025  22.634809  0.158785
  4984.902  4984.900  0.500  4.951277  85.618846  22.654511  0.160266
  4985.199  4985.200  0.500  4.940954  85.650735  22.683318  0.162135
  4985.499  4985.500  0.500  4.929872  85.658734  22.685631  0.163959
  4985.804  4985.800  0.500  4.917081  85.676281  22.702386  0.166192
  4986.101  4986.100  0.500  4.903155  85.699485  22.723150  0.168677
  4986.403  4986.400  0.500  4.892504  85.718169  22.725587  0.170501
  4986.703  4986.700  0.500  4.881056  85.728077  22.723990  0.172452
  4987.003  4987.000  0.500  4.871324  85.749843  22.732269  0.174202
  4987.299  4987.300  0.500  4.863763  85.770730  22.751117  0.175670
  4987.599  4987.600  0.500  4.859260  85.793048  22.761185  0.176541
  4987.901  4987.900  0.500  4.854445  85.810341  22.788334  0.177605
  4988.201  4988.200  0.500  4.852607  85.842566  22.813870  0.178131
  4988.502  4988.500  0.500  4.849829  85.871896  22.817242  0.178653
  4988.804  4988.800  0.500  4.848264  85.870451  22.837244  0.179089
  4989.101  4989.100  0.500  4.848004  85.898832  22.861909  0.179329
  4989.401  4989.400  0.500  4.845752  85.903287  22.852421  0.179659
  4989.701  4989.700  0.500  4.844845  85.941911  22.872855  0.179983
  4990.002  4990.000  0.500  4.844165  85.943155  22.863486  0.180031
  4990.304  4990.300  0.500  4.842633  85.963100  22.886014  0.180485
  4990.604  4990.600  0.500  4.839808  86.007264  22.911349  0.181196
  4990.903  4990.900  0.500  4.837516  86.044946  22.936207  0.181809
  4991.199  4991.200  0.500  4.835055  86.057852  22.943141  0.182312
  4991.400  4991.400  0.500  4.833274  86.057631  22.955267  0.182733
  4992.399  4992.390  0.500  4.821165  86.127279  22.995506  0.185284
  4993.398  4993.390  0.500  4.815592  86.199774  23.048529  0.186749
  4994.428  4994.410  0.500  4.822463  86.266329  23.103287  0.185911
  4995.454  4995.460  0.500  4.848438  86.307779  23.144502  0.181467
  4996.516  4996.520  0.500  4.893327  86.419577  23.181273  0.173777
  4997.599  4997.600  0.500  4.947996  86.494067  23.213871  0.164763
  4998.700  4998.700  0.500  4.995637  86.573147  23.280609  0.157549
  4999.823  4999.820  0.500  5.022287  86.632288  23.325881  0.153704
  5000.968  5000.960  0.500  5.025826  86.742161  23.378677  0.153508
  5002.115  5002.110  0.500  5.016744  86.804396  23.429828  0.155248
  5003.298  5003.290  0.500  5.008360  86.913139  23.512299  0.157106
  5004.489  5004.480  0.500  4.996960  87.001315  23.570854  0.159303
  5005.707  5005.700  0.500  4.971348  87.079442  23.634333  0.163876
  5006.935  5006.930  0.500  4.926182  87.178634  23.696071  0.171895
  5008.187  5008.180  0.500  4.872309  87.280110  23.749707  0.181820
  5009.454  5009.450  0.500  4.824265  87.353777  23.811034  0.191261
  5010.748  5010.740  0.500  4.791334  87.450473  23.866322  0.198123
  5012.058  5012.050  0.500  4.772417  87.552873  23.935350  0.202491
  5013.388  5013.380  0.500  4.757487  87.640192  23.999807  0.206090
  5014.735  5014.730  0.500  4.740749  87.720771  24.058227  0.210079
  5016.106  5016.100  0.500  4.724300  87.813079  24.117805  0.214092
  5017.489  5017.480  0.500  4.705782  87.904558  24.193167  0.218775
  5018.897  5018.890  0.500  4.688926  88.013996  24.253984  0.223053
  5020.315  5020.310  0.500  4.673122  88.094838  24.321468  0.227237
  5021.755  5021.750  0.500  4.660875  88.176517  24.376325  0.230556
  5023.216  5023.210  0.500  4.653530  88.288823  24.457529  0.233029
  5024.697  5024.690  0.500  4.653702  88.364121  24.519051  0.233575
  5026.198  5026.190  0.500  4.660162  88.480330  24.573919  0.232590
  5027.718  5027.710  0.500  4.669839  88.585796  24.635468  0.230928
  5029.258  5029.250  0.500  4.684207  88.712969  24.728589  0.228494
  5030.815  5030.810  0.500  4.710890  88.808745  24.806838  0.223181
  5032.386  5032.380  0.500  4.749318  88.914218  24.893077  0.215514
  5033.988  5033.980  0.500  4.792961  89.000507  24.977070  0.207007
  5035.606  5035.590  0.500  4.833434  89.128084  25.048987  0.199368
  5037.239  5037.230  0.500  4.865634  89.217033  25.112958  0.193544
  5038.897  5038.880  0.500  4.883809  89.314328  25.190253  0.190643
  5040.565  5040.550  0.500  4.884950  89.440429  25.288072  0.191165
  5042.254  5042.240  0.500  4.874489  89.558565  25.369576  0.193798
  5043.960  5043.950  0.500  4.853818  89.668767  25.415350  0.198203
  5045.688  5045.680  0.500  4.825487  89.787274  25.508157  0.204643
  5047.439  5047.430  0.500  4.787909  89.905487  25.603539  0.213274
  5049.204  5049.190  0.500  4.745322  90.055916  25.704504  0.223430
  5050.997  5050.980  0.500  4.700134  90.130490  25.762133  0.234282
  5052.788  5052.780  0.500  4.656769  90.265330  25.841236  0.245417
  5054.620  5054.610  0.500  4.621778  90.385566  25.933500  0.255064
  5056.466  5056.450  0.500  4.601072  90.512755  26.012539  0.261194
  5058.321  5058.310  0.500  4.592792  90.647734  26.103086  0.264282
  5060.202  5060.190  0.500  4.591575  90.731847  26.187053  0.265455
  5062.085  5062.090  0.500  4.586885  90.892109  26.298925  0.267842
  5064.017  5064.010  0.500  4.574447  91.018479  26.405763  0.272296
  5065.943  5065.950  0.500  4.559179  91.141042  26.519470  0.277676
  5067.918  5067.910  0.500  4.544137  91.276244  26.610606  0.282853
  5069.883  5069.880  0.500  4.532310  91.373096  26.693758  0.287113
  5071.900  5071.880  0.500  4.524568  91.527356  26.786946  0.290354
  5073.902  5073.890  0.500  4.524924  91.675041  26.903968  0.291519
  5075.930  5075.920  0.500  4.535736  91.784693  26.999438  0.289407
  5077.990  5077.980  0.500  4.553709  91.926811  27.096035  0.285269
  5080.058  5080.050  0.500  4.580729  92.030579  27.185491  0.278581
  5082.147  5082.140  0.500  4.614271  92.181653  27.298856  0.270516
  5084.253  5084.250  0.500  4.649566  92.296963  27.393706  0.262041
  5086.386  5086.380  0.500  4.684244  92.463049  27.514807  0.254229
  5088.526  5088.520  0.500  4.712345  92.532104  27.590220  0.247862
  5090.697  5090.690  0.500  4.726538  92.676838  27.713303  0.245459
  5092.885  5092.880  0.500  4.717051  92.766089  27.805584  0.248624
  5095.087  5095.080  0.500  4.684586  92.919666  27.885827  0.257569
  5097.309  5097.300  0.500  4.635430  93.060378  28.013164  0.271782
  5099.557  5099.550  0.500  4.577229  93.179645  28.122275  0.289191
  5101.826  5101.810  0.500  4.521637  93.281375  28.228700  0.306880
  5104.104  5104.090  0.500  4.478309  93.426949  28.346578  0.321807
  5106.392  5106.390  0.500  4.455147  93.542605  28.453619  0.330592
  5108.719  5108.710  0.500  4.447171  93.705137  28.582531  0.334749
  5111.060  5111.050  0.500  4.444672  93.813794  28.676216  0.336686
  5113.404  5113.400  0.500  4.442886  93.953176  28.805625  0.338810
  5115.788  5115.780  0.500  4.440125  94.083106  28.948690  0.341434
  5118.177  5118.170  0.500  4.436601  94.209327  29.029038  0.343591
  5120.597  5120.590  0.500  4.431825  94.335359  29.134462  0.346489
  5123.024  5123.020  0.500  4.425124  94.463486  29.249553  0.350197
  5125.473  5125.470  0.500  4.414765  94.608560  29.373956  0.355348
  5127.957  5127.950  0.500  4.403687  94.749639  29.494727  0.360784
  5130.448  5130.440  0.500  4.396225  94.876684  29.608115  0.364884
  5132.965  5132.950  0.500  4.392756  94.950080  29.725671  0.367606
  5135.478  5135.470  0.500  4.394019  95.085819  29.845709  0.368624
  5138.026  5138.020  0.500  4.401393  95.222795  29.970526  0.367446
  5140.595  5140.590  0.500  4.413318  95.352761  30.075024  0.364356
  5143.179  5143.170  0.500  4.426029  95.458268  30.203232  0.361288
  5145.786  5145.780  0.500  4.439039  95.574224  30.332361  0.358143
  5148.406  5148.400  0.500  4.448185  95.667557  30.440765  0.356150
  5151.057  5151.050  0.500  4.447726  95.762081  30.577317  0.357912
  5153.713  5153.710  0.500  4.434939  95.884532  30.681920  0.363758
  5156.395  5156.390  0.500  4.414013  96.015565  30.811856  0.373024
  5159.095  5159.090  0.500  4.391192  96.125193  30.936248  0.383175
  5161.819  5161.810  0.500  4.370192  96.226492  31.062904  0.392909
  5164.557  5164.550  0.500  4.353756  96.317029  31.180377  0.400930
  5167.303  5167.300  0.500  4.337935  96.402501  31.301383  0.408905
  5170.095  5170.080  0.500  4.320232  96.494532  31.408206  0.417628
  5172.877  5172.870  0.500  4.298888  96.872610  31.623004  0.429556
  5175.699  5175.690  0.500  4.276948  96.964699  31.746594  0.440801
  5178.538  5178.520  0.500  4.260353  97.045119  31.870011  0.449919
  5181.380  5181.370  0.500  4.248980  97.123687  31.970166  0.456495
  5184.255  5184.250  0.500  4.241906  97.210386  32.083087  0.461360
  5187.146  5187.140  0.500  4.237027  97.287907  32.221471  0.465616
  5190.051  5190.050  0.500  4.233050  97.366904  32.352016  0.469366
  5192.976  5192.970  0.500  4.229104  97.434050  32.478942  0.473070
  5195.947  5195.920  0.500  4.227635  97.471548  32.579431  0.475231
  5198.896  5198.890  0.500  4.225668  97.537313  32.704423  0.477994
  5201.873  5201.870  0.500  4.225567  97.645313  32.850096  0.480172
  5204.904  5204.880  0.500  4.226469  97.676932  32.961521  0.481366
  5207.908  5207.900  0.500  4.227472  97.769548  33.105205  0.482979
  5210.960  5210.950  0.500  4.227813  97.844590  33.229781  0.484632
  5214.033  5214.010  0.500  4.224645  97.901503  33.339152  0.487770
  5217.098  5217.090  0.500  4.216606  97.987775  33.462217  0.493522
  5220.178  5220.190  0.500  4.206546  98.074921  33.600304  0.500569
  5223.316  5223.310  0.500  4.196157  98.154604  33.741442  0.507921
  5226.475  5226.450  0.500  4.187358  98.232682  33.886440  0.514612
  5229.627  5229.600  0.500  4.179892  98.301639  34.011053  0.520375
  5232.789  5232.780  0.500  4.169391  98.373719  34.136799  0.527812
