# XDI/1.0 BlueSky/1.5.0
# Beamline.name: 6BM
# Beamline.xray_source: NSLS-II three-pole wiggler
# Beamline.collimation: paraboloid mirror, 5 nm Rh on 30 nm Pt
# Beamline.focusing: not in use
# Beamline.harmonic_rejection: flat mirror, Si stripe, pitch = 7.0 mrad relative to beam
# Detector.i0: 10 cm N2
# Detector.i1: 25 cm N2
# Detector.i2: 25 cm N2
# Element.symbol: Ti
# Element.edge: K
# Facility.name: NSLS-II
# Facility.energy: 3.0
# Facility.current: 219.4
# Facility.mode: top-off
# Facility.gup: 301027
# Facility.saf: 304156
# Mono.name: Si(111)
# Mono.d_spacing: 3.1352584
# Mono.encoder_resolution: 0.0000050 deg/ct
# Mono.angle_offset: 16.0571090 deg
# Mono.scan_mode: pseudo channel cut
# Mono.scan_type: step
# Mono.direction: forward in energy
# Sample.name: BaTiO3
# Sample.prep: Powder in polyethylene glycol pellet
# Sample.x_position: -97.532 mm
# Sample.y_position: 117.543 mm
# Sample.wheel_position: -480.000 mm
# Scan.experimenters: Bruce Ravel, Martin Stennett
# Scan.edge_energy: 4966.0
# Scan.start_time: 2019-05-29T21:55:01
# Scan.end_time: 2019-05-29T22:37:51
# Scan.transient_id: 9764
# Scan.uid: f7b1530b-b5ec-4fc3-9909-05ad30b2423f
# Scan.plot_hint: ln(I0/It)  --  ln($5/$6)
# Scan.sequence: merge of 3 scans
# Column.1: energy eV
# Column.2: requested_energy eV
# Column.3: measurement_time seconds
# Column.4: mutrans
# Column.5: i0
# Column.6: itrans
# Column.7: irefer
# /////
#  sample disk prepared by Martin
# -----
# energy   requested_energy   measurement_time   mutrans   i0   itrans   irefer
4765.982000 4766.000000 0.500000 4.425280 10.956520 0.131161 0.011730
4776.007000 4776.000000 0.500000 4.393769 11.173943 0.138044 0.012492
4786.009000 4786.000000 0.500000 4.362933 11.413960 0.145424 0.013161
4796.009000 4796.000000 0.500000 4.331510 11.655789 0.153246 0.014187
4806.009000 4806.000000 0.500000 4.300430 11.902155 0.161427 0.015106
4816.007000 4816.000000 0.500000 4.271265 12.142079 0.169553 0.015536
4826.007000 4826.000000 0.500000 4.240275 12.379382 0.178283 0.016536
4836.008000 4836.000000 0.500000 4.210309 12.619133 0.187292 0.017727
4846.003000 4846.000000 0.500000 4.180363 12.860847 0.196676 0.018496
4856.011000 4856.000000 0.500000 4.150139 13.103948 0.206548 0.019845
4866.009000 4866.000000 0.500000 4.120998 13.334807 0.216402 0.020860
4876.004000 4876.000000 0.500000 4.092486 13.596914 0.227037 0.021914
4886.008000 4886.000000 0.500000 4.064211 13.830434 0.237562 0.023240
4896.005000 4896.000000 0.500000 4.034937 14.054879 0.248587 0.024436
4906.005000 4906.000000 0.500000 4.008291 14.284271 0.259469 0.025969
4916.001000 4916.000000 0.500000 3.980094 14.511065 0.271123 0.027087
4926.001000 4926.000000 0.500000 3.952325 14.736629 0.283090 0.028950
4936.003000 4936.000000 0.500000 3.925339 14.955585 0.295157 0.030532
4938.002000 4938.000000 0.500000 3.920506 14.996811 0.297403 0.030477
4940.000000 4940.000000 0.500000 3.914426 15.036890 0.300018 0.030921
4941.998000 4942.000000 0.500000 3.909435 15.074544 0.302274 0.031208
4943.999000 4944.000000 0.500000 3.903652 15.115561 0.304851 0.031589
4945.997000 4946.000000 0.500000 3.898669 15.152391 0.307119 0.031930
4948.008000 4948.000000 0.500000 3.892729 15.186562 0.309650 0.032313
4950.002000 4950.000000 0.500000 3.887800 15.226936 0.312004 0.032610
4952.005000 4952.000000 0.500000 3.882918 15.260958 0.314233 0.032738
4954.003000 4954.000000 0.500000 3.876959 15.292998 0.316775 0.033222
4956.003000 4956.000000 0.500000 3.872368 15.327697 0.318954 0.033411
4956.247000 4956.250000 0.500000 3.872018 15.332861 0.319173 0.033494
4956.496000 4956.500000 0.500000 3.871585 15.337131 0.319401 0.033488
4956.744000 4956.750000 0.500000 3.871137 15.342501 0.319655 0.033538
4956.996000 4957.000000 0.500000 3.870372 15.343666 0.319928 0.033363
4957.246000 4957.250000 0.500000 3.868841 15.349006 0.320526 0.033500
4957.495000 4957.500000 0.500000 3.868728 15.351634 0.320618 0.033449
4957.745000 4957.750000 0.500000 3.868597 15.357097 0.320774 0.033615
4957.995000 4958.000000 0.500000 3.867344 15.360472 0.321247 0.033599
4958.244000 4958.250000 0.500000 3.867815 15.365890 0.321209 0.033631
4958.493000 4958.500000 0.500000 3.866395 15.370951 0.321768 0.033758
4958.745000 4958.750000 0.500000 3.866206 15.373891 0.321893 0.033556
4958.996000 4959.000000 0.500000 3.865120 15.378779 0.322346 0.033891
4959.246000 4959.250000 0.500000 3.864600 15.417684 0.323329 0.033700
4959.498000 4959.500000 0.500000 3.864096 15.422456 0.323593 0.033669
4959.748000 4959.750000 0.500000 3.863095 15.426742 0.324005 0.033903
4959.996000 4960.000000 0.500000 3.862876 15.431967 0.324187 0.033896
4960.245000 4960.250000 0.500000 3.862243 15.435721 0.324469 0.033738
4960.496000 4960.500000 0.500000 3.861592 15.441177 0.324796 0.034118
4960.744000 4960.750000 0.500000 3.861593 15.447715 0.324934 0.033789
4960.996000 4961.000000 0.500000 3.860969 15.452128 0.325231 0.033850
4961.248000 4961.250000 0.500000 3.859862 15.457598 0.325703 0.033809
4961.497000 4961.500000 0.500000 3.860808 15.462389 0.325501 0.033602
4961.747000 4961.750000 0.500000 3.859494 15.465633 0.325994 0.033613
4961.997000 4962.000000 0.500000 3.859109 15.471012 0.326234 0.033787
4962.245000 4962.250000 0.500000 3.857640 15.510813 0.327550 0.033666
4962.495000 4962.500000 0.500000 3.857740 15.517441 0.327660 0.033791
4962.747000 4962.750000 0.500000 3.857136 15.524171 0.328001 0.033504
4962.997000 4963.000000 0.500000 3.856934 15.528931 0.328167 0.033705
4963.250000 4963.250000 0.500000 3.856408 15.533407 0.328438 0.033179
4963.498000 4963.500000 0.500000 3.855498 15.536136 0.328791 0.033008
4963.749000 4963.750000 0.500000 3.855972 15.542940 0.328780 0.032559
4963.999000 4964.000000 0.500000 3.855580 15.546800 0.328991 0.031816
4964.245000 4964.250000 0.500000 3.855001 15.552390 0.329301 0.030525
4964.496000 4964.500000 0.500000 3.854427 15.556013 0.329565 0.028847
4964.746000 4964.750000 0.500000 3.853404 15.560828 0.330004 0.026918
4965.000000 4965.000000 0.500000 3.854539 15.565269 0.329725 0.024682
4965.250000 4965.250000 0.500000 3.854754 15.567530 0.329702 0.023680
4965.499000 4965.500000 0.500000 3.854333 15.570150 0.329895 0.023605
4965.749000 4965.750000 0.500000 3.854997 15.575117 0.329782 0.024082
4965.999000 4966.000000 0.500000 3.856449 15.579942 0.329408 0.024837
4966.248000 4966.250000 0.500000 3.857471 15.583064 0.329141 0.025693
4966.498000 4966.500000 0.500000 3.860138 15.587053 0.328343 0.026109
4966.748000 4966.750000 0.500000 3.864807 15.587862 0.326833 0.026504
4967.001000 4967.000000 0.500000 3.870029 15.590268 0.325170 0.026565
4967.251000 4967.250000 0.500000 3.873726 15.590694 0.323985 0.026368
4967.501000 4967.500000 0.500000 3.874010 15.596263 0.324007 0.026401
4967.750000 4967.750000 0.500000 3.875886 15.599139 0.323455 0.026023
4967.998000 4968.000000 0.500000 3.884807 15.608611 0.320793 0.025196
4968.249000 4968.250000 0.500000 3.901951 15.612527 0.315442 0.024426
4968.497000 4968.500000 0.500000 3.928106 15.613548 0.307335 0.023362
4968.748000 4968.750000 0.500000 3.956965 15.616677 0.298632 0.022747
4969.000000 4969.000000 0.500000 3.975820 15.617681 0.293056 0.021728
4969.250000 4969.250000 0.500000 3.969983 15.617865 0.294776 0.021807
4969.501000 4969.500000 0.500000 3.949706 15.617431 0.300806 0.022147
4969.749000 4969.750000 0.500000 3.928653 15.620383 0.307213 0.022257
4970.001000 4970.000000 0.500000 3.913734 15.625185 0.311950 0.022409
4970.249000 4970.250000 0.500000 3.904591 15.637124 0.315069 0.022594
4970.500000 4970.500000 0.500000 3.901169 15.647854 0.316366 0.022486
4970.750000 4970.750000 0.500000 3.900900 15.660824 0.316718 0.022584
4971.001000 4971.000000 0.500000 3.904777 15.669330 0.315659 0.022224
4971.253000 4971.250000 0.500000 3.913563 15.675233 0.312988 0.022110
4971.501000 4971.500000 0.500000 3.925232 15.681760 0.309516 0.021111
4971.751000 4971.750000 0.500000 3.936169 15.685525 0.306232 0.020818
4972.000000 4972.000000 0.500000 3.945400 15.689822 0.303497 0.020334
4972.247000 4972.250000 0.500000 3.951565 15.696144 0.301772 0.019887
4972.500000 4972.500000 0.500000 3.954111 15.697030 0.301001 0.019309
4972.749000 4972.750000 0.500000 3.955741 15.698860 0.300547 0.018818
4973.002000 4973.000000 0.500000 3.955224 15.702923 0.300779 0.018610
4973.252000 4973.250000 0.500000 3.955330 15.707477 0.300837 0.018153
4973.501000 4973.500000 0.500000 3.952363 15.711925 0.301813 0.018078
4973.750000 4973.750000 0.500000 3.952606 15.712658 0.301755 0.017563
4973.999000 4974.000000 0.500000 3.950308 15.714741 0.302483 0.017430
4974.250000 4974.250000 0.500000 3.949370 15.716416 0.302805 0.017247
4974.502000 4974.500000 0.500000 3.951052 15.717669 0.302317 0.016653
4974.750000 4974.750000 0.500000 3.952578 15.720322 0.301911 0.016222
4975.003000 4975.000000 0.500000 3.952952 15.719780 0.301789 0.016071
4975.251000 4975.250000 0.500000 3.952597 15.719857 0.301896 0.015969
4975.502000 4975.500000 0.500000 3.952130 15.720042 0.302042 0.015640
4975.750000 4975.750000 0.500000 3.950713 15.719043 0.302444 0.015270
4976.000000 4976.000000 0.500000 3.950984 15.720648 0.302399 0.015172
4976.251000 4976.250000 0.500000 3.952445 15.716616 0.301880 0.015033
4976.501000 4976.500000 0.500000 3.955991 15.716403 0.300809 0.014594
4976.751000 4976.750000 0.500000 3.959096 15.720250 0.299941 0.014627
4977.004000 4977.000000 0.500000 3.962788 15.721746 0.298857 0.014264
4977.251000 4977.250000 0.500000 3.966293 15.723280 0.297856 0.014137
4977.502000 4977.500000 0.500000 3.973201 15.726661 0.295873 0.013904
4977.749000 4977.750000 0.500000 3.982133 15.730295 0.293327 0.013655
4978.000000 4978.000000 0.500000 3.997921 15.732324 0.288743 0.013208
4978.251000 4978.250000 0.500000 4.020394 15.735578 0.282378 0.013105
4978.503000 4978.500000 0.500000 4.053051 15.737631 0.273272 0.012520
4978.753000 4978.750000 0.500000 4.098901 15.737579 0.261003 0.011876
4979.003000 4979.000000 0.500000 4.157741 15.737527 0.246145 0.011312
4979.250000 4979.250000 0.500000 4.220173 15.736941 0.231353 0.010831
4979.501000 4979.500000 0.500000 4.275364 15.736552 0.218916 0.010242
4979.748000 4979.750000 0.500000 4.312923 15.732506 0.210772 0.009961
4980.003000 4980.000000 0.500000 4.322111 15.731575 0.208802 0.009922
4980.249000 4980.250000 0.500000 4.312067 15.729942 0.210870 0.009993
4980.502000 4980.500000 0.500000 4.293631 15.727509 0.214768 0.010084
4980.750000 4980.750000 0.500000 4.277421 15.724413 0.218216 0.010191
4981.003000 4981.000000 0.500000 4.265612 15.721031 0.220776 0.010169
4981.250000 4981.250000 0.500000 4.262296 15.759196 0.222039 0.010207
4981.500000 4981.500000 0.500000 4.268008 15.761013 0.220820 0.010164
4981.749000 4981.750000 0.500000 4.282453 15.765116 0.217713 0.009830
4982.002000 4982.000000 0.500000 4.307988 15.768457 0.212210 0.009772
4982.252000 4982.250000 0.500000 4.338980 15.773709 0.205828 0.009604
4982.504000 4982.500000 0.500000 4.373914 15.775962 0.198734 0.009311
4982.751000 4982.750000 0.500000 4.413998 15.776483 0.191003 0.008854
4983.004000 4983.000000 0.500000 4.456191 15.777381 0.183062 0.008755
4983.250000 4983.250000 0.500000 4.504258 15.775598 0.174568 0.008149
4983.500000 4983.500000 0.500000 4.557515 15.774417 0.165481 0.007847
4983.749000 4983.750000 0.500000 4.624680 15.774847 0.154758 0.007769
4984.003000 4984.000000 0.500000 4.704964 15.771433 0.142624 0.007470
4984.252000 4984.250000 0.500000 4.794069 15.769182 0.130520 0.006850
4984.503000 4984.500000 0.500000 4.884326 15.769470 0.119262 0.006159
4984.752000 4984.750000 0.500000 4.968561 15.771330 0.109688 0.006084
4984.999000 4985.000000 0.500000 5.041133 15.772059 0.102069 0.005608
4985.248000 4985.250000 0.500000 5.077798 15.776218 0.098396 0.005575
4985.501000 4985.500000 0.500000 5.071419 15.777647 0.098980 0.005922
4985.752000 4985.750000 0.500000 5.026866 15.775613 0.103522 0.005998
4986.002000 4986.000000 0.500000 4.946867 15.774541 0.112138 0.006209
4986.253000 4986.250000 0.500000 4.846981 15.775115 0.123976 0.006817
4986.501000 4986.500000 0.500000 4.754906 15.770089 0.135708 0.007156
4986.752000 4986.750000 0.500000 4.670996 15.769843 0.147653 0.007553
4986.999000 4987.000000 0.500000 4.601634 15.766066 0.158106 0.008261
4987.251000 4987.250000 0.500000 4.552176 15.762333 0.166150 0.008446
4987.499000 4987.500000 0.500000 4.520671 15.762871 0.171482 0.008652
4987.753000 4987.750000 0.500000 4.498803 15.764002 0.175351 0.008620
4988.001000 4988.000000 0.500000 4.482585 15.795500 0.178544 0.009003
4988.254000 4988.250000 0.500000 4.472768 15.815068 0.180551 0.009076
4988.503000 4988.500000 0.500000 4.464663 15.826182 0.182134 0.009050
4988.751000 4988.750000 0.500000 4.456205 15.835707 0.183784 0.009036
4989.000000 4989.000000 0.500000 4.447700 15.848458 0.185500 0.008960
4989.251000 4989.250000 0.500000 4.439592 15.858842 0.187146 0.009089
4989.504000 4989.500000 0.500000 4.432360 15.869995 0.188647 0.009258
4989.752000 4989.750000 0.500000 4.426833 15.883867 0.189850 0.009394
4990.004000 4990.000000 0.500000 4.426525 15.895180 0.190039 0.009361
4990.251000 4990.250000 0.500000 4.429832 15.908887 0.189576 0.009355
4990.503000 4990.500000 0.500000 4.437795 15.921098 0.188211 0.009295
4990.751000 4990.750000 0.500000 4.452005 15.931432 0.185687 0.009173
4991.000000 4991.000000 0.500000 4.472664 15.951078 0.182130 0.009196
4991.252000 4991.250000 0.500000 4.495518 15.990456 0.178421 0.008959
4991.500000 4991.500000 0.500000 4.520851 15.997855 0.174048 0.008844
4991.752000 4991.750000 0.500000 4.543938 16.006172 0.170154 0.008806
4992.002000 4992.000000 0.500000 4.567025 16.012935 0.166345 0.008442
4992.253000 4992.250000 0.500000 4.582642 16.019924 0.163853 0.008181
4992.500000 4992.500000 0.500000 4.592480 16.027246 0.162336 0.008592
4992.751000 4992.750000 0.500000 4.597908 16.032350 0.161497 0.008410
4993.001000 4993.000000 0.500000 4.598420 16.037611 0.161463 0.008323
4993.252000 4993.250000 0.500000 4.597273 16.044571 0.161719 0.008377
4993.500000 4993.500000 0.500000 4.593645 16.048726 0.162349 0.008412
4993.752000 4993.750000 0.500000 4.588972 16.052186 0.163152 0.008306
4994.005000 4994.000000 0.500000 4.582766 16.056179 0.164206 0.008566
4994.250000 4994.250000 0.500000 4.578361 16.061147 0.164975 0.008473
4994.503000 4994.500000 0.500000 4.575025 16.063972 0.165557 0.008332
4994.750000 4994.750000 0.500000 4.572479 16.069947 0.166039 0.008408
4995.003000 4995.000000 0.500000 4.569845 16.071502 0.166494 0.008386
4995.251000 4995.250000 0.500000 4.570706 16.072853 0.166363 0.008420
4995.502000 4995.500000 0.500000 4.573272 16.073021 0.165938 0.008429
4995.752000 4995.750000 0.500000 4.578563 16.092051 0.165254 0.008082
4996.001000 4996.000000 0.700000 4.585600 22.482758 0.229277 0.011457
4997.092000 4997.080000 0.710000 4.622789 22.838157 0.224394 0.011144
4998.186000 4998.180000 0.730000 4.620085 23.476450 0.231288 0.011096
4999.301000 4999.290000 0.740000 4.587512 23.815203 0.242421 0.011484
5000.437000 5000.430000 0.750000 4.559659 24.169150 0.252948 0.011743
5001.586000 5001.580000 0.760000 4.551533 24.532374 0.258840 0.012129
5002.770000 5002.760000 0.780000 4.549181 25.228593 0.266825 0.012551
5003.955000 5003.950000 0.790000 4.530910 25.604842 0.275784 0.013045
5005.167000 5005.160000 0.800000 4.496112 25.992085 0.289863 0.013702
5006.399000 5006.390000 0.810000 4.462694 26.389493 0.304316 0.014667
5007.648000 5007.640000 0.830000 4.440509 27.101335 0.319527 0.015608
5008.916000 5008.910000 0.840000 4.425273 27.477832 0.328932 0.016455
5010.208000 5010.200000 0.850000 4.402027 27.862736 0.341403 0.017233
5011.518000 5011.510000 0.860000 4.377766 28.244497 0.354570 0.017901
5012.835000 5012.830000 0.880000 4.353825 28.946523 0.372175 0.018937
5014.187000 5014.180000 0.890000 4.333713 29.322486 0.384673 0.019492
5015.549000 5015.540000 0.900000 4.321255 29.694719 0.394446 0.020233
5016.937000 5016.930000 0.910000 4.315051 30.081186 0.402059 0.020434
5018.337000 5018.330000 0.930000 4.309327 30.798804 0.414015 0.021055
5019.758000 5019.750000 0.940000 4.302730 31.192254 0.422081 0.021950
5021.189000 5021.190000 0.950000 4.302059 31.577828 0.427583 0.021993
5022.655000 5022.650000 0.960000 4.303301 31.965229 0.432294 0.022685
5024.139000 5024.130000 0.980000 4.310459 32.701701 0.439091 0.022760
5025.639000 5025.630000 0.990000 4.317870 33.093482 0.441077 0.022882
5027.145000 5027.140000 1.000000 4.319095 33.482352 0.445716 0.023086
5028.688000 5028.680000 1.010000 4.314501 33.880160 0.453087 0.023593
5030.234000 5030.240000 1.030000 4.314479 34.605559 0.462797 0.023743
5031.818000 5031.810000 1.040000 4.314094 35.006533 0.468341 0.023533
5033.398000 5033.400000 1.050000 4.314824 35.406631 0.473348 0.023325
5035.011000 5035.010000 1.060000 4.319932 35.808189 0.476283 0.023005
5036.648000 5036.650000 1.080000 4.327190 36.546749 0.482586 0.023107
5038.294000 5038.300000 1.090000 4.328269 36.956277 0.487467 0.023162
5039.966000 5039.970000 1.100000 4.320933 37.368314 0.496527 0.023928
5041.648000 5041.650000 1.110000 4.308125 37.772336 0.508373 0.024168
5043.358000 5043.360000 1.130000 4.290677 38.513334 0.527473 0.025152
5045.088000 5045.090000 1.140000 4.277926 38.927072 0.539975 0.026268
5046.830000 5046.830000 1.150000 4.272007 39.335221 0.548876 0.026789
5048.599000 5048.600000 1.160000 4.269933 39.746894 0.555769 0.028059
5050.377000 5050.380000 1.180000 4.273423 40.507590 0.564433 0.028839
5052.177000 5052.180000 1.190000 4.283215 40.928240 0.564741 0.029546
5053.999000 5054.000000 1.200000 4.295352 41.450322 0.565043 0.029630
5055.836000 5055.840000 1.210000 4.299925 41.863717 0.568075 0.030103
5057.696000 5057.700000 1.230000 4.293162 42.648800 0.582650 0.031192
5059.576000 5059.580000 1.240000 4.279410 43.087875 0.596792 0.032275
5061.477000 5061.480000 1.250000 4.264295 43.519332 0.611954 0.032768
5063.398000 5063.400000 1.260000 4.253813 43.954882 0.624597 0.033449
5065.332000 5065.330000 1.280000 4.252058 44.751586 0.637028 0.034671
5067.287000 5067.290000 1.290000 4.255280 45.194139 0.641265 0.035056
5069.260000 5069.260000 1.300000 4.256530 45.633152 0.646687 0.035265
5071.258000 5071.260000 1.310000 4.249816 46.082319 0.657451 0.036401
5073.270000 5073.270000 1.330000 4.238139 46.897734 0.676955 0.037312
5075.297000 5075.300000 1.340000 4.224392 47.347233 0.692891 0.038259
5077.352000 5077.350000 1.350000 4.213067 47.806687 0.707593 0.038177
5079.422000 5079.420000 1.360000 4.202063 48.339142 0.723383 0.038337
5081.510000 5081.510000 1.380000 4.190304 49.178166 0.744639 0.039324
5083.607000 5083.610000 1.390000 4.181875 49.649352 0.758132 0.039396
5085.744000 5085.740000 1.400000 4.175031 50.116868 0.770538 0.039304
5087.886000 5087.890000 1.410000 4.166393 50.590328 0.784550 0.039404
5090.051000 5090.050000 1.430000 4.154974 51.433862 0.806807 0.040219
5092.225000 5092.230000 1.440000 4.144327 51.943417 0.823498 0.041043
5094.442000 5094.440000 1.450000 4.134268 52.525571 0.841162 0.042618
5096.663000 5096.660000 1.460000 4.125177 53.008190 0.856649 0.044332
5098.902000 5098.900000 1.480000 4.117442 53.852323 0.877048 0.046576
5101.165000 5101.160000 1.490000 4.112147 54.336204 0.889628 0.048369
5103.443000 5103.440000 1.500000 4.107009 54.831429 0.902360 0.050210
5105.741000 5105.740000 1.510000 4.101777 55.321672 0.915200 0.051679
5108.052000 5108.050000 1.530000 4.097052 56.179519 0.933795 0.052868
5110.391000 5110.390000 1.540000 4.094579 56.673003 0.944329 0.053478
5112.739000 5112.740000 1.550000 4.094007 57.167066 0.953106 0.053971
5115.118000 5115.120000 1.560000 4.093944 57.666283 0.961490 0.054440
5117.509000 5117.510000 1.580000 4.092889 58.543262 0.977140 0.055567
5119.921000 5119.920000 1.590000 4.088783 59.057241 0.989777 0.056311
5122.349000 5122.350000 1.600000 4.081986 59.565385 1.005098 0.057369
5124.799000 5124.800000 1.610000 4.072357 60.083092 1.023645 0.058923
5127.272000 5127.270000 1.630000 4.060304 60.987652 1.051673 0.060801
5129.759000 5129.760000 1.640000 4.045968 61.520020 1.076150 0.062351
