# XDI/1.0 BlueSky/1.5.0
# Beamline.name: 6BM
# Beamline.xray_source: NSLS-II three-pole wiggler
# Beamline.collimation: paraboloid mirror, 5 nm Rh on 30 nm Pt
# Beamline.focusing: not in use
# Beamline.harmonic_rejection: flat mirror, Si stripe, pitch = 7.0 mrad relative to beam
# Detector.i0: 10 cm N2
# Detector.i1: 25 cm N2
# Detector.i2: 25 cm N2
# Element.symbol: Ti
# Element.edge: K
# Facility.name: NSLS-II
# Facility.energy: 3.0
# Facility.current: 219.3
# Facility.mode: top-off
# Facility.gup: 301027
# Facility.saf: 304156
# Mono.name: Si(111)
# Mono.d_spacing: 3.1352584
# Mono.encoder_resolution: 0.0000050 deg/ct
# Mono.angle_offset: 16.0571090 deg
# Mono.scan_mode: pseudo channel cut
# Mono.scan_type: step
# Mono.direction: forward in energy
# Sample.name: CeTi2O6
# Sample.prep: Powder in polyethylene glycol pellet
# Sample.x_position: -113.290 mm
# Sample.y_position: 117.505 mm
# Sample.wheel_position: 255.000 mm
# Scan.experimenters: Bruce Ravel, Martin Stennett
# Scan.edge_energy: 4966.0
# Scan.start_time: 2019-05-30T18:02:41
# Scan.end_time: 2019-05-30T18:46:13
# Scan.transient_id: 9846
# Scan.uid: 4a81d723-ebb2-4d6b-b3a6-4cdd5b77bdce
# Scan.plot_hint: (DTC1 + DTC2 + DTC3 + DTC4) / I0  --  ($8+$9+$10+$11) / $5
# Scan.sequence: merge of 3 scans
# Column.1: energy eV
# Column.2: requested_energy eV
# Column.3: measurement_time seconds
# Column.4: mutrans
# Column.5: i0
# Column.6: itrans
# Column.7: irefer
# /////
#  sample disk prepared by Martin
# -----
# energy   requested_energy   measurement_time   mutrans   i0   itrans   irefer
4765.998000 4766.000000 0.500000 80.144383 10.234964 0.046409 0.006237
4776.005000 4776.000000 0.500000 73.534782 10.481841 0.048515 0.006571
4786.007000 4786.000000 0.500000 71.853558 10.730754 0.051334 0.006940
4796.007000 4796.000000 0.500000 69.086200 10.994037 0.054700 0.007111
4806.010000 4806.000000 0.500000 64.652604 11.260240 0.058016 0.007638
4816.001000 4816.000000 0.500000 64.501032 11.482771 0.061128 0.008016
4826.005000 4826.000000 0.500000 56.460971 11.783925 0.065276 0.008493
4835.999000 4836.000000 0.500000 54.187027 12.024058 0.069232 0.009119
4845.999000 4846.000000 0.500000 54.399555 12.285270 0.073432 0.009793
4856.000000 4856.000000 0.500000 48.360012 12.583319 0.077393 0.009869
4866.011000 4866.000000 0.500000 45.473728 12.855326 0.082141 0.010774
4876.005000 4876.000000 0.500000 40.562114 13.129827 0.086997 0.011450
4886.003000 4886.000000 0.500000 40.385502 13.407157 0.092032 0.012304
4896.003000 4896.000000 0.500000 37.839215 13.674862 0.097059 0.012734
4906.007000 4906.000000 0.500000 35.264789 13.944862 0.102546 0.013626
4916.003000 4916.000000 0.500000 33.517454 14.221458 0.108038 0.014309
4926.000000 4926.000000 0.500000 28.959677 14.533907 0.114078 0.015060
4935.999000 4936.000000 0.500000 28.538390 14.808936 0.120203 0.016230
4938.000000 4938.000000 0.500000 30.800086 14.852719 0.121244 0.016338
4939.997000 4940.000000 0.500000 30.667145 14.903226 0.122514 0.016451
4941.994000 4942.000000 0.500000 32.109299 14.953649 0.123935 0.016751
4943.994000 4944.000000 0.500000 31.915415 15.004300 0.124876 0.016855
4945.997000 4946.000000 0.500000 31.630569 15.045893 0.126097 0.017008
4947.999000 4948.000000 0.500000 31.982281 15.089980 0.127526 0.017328
4950.003000 4950.000000 0.500000 33.885601 15.141690 0.128728 0.017566
4952.003000 4952.000000 0.500000 34.965387 15.192900 0.130043 0.017575
4954.002000 4954.000000 0.500000 35.533484 15.240485 0.131407 0.017961
4956.004000 4956.000000 0.500000 37.570911 15.284712 0.132443 0.017990
4956.247000 4956.250000 0.500000 35.939152 15.288410 0.132533 0.018241
4956.495000 4956.500000 0.500000 36.365865 15.294194 0.132370 0.017802
4956.742000 4956.750000 0.500000 36.720142 15.299655 0.132665 0.018105
4956.993000 4957.000000 0.500000 37.540977 15.307940 0.132847 0.018050
4957.244000 4957.250000 0.500000 38.318584 15.315675 0.132944 0.018004
4957.493000 4957.500000 0.500000 37.822069 15.318382 0.133134 0.017954
4957.743000 4957.750000 0.500000 37.816948 15.317873 0.133180 0.017962
4957.993000 4958.000000 0.500000 38.317042 15.327043 0.133566 0.018096
4958.245000 4958.250000 0.500000 39.176640 15.335137 0.133632 0.018175
4958.497000 4958.500000 0.500000 38.621879 15.335674 0.133820 0.018170
4958.746000 4958.750000 0.500000 38.331420 15.341603 0.133942 0.018105
4958.995000 4959.000000 0.500000 41.000394 15.351536 0.133988 0.018014
4959.242000 4959.250000 0.500000 41.610549 15.357323 0.134196 0.018075
4959.494000 4959.500000 0.500000 42.199186 15.362107 0.134268 0.018122
4959.745000 4959.750000 0.500000 41.437058 15.365414 0.134642 0.018265
4959.997000 4960.000000 0.500000 41.238815 15.374825 0.134591 0.018104
4960.246000 4960.250000 0.500000 44.918835 15.381580 0.134755 0.018151
4960.498000 4960.500000 0.500000 42.515115 15.384344 0.134722 0.018099
4960.747000 4960.750000 0.500000 42.876650 15.393767 0.135011 0.018117
4960.997000 4961.000000 0.500000 45.179950 15.398823 0.135083 0.018149
4961.245000 4961.250000 0.500000 44.476369 15.406178 0.135429 0.018322
4961.495000 4961.500000 0.500000 44.371907 15.407410 0.135388 0.018202
4961.746000 4961.750000 0.500000 46.025112 15.410632 0.135626 0.018282
4961.998000 4962.000000 0.500000 46.482501 15.417056 0.135783 0.018304
4962.248000 4962.250000 0.500000 49.426712 15.428698 0.135727 0.018223
4962.497000 4962.500000 0.500000 48.460074 15.432461 0.136082 0.018200
4962.745000 4962.750000 0.500000 48.423440 15.435663 0.136149 0.018090
4962.996000 4963.000000 0.500000 49.526517 15.444955 0.136240 0.018117
4963.247000 4963.250000 0.500000 50.393173 15.454447 0.136249 0.017842
4963.495000 4963.500000 0.500000 52.953370 15.461936 0.136384 0.017992
4963.746000 4963.750000 0.500000 53.186673 15.466442 0.136480 0.017652
4963.999000 4964.000000 0.500000 52.742630 15.468225 0.136798 0.017597
4964.248000 4964.250000 0.500000 55.973697 15.473501 0.136771 0.017170
4964.500000 4964.500000 0.500000 58.551197 15.481523 0.136774 0.016445
4964.749000 4964.750000 0.500000 61.275003 15.486903 0.137035 0.015681
4964.999000 4965.000000 0.500000 63.825897 15.490813 0.137050 0.014516
4965.248000 4965.250000 0.500000 65.155799 15.490582 0.136845 0.013543
4965.496000 4965.500000 0.500000 68.505642 15.497396 0.137194 0.013003
4965.747000 4965.750000 0.500000 76.753417 15.505891 0.136786 0.012785
4965.998000 4966.000000 0.500000 82.090382 15.510681 0.136866 0.013011
4966.247000 4966.250000 0.500000 93.530360 15.513540 0.136458 0.013471
4966.502000 4966.500000 0.500000 109.391159 15.516407 0.135979 0.013837
4966.750000 4966.750000 0.500000 137.766347 15.520542 0.135067 0.014075
4967.000000 4967.000000 0.500000 179.398295 15.531284 0.133588 0.014217
4967.251000 4967.250000 0.500000 233.757410 15.533599 0.131446 0.014022
4967.497000 4967.500000 0.500000 270.232278 15.535807 0.130108 0.013996
4967.751000 4967.750000 0.500000 270.076133 15.541602 0.130090 0.013784
4967.999000 4968.000000 0.500000 260.444966 15.546533 0.130757 0.013477
4968.250000 4968.250000 0.500000 254.140053 15.551501 0.131302 0.013603
4968.502000 4968.500000 0.500000 286.549884 15.557213 0.130271 0.013136
4968.749000 4968.750000 0.500000 353.658319 15.560759 0.127782 0.012772
4969.001000 4969.000000 0.500000 424.753952 15.563547 0.124774 0.012324
4969.248000 4969.250000 0.500000 489.120462 15.567534 0.122746 0.012153
4969.496000 4969.500000 0.500000 514.767634 15.565614 0.121552 0.011850
4969.751000 4969.750000 0.500000 521.964520 15.567290 0.121192 0.011626
4969.996000 4970.000000 0.500000 516.243400 15.570967 0.121988 0.011793
4970.251000 4970.250000 0.500000 481.399296 15.579906 0.122951 0.011758
4970.500000 4970.500000 0.500000 449.449047 15.595472 0.124610 0.011900
4970.750000 4970.750000 0.500000 417.480379 15.605241 0.126167 0.012213
4971.001000 4971.000000 0.500000 387.212638 15.617963 0.127217 0.011750
4971.248000 4971.250000 0.500000 365.863923 15.620033 0.128572 0.012165
4971.502000 4971.500000 0.500000 339.368079 15.628133 0.129859 0.012111
4971.749000 4971.750000 0.500000 325.984524 15.633898 0.130563 0.011740
4972.003000 4972.000000 0.500000 323.861526 15.640488 0.130766 0.011742
4972.253000 4972.250000 0.500000 339.118539 15.645089 0.130209 0.011517
4972.500000 4972.500000 0.500000 361.787767 15.652753 0.129601 0.011182
4972.750000 4972.750000 0.500000 381.301408 15.659271 0.128983 0.011055
4973.000000 4973.000000 0.500000 389.734305 15.660046 0.128592 0.010760
4973.253000 4973.250000 0.500000 396.231946 15.662266 0.128543 0.010437
4973.497000 4973.500000 0.500000 390.919070 15.666406 0.129059 0.010419
4973.750000 4973.750000 0.500000 385.396765 15.708292 0.129402 0.010025
4974.000000 4974.000000 0.500000 382.985715 15.710666 0.129923 0.010122
4974.254000 4974.250000 0.500000 373.897551 15.711708 0.130224 0.009959
4974.500000 4974.500000 0.500000 369.795455 15.714632 0.130534 0.009796
4974.751000 4974.750000 0.500000 380.433213 15.719130 0.130524 0.009465
4974.999000 4975.000000 0.500000 384.591386 15.723261 0.130418 0.009434
4975.251000 4975.250000 0.500000 397.850003 15.722797 0.129883 0.009258
4975.501000 4975.500000 0.500000 420.270551 15.722201 0.129225 0.009260
4975.754000 4975.750000 0.500000 456.319681 15.723433 0.128324 0.009105
4976.001000 4976.000000 0.500000 472.773771 15.725175 0.127108 0.008776
4976.256000 4976.250000 0.500000 508.776572 15.723458 0.125938 0.008506
4976.500000 4976.500000 0.500000 543.096191 15.723282 0.124655 0.008051
4976.749000 4976.750000 0.500000 585.212913 15.726357 0.123284 0.008160
4976.999000 4977.000000 0.500000 630.878786 15.724612 0.121861 0.008063
4977.253000 4977.250000 0.500000 669.713219 15.723749 0.120358 0.007786
4977.498000 4977.500000 0.500000 703.897863 15.728379 0.119180 0.007666
4977.751000 4977.750000 0.500000 742.482684 15.733051 0.117851 0.007587
4978.001000 4978.000000 0.500000 784.984799 15.737117 0.116545 0.007622
4978.255000 4978.250000 0.500000 820.777504 15.742087 0.115355 0.007437
4978.501000 4978.500000 0.500000 850.246147 15.780194 0.114324 0.007265
4978.752000 4978.750000 0.500000 903.086252 15.781307 0.112865 0.007251
4979.001000 4979.000000 0.500000 943.153237 15.783872 0.111656 0.006994
4979.252000 4979.250000 0.500000 977.486614 15.786274 0.110401 0.007150
4979.500000 4979.500000 0.500000 1014.100837 15.784178 0.109102 0.006877
4979.755000 4979.750000 0.500000 1069.755015 15.783677 0.107797 0.006917
4980.002000 4980.000000 0.500000 1116.219212 15.781806 0.106021 0.006763
4980.250000 4980.250000 0.500000 1178.490550 15.819299 0.104288 0.006703
4980.499000 4980.500000 0.500000 1242.489494 15.820002 0.102298 0.006502
4980.751000 4980.750000 0.500000 1300.304010 15.817689 0.100066 0.006356
4981.000000 4981.000000 0.500000 1375.557888 15.817547 0.098010 0.006215
4981.253000 4981.250000 0.500000 1469.513818 15.815633 0.095643 0.006189
4981.500000 4981.500000 0.500000 1538.278170 15.820206 0.093192 0.006005
4981.752000 4981.750000 0.500000 1633.439130 15.826425 0.090614 0.005882
4982.001000 4982.000000 0.500000 1732.998204 15.830523 0.087980 0.005782
4982.250000 4982.250000 0.500000 1836.111739 15.831548 0.084750 0.005557
4982.500000 4982.500000 0.500000 1927.296205 15.834714 0.082042 0.005681
4982.750000 4982.750000 0.500000 2046.210541 15.843121 0.079109 0.005389
4983.001000 4983.000000 0.500000 2154.313908 15.846074 0.076659 0.005261
4983.252000 4983.250000 0.500000 2229.152704 15.847415 0.074421 0.005185
4983.501000 4983.500000 0.500000 2313.552239 15.848171 0.072384 0.005011
4983.751000 4983.750000 0.500000 2376.416736 15.850556 0.070723 0.004956
4984.001000 4984.000000 0.500000 2428.182145 15.853381 0.069604 0.005022
4984.251000 4984.250000 0.500000 2467.718383 15.855349 0.068452 0.004778
4984.498000 4984.500000 0.500000 2516.644809 15.856562 0.067689 0.004886
4984.751000 4984.750000 0.500000 2537.250607 15.856506 0.066902 0.004835
4985.000000 4985.000000 0.500000 2563.614715 15.862806 0.066585 0.005014
4985.255000 4985.250000 0.500000 2569.310388 15.863439 0.065958 0.004776
4985.500000 4985.500000 0.500000 2601.069574 15.866542 0.065968 0.004902
4985.752000 4985.750000 0.500000 2587.847081 15.870205 0.065762 0.004924
4985.999000 4986.000000 0.500000 2603.947915 15.873481 0.065762 0.004987
4986.251000 4986.250000 0.500000 2600.775186 15.874160 0.065849 0.004922
4986.499000 4986.500000 0.500000 2606.566374 15.874787 0.065990 0.005059
4986.754000 4986.750000 0.500000 2614.795914 15.873687 0.065930 0.004957
4987.000000 4987.000000 0.500000 2610.153692 15.875702 0.065778 0.005029
4987.256000 4987.250000 0.500000 2631.542783 15.874115 0.065648 0.004924
4987.502000 4987.500000 0.500000 2609.612451 15.875864 0.065575 0.004885
4987.751000 4987.750000 0.500000 2620.536707 15.875977 0.065715 0.005000
4988.001000 4988.000000 0.500000 2622.716818 15.882222 0.066088 0.004841
4988.251000 4988.250000 0.500000 2608.864045 15.890473 0.066455 0.005035
4988.502000 4988.500000 0.500000 2582.426816 15.902515 0.066934 0.005092
4988.752000 4988.750000 0.500000 2574.108760 15.913437 0.067494 0.005146
4989.004000 4989.000000 0.500000 2562.092688 15.927663 0.068053 0.005147
4989.253000 4989.250000 0.500000 2527.241691 15.939350 0.068555 0.005128
4989.500000 4989.500000 0.500000 2519.022221 15.956699 0.068949 0.005013
4989.748000 4989.750000 0.500000 2506.161754 15.971376 0.069558 0.005170
4990.004000 4990.000000 0.500000 2488.851115 15.985007 0.070091 0.005258
4990.251000 4990.250000 0.500000 2484.916363 15.998246 0.070441 0.005225
4990.503000 4990.500000 0.500000 2480.055551 16.009563 0.071008 0.005343
4990.752000 4990.750000 0.500000 2446.395171 16.026972 0.071145 0.005269
4991.005000 4991.000000 0.500000 2440.936001 16.041413 0.071769 0.005307
4991.251000 4991.250000 0.500000 2432.499839 16.051814 0.072193 0.005374
4991.500000 4991.500000 0.500000 2418.857191 16.063356 0.072531 0.005294
4991.749000 4991.750000 0.500000 2416.276825 16.073899 0.072878 0.005362
4992.000000 4992.000000 0.500000 2393.612619 16.087479 0.073213 0.005392
4992.250000 4992.250000 0.500000 2403.854633 16.098208 0.073357 0.005087
4992.499000 4992.500000 0.500000 2395.470457 16.111122 0.073962 0.005355
4992.752000 4992.750000 0.500000 2369.806073 16.116332 0.074284 0.005440
4993.002000 4993.000000 0.500000 2393.924832 16.122463 0.074500 0.005539
4993.250000 4993.250000 0.500000 2374.035769 16.128500 0.074651 0.005492
4993.497000 4993.500000 0.500000 2370.396934 16.138429 0.074863 0.005506
4993.752000 4993.750000 0.500000 2379.835225 16.146557 0.075104 0.005674
4994.001000 4994.000000 0.500000 2365.996692 16.153188 0.074779 0.005321
4994.252000 4994.250000 0.500000 2390.443676 16.160758 0.074965 0.005445
4994.503000 4994.500000 0.500000 2390.751525 16.164747 0.074702 0.005483
4994.753000 4994.750000 0.500000 2399.197553 16.169848 0.074403 0.005331
4995.002000 4995.000000 0.500000 2416.709984 16.175921 0.074521 0.005443
4995.248000 4995.250000 0.500000 2436.506462 16.181844 0.073959 0.005431
4995.501000 4995.500000 0.500000 2455.695762 16.183632 0.073675 0.005245
4995.749000 4995.750000 0.500000 2459.427721 16.189211 0.073171 0.005357
4996.001000 4996.000000 0.700000 2478.806436 22.659241 0.101874 0.007309
4997.091000 4997.080000 0.710000 2578.958937 23.015950 0.100937 0.007159
4998.187000 4998.180000 0.730000 2627.355724 23.672215 0.102045 0.007103
4999.297000 4999.290000 0.740000 2643.627148 24.019254 0.103487 0.007146
5000.437000 5000.430000 0.750000 2622.355184 24.385723 0.106190 0.007180
5001.589000 5001.580000 0.760000 2612.855201 24.765499 0.109185 0.007662
5002.765000 5002.760000 0.780000 2582.823215 25.477794 0.113619 0.007869
5003.957000 5003.950000 0.790000 2518.868455 25.874988 0.119209 0.008080
5005.168000 5005.160000 0.800000 2425.978590 26.273605 0.125855 0.008587
5006.395000 5006.390000 0.810000 2312.373765 26.675256 0.133215 0.009091
5007.648000 5007.640000 0.830000 2237.052126 27.402487 0.140352 0.009427
5008.917000 5008.910000 0.840000 2200.890295 27.799914 0.145523 0.009834
5010.205000 5010.200000 0.850000 2138.910392 28.198371 0.151110 0.010642
5011.514000 5011.510000 0.860000 2111.427479 28.591075 0.156443 0.011047
5012.835000 5012.830000 0.880000 2081.463326 29.310108 0.162056 0.011283
5014.185000 5014.180000 0.890000 2075.885322 29.698369 0.165426 0.011351
5015.544000 5015.540000 0.900000 2061.986550 30.116319 0.169073 0.011866
5016.934000 5016.930000 0.910000 2071.405765 30.544500 0.171893 0.012029
5018.337000 5018.330000 0.930000 2093.774192 31.277840 0.176005 0.012662
5019.754000 5019.750000 0.940000 2084.598094 31.680865 0.179366 0.013057
5021.193000 5021.190000 0.950000 2067.824120 32.081356 0.184004 0.013467
5022.654000 5022.650000 0.960000 2044.125106 32.488455 0.188411 0.013433
5024.137000 5024.130000 0.980000 2046.376194 33.238143 0.194393 0.014024
5025.638000 5025.630000 0.990000 2054.373497 33.649726 0.197004 0.014135
5027.147000 5027.140000 1.000000 2071.033810 34.060650 0.200046 0.014400
5028.685000 5028.680000 1.010000 2081.242308 34.549893 0.203242 0.014654
5030.243000 5030.240000 1.030000 2094.904932 35.307322 0.207775 0.014792
5031.814000 5031.810000 1.040000 2104.478500 35.728533 0.210129 0.014544
5033.403000 5033.400000 1.050000 2116.209801 36.138528 0.213627 0.014658
5035.015000 5035.010000 1.060000 2125.241970 36.551647 0.216429 0.014364
5036.656000 5036.650000 1.080000 2147.681728 37.318195 0.222073 0.014735
5038.305000 5038.300000 1.090000 2151.055927 37.742661 0.225058 0.014796
5039.975000 5039.970000 1.100000 2150.349634 38.207952 0.228108 0.014984
5041.647000 5041.650000 1.110000 2179.728449 38.669070 0.231850 0.015265
5043.357000 5043.360000 1.130000 2185.064932 39.440508 0.237250 0.015846
5045.089000 5045.090000 1.140000 2189.387988 39.856456 0.240631 0.016128
5046.828000 5046.830000 1.150000 2205.746316 40.277722 0.243451 0.016180
5048.598000 5048.600000 1.160000 2227.074538 40.710851 0.245902 0.016821
5050.376000 5050.380000 1.180000 2268.206263 41.488884 0.250465 0.017534
5052.175000 5052.180000 1.190000 2284.066159 41.920721 0.253010 0.017730
5053.995000 5054.000000 1.200000 2303.599281 42.360152 0.255266 0.018406
5055.835000 5055.840000 1.210000 2329.592904 42.794161 0.258108 0.018711
5057.693000 5057.700000 1.230000 2345.677412 43.590923 0.263500 0.019123
5059.575000 5059.580000 1.240000 2353.258568 44.033756 0.266440 0.019294
5061.473000 5061.480000 1.250000 2371.950107 44.466433 0.269570 0.019662
5063.395000 5063.400000 1.260000 2386.721197 44.917148 0.273582 0.019976
5065.325000 5065.330000 1.280000 2394.499709 45.725478 0.280322 0.020739
5067.283000 5067.290000 1.290000 2385.604296 46.169707 0.285333 0.021067
5069.255000 5069.260000 1.300000 2378.010365 46.612005 0.290843 0.021796
5071.255000 5071.260000 1.310000 2378.821687 47.062473 0.296222 0.021966
5073.265000 5073.270000 1.330000 2358.590794 47.868880 0.304562 0.022572
5075.296000 5075.300000 1.340000 2346.845002 48.307941 0.311654 0.023054
5077.345000 5077.350000 1.350000 2329.586311 48.752402 0.318352 0.023191
5079.416000 5079.420000 1.360000 2319.891859 49.198483 0.325029 0.023493
5081.509000 5081.510000 1.380000 2312.771652 49.997409 0.333830 0.023759
5083.609000 5083.610000 1.390000 2306.427659 50.432980 0.339065 0.023652
5085.742000 5085.740000 1.400000 2306.854131 50.889873 0.345092 0.023789
5087.886000 5087.890000 1.410000 2308.662346 51.321114 0.351482 0.024275
5090.051000 5090.050000 1.430000 2292.245250 52.126274 0.360405 0.024634
5092.234000 5092.230000 1.440000 2288.641620 52.560787 0.368031 0.024914
5094.441000 5094.440000 1.450000 2269.225473 53.006030 0.374605 0.025631
5096.658000 5096.660000 1.460000 2266.147644 53.453559 0.382477 0.026638
5098.898000 5098.900000 1.480000 2264.236882 54.257572 0.391840 0.027771
5101.160000 5101.160000 1.490000 2269.468003 54.697394 0.397408 0.028746
5103.436000 5103.440000 1.500000 2278.537517 55.144887 0.402775 0.029751
5105.738000 5105.740000 1.510000 2290.977509 55.586643 0.407362 0.030565
5108.051000 5108.050000 1.530000 2299.083313 56.390627 0.415305 0.031270
5110.392000 5110.390000 1.540000 2314.193887 56.842019 0.421535 0.031747
