# XDI/1.0 BlueSky/1.10.0 BMM/2023-1.0-py310-tiled
# Beamline.name: BMM (06BM) -- Beamline for Materials Measurement (NIST)
# Beamline.xray_source: NSLS-II three-pole wiggler
# Beamline.collimation: paraboloid mirror, 5 nm Rh on 30 nm Pt
# Beamline.focusing: not in use
# Beamline.harmonic_rejection: flat mirror, Pt stripe, pitch = 7.0 mrad relative to beam
# Beamline.software: Bluesky 1.10.0, Ophyd 1.7.0, DataBroker 2.0.0b13, Python 3.10.8, 2023-1.0-py310-tiled
# Detector.I0: 10 cm N2
# Detector.I1: 25 cm N2
# Detector.I2: 25 cm N2
# Element.symbol: Bi
# Element.edge: L1
# Element.reference: Bi
# Element.reference_material: BiO2
# Facility.name: NSLS-II
# Facility.energy: 3.0
# Facility.current: 399.9
# Facility.mode: top-off
# Facility.GUP: 301027
# Facility.SAF: 310583
# Facility.cycle: 2023-2
# Mono.name: Si(111)
# Mono.d_spacing: 3.1351860
# Mono.encoder_resolution: 0.0000050 deg/ct
# Mono.angle_offset: 16.0754326 deg
# Mono.scan_mode: pseudo channel cut
# Mono.scan_type: step
# Mono.direction: forward in energy
# Sample.name: Bi
# Sample.prep: powder in PEG pellet
# Sample.x: 143.785 mm
# Sample.y: 114.695 mm
# Sample.SDD_position: 205.000 mm
# Scan.experimenters: Bruce Ravel
# Scan.edge_energy: 16387.5
# Scan.start_time: 2023-06-23T18:50:08
# Scan.end_time: 2023-06-23T18:57:34
# Scan.transient_id: 84948
# Scan.uid: f21fda1c-aac2-4082-9c27-df7740e031d7
# Scan.plot_hint: ln(I0/It)  --  ln($5/$6)
# Column.1: energy eV
# Column.2: requested_energy eV
# Column.3: measurement_time seconds
# Column.4: xmu 
# Column.5: I0 nA
# Column.6: It nA
# Column.7: Ir nA
# ///////////
# BMM standards collection
# -----------
# energy  requested_energy  measurement_time  xmu  I0  It  Ir
  16187.472  16187.500  0.500  0.406384  20.282640  13.509337  5.109276
  16197.476  16197.500  0.500  0.405684  20.265129  13.507128  5.115158
  16207.492  16207.500  0.500  0.404720  20.227440  13.495009  5.115899
  16217.440  16217.500  0.500  0.404090  20.196183  13.482650  5.119461
  16227.873  16227.500  0.500  0.403236  20.151824  13.464529  5.118369
  16237.604  16237.500  0.500  0.402369  20.125912  13.458883  5.124166
  16247.450  16247.500  0.500  0.401735  20.129628  13.469907  5.133581
  16257.436  16257.500  0.500  0.401034  20.086125  13.450223  5.131834
  16267.434  16267.500  0.500  0.400334  20.064284  13.445002  5.136707
  16277.456  16277.500  0.500  0.399799  20.004966  13.412429  5.129780
  16287.444  16287.500  0.500  0.399221  19.955781  13.387185  5.127045
  16297.445  16297.500  0.500  0.398514  19.907106  13.363978  5.123043
  16307.469  16307.500  0.500  0.397864  19.842297  13.329126  5.115329
  16317.460  16317.500  0.500  0.397265  19.837986  13.334221  5.120263
  16327.462  16327.500  0.500  0.396736  19.785840  13.306207  5.112884
  16337.466  16337.500  0.500  0.396095  19.740194  13.284022  5.104518
  16347.470  16347.500  0.500  0.395992  19.708246  13.263893  5.096022
  16357.486  16357.500  0.500  0.396289  19.665981  13.231510  5.075681
  16359.432  16359.500  0.500  0.396361  19.668517  13.232265  5.072903
  16361.426  16361.500  0.500  0.396533  19.646946  13.215477  5.063602
  16363.432  16363.500  0.500  0.396734  19.633330  13.203668  5.055377
  16365.414  16365.500  0.500  0.396947  19.627419  13.196887  5.046363
  16367.409  16367.500  0.500  0.397555  19.618422  13.182817  5.036039
  16369.405  16369.500  0.500  0.397724  19.589203  13.160954  5.019110
  16371.389  16371.500  0.500  0.398433  19.552422  13.126933  4.995501
  16373.409  16373.500  0.500  0.399544  19.519022  13.089958  4.970580
  16375.418  16375.500  0.500  0.400566  19.542165  13.092087  4.953857
  16377.438  16377.500  0.500  0.401810  19.573351  13.096686  4.933354
  16377.732  16377.800  0.500  0.402060  19.568869  13.090413  4.928064
  16378.026  16378.100  0.500  0.402410  19.565650  13.083684  4.922603
  16378.320  16378.400  0.500  0.402800  19.569158  13.080924  4.916439
  16378.637  16378.700  0.500  0.403019  19.564589  13.075002  4.909960
  16378.907  16379.000  0.500  0.403352  19.562638  13.069341  4.902599
  16379.237  16379.300  0.500  0.403688  19.562012  13.064544  4.895934
  16379.554  16379.600  0.500  0.404002  19.557109  13.057157  4.888612
  16379.848  16379.900  0.500  0.404235  19.554146  13.052143  4.881561
  16380.153  16380.200  0.500  0.404768  19.548803  13.041621  4.870898
  16380.436  16380.500  0.500  0.405151  19.551001  13.038099  4.864885
  16380.729  16380.800  0.500  0.405554  19.554310  13.035049  4.856420
  16381.059  16381.100  0.500  0.406066  19.549384  13.025088  4.845917
  16381.353  16381.400  0.500  0.406313  19.543700  13.018091  4.836052
  16381.670  16381.700  0.500  0.406926  19.542575  13.009369  4.825468
  16381.952  16382.000  0.500  0.407594  19.537679  12.997426  4.812921
  16382.234  16382.300  0.500  0.408090  19.538279  12.991369  4.802329
  16382.552  16382.600  0.500  0.408560  19.536461  12.984064  4.790849
  16382.881  16382.900  0.500  0.408989  19.529681  12.973991  4.776954
  16383.199  16383.200  0.500  0.410115  19.527682  12.958060  4.761565
  16383.504  16383.500  0.500  0.410825  19.531660  12.951499  4.748607
  16383.775  16383.800  0.500  0.411286  19.538282  12.949916  4.736112
  16384.069  16384.100  0.500  0.412222  19.533097  12.934375  4.721967
  16384.363  16384.400  0.500  0.413171  19.513822  12.909358  4.699988
  16384.669  16384.700  0.500  0.413867  19.522848  12.906332  4.686060
  16384.974  16385.000  0.500  0.414859  19.513602  12.887432  4.664593
  16385.292  16385.300  0.500  0.415705  19.527198  12.885506  4.649422
  16385.574  16385.600  0.500  0.416536  19.512056  12.864819  4.626460
  16385.857  16385.900  0.500  0.417649  19.502120  12.843965  4.606595
  16386.162  16386.200  0.500  0.418374  19.502616  12.834986  4.587202
  16386.480  16386.500  0.500  0.419533  19.505386  12.821944  4.565699
  16386.798  16386.800  0.500  0.420549  19.502016  12.806700  4.543423
  16387.092  16387.100  0.500  0.421679  19.494715  12.787459  4.518471
  16387.386  16387.400  0.500  0.422598  19.496115  12.776630  4.498247
  16387.668  16387.700  0.500  0.423530  19.504177  12.769996  4.478025
  16387.974  16388.000  0.500  0.424570  19.506835  12.758469  4.458214
  16388.268  16388.300  0.500  0.425647  19.486740  12.731601  4.429787
  16388.563  16388.600  0.500  0.426445  19.486065  12.721011  4.409064
  16388.869  16388.900  0.500  0.427407  19.482905  12.706710  4.385086
  16389.175  16389.200  0.500  0.428555  19.488987  12.696101  4.364903
  16389.457  16389.500  0.500  0.429419  19.481202  12.680061  4.341432
  16389.763  16389.800  0.500  0.430051  19.481595  12.672310  4.322113
  16390.045  16390.100  0.500  0.430853  19.486202  12.665146  4.304604
  16390.363  16390.400  0.500  0.431725  19.474914  12.646771  4.282790
  16390.669  16390.700  0.500  0.432604  19.476047  12.636395  4.263606
  16390.987  16391.000  0.500  0.433058  19.470389  12.626987  4.246719
  16391.258  16391.300  0.500  0.433586  19.469872  12.619989  4.234165
  16391.564  16391.600  0.500  0.433993  19.470349  12.615163  4.220671
  16391.858  16391.900  0.500  0.434244  19.470951  12.612386  4.211221
  16392.176  16392.200  0.500  0.434673  19.461344  12.600754  4.199074
  16392.470  16392.500  0.500  0.434715  19.460840  12.599903  4.191281
  16392.765  16392.800  0.500  0.434975  19.466806  12.600490  4.186955
  16393.071  16393.100  0.500  0.435042  19.459157  12.594695  4.182013
  16393.341  16393.400  0.500  0.435112  19.453044  12.589859  4.178353
  16393.659  16393.700  0.500  0.435274  19.456113  12.589809  4.178604
  16393.989  16394.000  0.500  0.435079  19.443094  12.583836  4.177075
  16394.307  16394.300  0.500  0.435095  19.444795  12.584733  4.180458
  16394.590  16394.600  0.500  0.435178  19.460830  12.594067  4.186385
  16394.872  16394.900  0.500  0.434812  19.458942  12.597460  4.191364
  16395.178  16395.200  0.500  0.434894  19.442010  12.585460  4.194325
  16395.485  16395.500  0.500  0.434685  19.440347  12.587014  4.200394
  16395.803  16395.800  0.500  0.434454  19.436470  12.587406  4.206936
  16396.097  16396.100  0.500  0.434202  19.450932  12.599955  4.219413
  16396.403  16396.400  0.500  0.434004  19.427979  12.587578  4.221161
  16396.651  16396.700  0.500  0.433972  19.430820  12.589814  4.230428
  16396.980  16397.000  0.500  0.433723  19.427044  12.590508  4.239912
  16397.299  16397.300  0.500  0.433434  19.437447  12.600887  4.251697
  16397.628  16397.600  0.500  0.433382  19.411548  12.584758  4.254820
  16397.911  16397.900  0.500  0.433241  19.424306  12.594807  4.265027
  16398.206  16398.200  0.500  0.432837  19.410654  12.591036  4.270822
  16398.500  16398.500  0.500  0.432774  19.409348  12.590976  4.278562
  16398.795  16398.800  0.500  0.432556  19.408429  12.593132  4.286205
  16399.101  16399.100  0.500  0.432477  19.408011  12.593855  4.292738
  16399.419  16399.400  0.500  0.432440  19.407560  12.594029  4.300806
  16399.702  16399.700  0.500  0.432141  19.399182  12.592350  4.304746
  16399.973  16400.000  0.500  0.432064  19.402802  12.595669  4.313045
  16400.303  16400.300  0.500  0.431988  19.395562  12.591931  4.316822
  16400.609  16400.600  0.500  0.432028  19.398755  12.593497  4.322687
  16400.928  16400.900  0.500  0.432024  19.389217  12.587355  4.326160
  16401.222  16401.200  0.500  0.431762  19.387074  12.589266  4.330876
  16401.493  16401.500  0.500  0.431756  19.379748  12.584578  4.333556
  16401.776  16401.800  0.500  0.431740  19.375744  12.582191  4.335469
  16402.106  16402.100  0.500  0.431700  19.373545  12.581263  4.339422
  16402.413  16402.400  0.500  0.431765  19.368361  12.577081  4.341584
  16402.707  16402.700  0.500  0.431567  19.363508  12.576415  4.344924
  16403.002  16403.000  0.500  0.431788  19.373478  12.580111  4.350069
  16403.297  16403.300  0.500  0.431570  19.361679  12.575195  4.349159
  16403.603  16403.600  0.500  0.431779  19.358695  12.570622  4.352020
  16403.910  16403.900  0.500  0.431861  19.373643  12.579302  4.358047
  16404.228  16404.200  0.500  0.431625  19.366953  12.577926  4.359562
  16404.511  16404.500  0.500  0.431758  19.361639  12.572799  4.360290
  16404.817  16404.800  0.500  0.431603  19.367515  12.578571  4.363658
  16405.100  16405.100  0.500  0.431684  19.362994  12.574615  4.365458
  16405.383  16405.400  0.500  0.431739  19.373196  12.580541  4.368017
  16405.678  16405.700  0.500  0.431662  19.382824  12.587765  4.372486
  16406.008  16406.000  0.500  0.431671  19.355131  12.569666  4.367917
  16406.303  16406.300  0.500  0.431723  19.354370  12.568524  4.370362
  16406.563  16406.600  0.500  0.431807  19.364021  12.573729  4.374564
  16406.881  16406.900  0.500  0.431885  19.361822  12.571321  4.374443
  16407.200  16407.200  0.500  0.431840  19.367236  12.575402  4.377018
  16407.506  16407.500  0.500  0.432073  19.373864  12.576770  4.379067
  16407.801  16407.800  0.500  0.431747  19.349363  12.564967  4.377003
  16408.084  16408.100  0.500  0.431916  19.349224  12.562754  4.378025
  16408.379  16408.400  0.500  0.431781  19.351705  12.566060  4.380670
  16408.698  16408.700  0.500  0.431838  19.361093  12.571435  4.383261
  16408.992  16409.000  0.500  0.431936  19.340506  12.556837  4.380109
  16409.299  16409.300  0.500  0.431872  19.345134  12.560649  4.382586
  16409.571  16409.600  0.500  0.431664  19.351017  12.567088  4.385453
  16409.865  16409.900  0.500  0.431755  19.344199  12.561508  4.384553
  16410.184  16410.200  0.500  0.431747  19.338630  12.557998  4.387008
  16410.514  16410.500  0.500  0.431805  19.336015  12.555564  4.386961
  16410.798  16410.800  0.500  0.431663  19.341030  12.560614  4.389342
  16411.081  16411.100  0.500  0.431740  19.342701  12.560732  4.390789
  16411.376  16411.400  0.500  0.431642  19.335399  12.557221  4.392004
  16411.694  16411.700  0.500  0.431411  19.324418  12.552987  4.390159
  16411.989  16412.000  0.500  0.431402  19.322455  12.551820  4.391569
  16412.308  16412.300  0.500  0.431522  19.330483  12.555532  4.395310
  16412.497  16412.500  0.500  0.431448  19.323222  12.551742  4.392972
  16413.512  16413.490  0.500  0.431041  19.318344  12.553683  4.397915
  16414.492  16414.490  0.500  0.430833  19.315736  12.554595  4.400088
  16415.554  16415.510  0.500  0.430626  19.320399  12.560232  4.403620
  16416.581  16416.560  0.500  0.430175  19.307068  12.557232  4.403117
  16417.632  16417.620  0.500  0.430270  19.303300  12.553587  4.400571
  16418.742  16418.700  0.500  0.430145  19.373437  12.600776  4.416702
  16419.853  16419.800  0.500  0.429874  19.366865  12.599912  4.412377
  16420.940  16420.920  0.500  0.429787  19.359571  12.596258  4.408272
  16422.086  16422.060  0.500  0.429657  19.343560  12.587474  4.399778
  16423.232  16423.210  0.500  0.430054  19.363818  12.595664  4.400632
  16424.425  16424.390  0.500  0.429998  19.364183  12.596603  4.396863
  16425.584  16425.580  0.500  0.429862  19.358252  12.594454  4.392831
  16426.790  16426.800  0.500  0.429727  19.348038  12.589510  4.388228
  16428.019  16428.030  0.500  0.430086  19.353812  12.588747  4.386551
  16429.285  16429.280  0.500  0.429887  19.340043  12.582293  4.382137
  16430.562  16430.550  0.500  0.429910  19.341182  12.582747  4.379739
  16431.875  16431.840  0.500  0.429893  19.324540  12.572129  4.376182
  16433.164  16433.150  0.500  0.429990  19.336733  12.578852  4.377965
  16434.525  16434.480  0.500  0.429773  19.312746  12.565971  4.372473
  16435.862  16435.830  0.500  0.429668  19.295606  12.556140  4.368532
  16437.224  16437.200  0.500  0.429734  19.290889  12.552234  4.367136
  16438.585  16438.580  0.500  0.429606  19.274420  12.543129  4.364667
  16439.982  16439.990  0.500  0.429623  19.260782  12.534037  4.361501
  16441.427  16441.410  0.500  0.429567  19.268178  12.539552  4.365258
  16442.849  16442.850  0.500  0.429490  19.247071  12.526784  4.359808
  16444.318  16444.310  0.500  0.429286  19.232345  12.519749  4.358277
  16445.799  16445.790  0.500  0.429245  19.231754  12.519877  4.358772
  16447.292  16447.290  0.500  0.428804  19.248226  12.536128  4.364538
  16448.857  16448.810  0.500  0.428594  19.243833  12.535899  4.366533
  16450.386  16450.350  0.500  0.428481  19.244336  12.537651  4.368695
  16451.927  16451.910  0.500  0.428138  19.246805  12.543550  4.372939
  16453.505  16453.480  0.500  0.428048  19.227025  12.531787  4.371044
  16455.094  16455.080  0.500  0.427795  19.221414  12.531306  4.373775
  16456.732  16456.690  0.500  0.427678  19.211885  12.526557  4.376135
  16458.334  16458.330  0.500  0.427716  19.198853  12.517588  4.375673
  16459.996  16459.980  0.500  0.427309  19.191510  12.517891  4.380450
  16461.634  16461.650  0.500  0.427404  19.168163  12.501470  4.377994
  16463.332  16463.340  0.500  0.427131  19.179590  12.512344  4.383953
  16465.042  16465.050  0.500  0.427057  19.177816  12.512117  4.387149
  16466.812  16466.780  0.500  0.427098  19.171740  12.507632  4.388105
  16468.559  16468.530  0.500  0.427103  19.162120  12.501294  4.388349
  16470.318  16470.290  0.500  0.426894  19.155947  12.499887  4.390143
  16472.125  16472.080  0.500  0.427045  19.143380  12.489797  4.387944
  16473.932  16473.880  0.500  0.426645  19.141044  12.493272  4.388323
  16475.728  16475.710  0.500  0.426442  19.136481  12.492821  4.389963
  16477.536  16477.550  0.500  0.426407  19.119438  12.482140  4.386968
  16479.392  16479.410  0.500  0.426275  19.116608  12.481935  4.388444
  16481.308  16481.290  0.500  0.426052  19.099621  12.473622  4.386037
  16483.212  16483.190  0.500  0.425999  19.106233  12.478608  4.388586
  16485.153  16485.110  0.500  0.425735  19.080280  12.464949  4.382831
  16487.034  16487.050  0.500  0.425546  19.081492  12.468097  4.385171
  16489.047  16489.010  0.500  0.425303  19.084041  12.472784  4.387578
  16491.001  16490.980  0.500  0.425335  19.056830  12.454608  4.382964
  16493.015  16492.980  0.500  0.425052  19.052661  12.455401  4.384001
  16495.006  16494.990  0.500  0.425099  19.046620  12.450868  4.382974
  16497.021  16497.020  0.500  0.424713  19.057757  12.462956  4.387908
  16499.084  16499.080  0.500  0.424471  19.022375  12.442830  4.380635
  16501.184  16501.150  0.500  0.424461  19.016478  12.439096  4.380606
  16503.272  16503.240  0.500  0.424095  19.003733  12.435311  4.380434
  16505.384  16505.350  0.500  0.424289  19.000525  12.430799  4.379706
  16507.533  16507.480  0.500  0.424015  18.994057  12.429974  4.380462
  16509.635  16509.620  0.500  0.423679  19.004029  12.440687  4.384960
  16511.797  16511.790  0.500  0.423760  18.977159  12.422084  4.380770
  16513.971  16513.980  0.500  0.423441  18.965870  12.418663  4.380157
  16516.170  16516.180  0.500  0.423233  18.958726  12.416561  4.379380
  16518.442  16518.400  0.500  0.423052  18.938356  12.405467  4.378158
  16520.654  16520.650  0.500  0.423063  18.926538  12.397590  4.376690
  16522.938  16522.910  0.500  0.422547  18.921239  12.400513  4.378701
  16525.211  16525.190  0.500  0.422506  18.922833  12.402067  4.381532
  16527.485  16527.490  0.500  0.422304  18.914387  12.399042  4.384710
  16529.831  16529.810  0.500  0.422234  18.899547  12.390176  4.383289
  16532.131  16532.150  0.500  0.421861  18.884317  12.384817  4.381654
  16534.514  16534.500  0.500  0.421898  18.889676  12.387867  4.385932
  16536.910  16536.880  0.500  0.421640  18.869635  12.377922  4.384370
  16539.319  16539.270  0.500  0.421386  18.855395  12.371713  4.384654
  16541.729  16541.690  0.500  0.421112  18.858170  12.376935  4.387702
  16544.151  16544.120  0.500  0.420987  18.842462  12.368169  4.386749
  16546.562  16546.570  0.500  0.420949  18.802456  12.342379  4.380629
  16549.046  16549.050  0.500  0.420534  18.796192  12.343386  4.381143
  16551.566  16551.540  0.500  0.420465  18.800835  12.347280  4.385180
  16554.087  16554.050  0.500  0.420454  18.795185  12.343711  4.387483
  16556.609  16556.570  0.500  0.420057  18.780764  12.339135  4.386515
  16559.144  16559.120  0.500  0.419821  18.769067  12.334364  4.387252
  16561.704  16561.690  0.500  0.419495  18.751908  12.327102  4.384695
  16564.288  16564.270  0.500  0.419467  18.753212  12.328303  4.389124
  16566.898  16566.880  0.500  0.419322  18.741184  12.322185  4.389449
  16569.472  16569.500  0.500  0.418906  18.730651  12.320390  4.390013
  16572.179  16572.150  0.500  0.418611  18.715333  12.313945  4.389044
  16574.839  16574.810  0.500  0.418368  18.710049  12.313459  4.390460
  16577.512  16577.490  0.500  0.418206  18.692268  12.303743  4.390184
  16580.210  16580.190  0.500  0.417991  18.686384  12.302526  4.390763
  16582.933  16582.910  0.500  0.417892  18.678969  12.298855  4.389974
  16585.693  16585.650  0.500  0.417577  18.665965  12.294165  4.390722
  16588.429  16588.400  0.500  0.417372  18.651475  12.287145  4.389641
  16591.215  16591.180  0.500  0.417108  18.632510  12.277882  4.387092
  16594.014  16593.970  0.500  0.417009  18.639270  12.283554  4.388635
  16596.814  16596.790  0.500  0.416850  18.631040  12.280083  4.389252
  16599.639  16599.620  0.500  0.416833  18.608455  12.265405  4.384582
  16602.489  16602.470  0.500  0.416502  18.588138  12.256077  4.383622
  16605.376  16605.350  0.500  0.416352  18.576926  12.250515  4.383640
  16608.265  16608.240  0.500  0.416214  18.571111  12.248377  4.384891
  16611.178  16611.150  0.500  0.415903  18.555328  12.241765  4.383992
  16614.081  16614.070  0.500  0.415750  18.542039  12.234873  4.384587
  16617.032  16617.020  0.500  0.415525  18.522252  12.224573  4.382047
  16620.022  16619.990  0.500  0.415451  18.521341  12.224869  4.386323
  16623.024  16622.970  0.500  0.415195  18.515842  12.224377  4.387625
  16626.016  16625.980  0.500  0.414683  18.496776  12.218043  4.387278
  16629.044  16629.000  0.500  0.414597  18.502257  12.222713  4.391983
  16632.074  16632.050  0.500  0.414037  18.475359  12.211782  4.389862
