# XDI/1.0 BlueSky/1.10.0 BMM/2023-1.0-py310-tiled
# Beamline.name: BMM (06BM) -- Beamline for Materials Measurement (NIST)
# Beamline.xray_source: NSLS-II three-pole wiggler
# Beamline.collimation: paraboloid mirror, 5 nm Rh on 30 nm Pt
# Beamline.focusing: not in use
# Beamline.harmonic_rejection: flat mirror, Pt stripe, pitch = 7.0 mrad relative to beam
# Beamline.software: Bluesky 1.10.0, Ophyd 1.7.0, DataBroker 2.0.0b13, Python 3.10.8, 2023-1.0-py310-tiled
# Detector.I0: 10 cm N2
# Detector.I1: 25 cm N2
# Detector.I2: 25 cm N2
# Element.symbol: Tb
# Element.edge: L1
# Element.reference: Tb
# Element.reference_material: Tb4O9
# Facility.name: NSLS-II
# Facility.energy: 3.0
# Facility.current: 399.8
# Facility.mode: top-off
# Facility.GUP: 123456
# Facility.SAF: 301027
# Facility.cycle: 2023-2
# Mono.name: Si(111)
# Mono.d_spacing: 3.1351860
# Mono.encoder_resolution: 0.0000050 deg/ct
# Mono.angle_offset: 16.0754326 deg
# Mono.scan_mode: pseudo channel cut
# Mono.scan_type: step
# Mono.direction: forward in energy
# Sample.name: Tb2TiO5
# Sample.prep: Powder in PEG pellet
# Sample.x: 149.848 mm
# Sample.y: 114.690 mm
# Sample.SDD_position: 205.000 mm
# Scan.experimenters: Bruce Ravel
# Scan.edge_energy: 8708.0
# Scan.start_time: 2023-05-08T21:59:42
# Scan.end_time: 2023-05-08T22:05:28
# Scan.transient_id: 75654
# Scan.uid: a39cba29-b299-4d78-a8a5-86106ce93a7a
# Scan.plot_hint: ln(I0/It)  --  ln($5/$6)
# Column.1: energy eV
# Column.2: requested_energy eV
# Column.3: measurement_time seconds
# Column.4: xmu 
# Column.5: I0 nA
# Column.6: It nA
# Column.7: Ir nA
# ///////////
# sample courtesy Martin Stennett, University of Sheffield
# -----------
# energy  requested_energy  measurement_time  xmu  I0  It  Ir
  8508.032  8508.000  0.500  0.979068  128.539170  48.287164  10.611527
  8518.093  8518.000  0.500  0.973736  128.318987  48.462148  10.697605
  8528.081  8528.000  0.500  0.969175  127.336060  48.310801  10.711652
  8538.063  8538.000  0.500  0.965192  127.846096  48.697855  10.839271
  8548.040  8548.000  0.500  0.960728  127.697234  48.858800  10.913767
  8558.029  8558.000  0.500  0.955477  127.494392  49.037972  10.992471
  8568.051  8568.000  0.500  0.950202  127.263271  49.207974  11.078084
  8578.028  8578.000  0.500  0.945575  126.998668  49.333405  11.156148
  8588.026  8588.000  0.500  0.941566  126.480641  49.329531  11.202953
  8598.022  8598.000  0.500  0.937925  126.324673  49.448426  11.274660
  8607.989  8608.000  0.500  0.934019  125.840651  49.451732  11.318384
  8618.004  8618.000  0.500  0.929056  88.904637  35.110801  8.068668
  8627.999  8628.000  0.500  0.924592  126.680433  50.253251  11.589851
  8637.998  8638.000  0.500  0.919619  126.011789  50.237222  11.630147
  8647.995  8648.000  0.500  0.915064  125.877702  50.412905  11.717272
  8658.000  8658.000  0.500  0.911038  125.764435  50.570735  11.795433
  8668.004  8668.000  0.500  0.907378  125.532271  50.662437  11.861207
  8678.008  8678.000  0.500  0.903580  125.292329  50.758016  11.919821
  8679.986  8680.000  0.500  0.902691  125.236867  50.780660  11.934112
  8681.987  8682.000  0.500  0.901843  125.186958  50.803521  11.946096
  8683.980  8684.000  0.500  0.901270  125.133480  50.810888  11.956125
  8685.980  8686.000  0.500  0.900226  125.075569  50.840445  11.968843
  8687.977  8688.000  0.500  0.899684  125.027708  50.848553  11.979370
  8689.983  8690.000  0.500  0.898818  124.976532  50.871744  11.990964
  8691.982  8692.000  0.500  0.898164  124.923576  50.883483  11.999517
  8693.986  8694.000  0.500  0.897490  124.852668  50.888870  12.006145
  8695.978  8696.000  0.500  0.897020  124.788072  50.886459  12.009423
  8697.987  8698.000  0.500  0.896674  124.725013  50.878364  12.013801
  8698.478  8698.500  0.500  0.896558  124.693197  50.871251  12.012478
  8698.975  8699.000  0.500  0.896437  124.666066  50.866332  12.010530
  8699.473  8699.500  0.500  0.896212  124.645556  50.869414  12.011426
  8699.974  8700.000  0.500  0.896234  124.618907  50.857440  12.010094
  8700.478  8700.500  0.500  0.896148  124.572641  50.842903  12.005640
  8700.979  8701.000  0.500  0.896193  124.551449  50.831971  12.005055
  8701.480  8701.500  0.500  0.896210  124.506170  50.812658  11.998560
  8701.975  8702.000  0.500  0.896208  124.456037  50.792265  11.991073
  8702.476  8702.500  0.500  0.896284  124.418564  50.773134  11.986280
  8702.974  8703.000  0.500  0.896303  124.350196  50.744295  11.978408
  8703.479  8703.500  0.500  0.896457  124.276865  50.706544  11.969679
  8703.977  8704.000  0.500  0.896581  124.170619  50.656908  11.955527
  8704.479  8704.500  0.500  0.896737  124.041057  50.596170  11.937897
  8704.983  8705.000  0.500  0.896726  123.832782  50.511759  11.915086
  8705.485  8705.500  0.500  0.897011  123.484726  50.355424  11.875593
  8705.983  8706.000  0.500  0.897277  122.830185  50.075171  11.806916
  8706.488  8706.500  0.500  0.897694  121.177494  49.380827  11.642245
  8706.990  8707.000  0.500  0.898126  116.727514  47.546903  11.212329
  8707.489  8707.500  0.500  0.898735  110.926906  45.156606  10.644040
  8707.984  8708.000  0.500  0.899662  108.690959  44.205397  10.406016
  8708.489  8708.500  0.500  0.900895  110.823815  45.017289  10.586991
  8708.991  8709.000  0.500  0.902168  116.036442  47.074734  11.056157
  8709.490  8709.500  0.500  0.903657  121.164838  49.082119  11.518682
  8709.989  8710.000  0.500  0.905554  123.373617  49.882165  11.695862
  8710.481  8710.500  0.500  0.907191  124.110057  50.097837  11.734934
  8710.987  8711.000  0.500  0.908994  124.427645  50.135544  11.727309
  8711.499  8711.500  0.500  0.910563  124.578485  50.117634  11.706363
  8711.995  8712.000  0.500  0.911999  124.667380  50.081414  11.678765
  8712.494  8712.500  0.500  0.913508  124.709129  50.022645  11.646369
  8712.990  8713.000  0.500  0.914976  124.749256  49.965352  11.613081
  8713.492  8713.500  0.500  0.916407  124.768580  49.901650  11.580626
  8713.992  8714.000  0.500  0.917860  124.777382  49.832710  11.545927
  8714.491  8714.500  0.500  0.919244  124.768621  49.760254  11.512441
  8714.997  8715.000  0.500  0.920835  124.769709  49.681600  11.476624
  8715.497  8715.500  0.500  0.922494  124.759191  49.595075  11.438344
  8716.000  8716.000  0.500  0.924381  124.758189  49.501194  11.398396
  8716.496  8716.500  0.500  0.926458  124.749370  49.394980  11.352841
  8716.999  8717.000  0.500  0.928687  124.735349  49.279436  11.305178
  8717.495  8717.500  0.500  0.930924  124.728300  49.166563  11.254644
  8717.998  8718.000  0.500  0.933598  124.714710  49.029934  11.198502
  8718.488  8718.500  0.500  0.936442  124.703766  48.886389  11.138779
  8718.988  8719.000  0.500  0.939537  124.690822  48.730246  11.068011
  8719.485  8719.500  0.500  0.942803  124.677499  48.566185  10.993208
  8720.002  8720.000  0.500  0.946412  124.667803  48.387452  10.912849
  8720.505  8720.500  0.500  0.949853  124.657450  48.217244  10.834302
  8721.012  8721.000  0.500  0.953065  124.639258  48.055608  10.756278
  8721.502  8721.500  0.500  0.956098  124.626456  47.905156  10.683958
  8721.999  8722.000  0.500  0.958956  124.614823  47.763984  10.613930
  8722.496  8722.500  0.500  0.961368  124.605825  47.645477  10.549474
  8722.993  8723.000  0.500  0.963204  124.583983  47.549738  10.494974
  8723.497  8723.500  0.500  0.964527  124.574655  47.483284  10.452371
  8723.997  8724.000  0.500  0.965354  124.565968  47.440761  10.417922
  8724.498  8724.500  0.500  0.965743  124.547069  47.415115  10.394183
  8724.999  8725.000  0.500  0.965796  124.533471  47.407388  10.376380
  8725.509  8725.500  0.500  0.965540  124.517917  47.413641  10.366320
  8726.003  8726.000  0.500  0.965194  124.501300  47.423715  10.357048
  8726.504  8726.500  0.500  0.964763  124.486719  47.438613  10.352259
  8726.999  8727.000  0.500  0.964614  124.476244  47.441682  10.345485
  8727.490  8727.500  0.500  0.964084  124.451443  47.457348  10.339560
  8727.994  8728.000  0.500  0.963619  124.442631  47.476062  10.335147
  8728.492  8728.500  0.500  0.963351  124.431184  47.484438  10.325279
  8728.999  8729.000  0.500  0.963127  124.425076  47.492748  10.314722
  8729.500  8729.500  0.500  0.962948  124.412123  47.496295  10.302151
  8730.008  8730.000  0.500  0.962698  124.390908  47.500044  10.287677
  8730.500  8730.500  0.500  0.962668  124.378962  47.496930  10.271290
  8731.004  8731.000  0.500  0.962429  124.364064  47.502591  10.255281
  8731.502  8731.500  0.500  0.962149  124.350620  47.510761  10.240248
  8731.994  8732.000  0.500  0.961660  124.340822  47.530272  10.226078
  8732.492  8732.500  0.500  0.961210  124.322091  47.544469  10.210531
  8732.994  8733.000  0.500  0.960500  124.312606  47.574600  10.199978
  8733.997  8733.990  0.500  0.959169  124.287236  47.628262  10.186072
  8734.998  8734.990  0.500  0.957438  124.257358  47.699287  10.191440
  8736.024  8736.010  0.500  0.955264  124.226131  47.791095  10.212442
  8737.071  8737.060  0.500  0.952599  124.201295  47.909051  10.249069
  8738.125  8738.120  0.500  0.949716  124.177880  48.038311  10.290537
  8739.214  8739.200  0.500  0.946344  124.154001  48.191305  10.337482
  8740.311  8740.300  0.500  0.943115  124.124021  48.335475  10.382278
  8741.428  8741.420  0.500  0.940115  124.098131  48.470606  10.423242
  8742.558  8742.560  0.500  0.937463  124.062347  48.585296  10.468695
  8743.715  8743.710  0.500  0.935249  124.034551  48.682103  10.513507
  8744.905  8744.890  0.500  0.933539  124.004509  48.753578  10.555366
  8746.092  8746.080  0.500  0.932101  123.974391  48.811903  10.597164
  8747.302  8747.300  0.500  0.930846  123.943218  48.860919  10.634873
  8748.529  8748.530  0.500  0.930058  123.917637  48.889324  10.667364
  8749.790  8749.780  0.500  0.929720  123.886741  48.893655  10.696342
  8751.061  8751.050  0.500  0.929543  123.852982  48.889003  10.724497
  8752.338  8752.340  0.500  0.929692  123.823773  48.870161  10.746887
  8753.662  8753.650  0.500  0.929920  123.795084  48.847698  10.766997
  8754.984  8754.980  0.500  0.930269  123.764892  48.818764  10.779762
  8756.328  8756.330  0.500  0.930653  123.729539  48.786085  10.785320
  8757.713  8757.700  0.500  0.931014  123.692354  48.753831  10.787060
  8759.082  8759.080  0.500  0.931211  123.655808  48.729786  10.783940
  8760.497  8760.490  0.500  0.931261  123.628953  48.716807  10.787321
  8761.913  8761.910  0.500  0.931400  123.583217  48.691979  10.785036
  8763.356  8763.350  0.500  0.931493  123.546310  48.672948  10.783900
  8764.819  8764.810  0.500  0.931523  123.512646  48.658196  10.782912
  8766.289  8766.290  0.500  0.931696  123.470988  48.633394  10.776940
  8767.806  8767.790  0.500  0.932203  123.440496  48.596715  10.768576
  8769.320  8769.310  0.500  0.932584  123.400287  48.562392  10.758904
  8770.854  8770.850  0.500  0.932961  123.362399  48.529162  10.749990
  8772.423  8772.410  0.500  0.933337  123.326325  48.496764  10.742250
  8773.988  8773.980  0.500  0.933407  123.285791  48.477422  10.737652
  8775.581  8775.580  0.500  0.933089  123.249310  48.478506  10.738487
  8777.193  8777.190  0.500  0.932521  123.201259  48.487137  10.738791
  8778.847  8778.830  0.500  0.931555  123.157626  48.516810  10.746270
  8780.481  8780.480  0.500  0.930356  123.115243  48.558270  10.754650
  8782.152  8782.150  0.500  0.929079  123.069443  48.602241  10.763623
  8783.850  8783.840  0.500  0.927701  123.025769  48.651985  10.773774
  8785.550  8785.550  0.500  0.926165  122.967693  48.703764  10.786228
  8787.292  8787.280  0.500  0.924900  122.925202  48.748580  10.797834
  8789.036  8789.030  0.500  0.923573  122.876866  48.794118  10.811065
  8790.797  8790.790  0.500  0.922193  122.834652  48.844695  10.826392
  8792.589  8792.580  0.500  0.920717  122.778151  48.894378  10.840126
  8794.398  8794.380  0.500  0.919355  122.728379  48.941152  10.857791
  8796.227  8796.210  0.500  0.917807  122.676675  48.996300  10.874390
  8798.071  8798.050  0.500  0.916523  122.637376  49.043570  10.896539
  8799.929  8799.910  0.500  0.915250  122.599425  49.090842  10.917546
  8801.801  8801.790  0.500  0.914346  122.556327  49.117936  10.937136
  8803.707  8803.690  0.500  0.913614  122.511611  49.136002  10.955526
  8805.614  8805.610  0.500  0.912831  122.462918  49.154924  10.974829
  8807.559  8807.550  0.500  0.912161  122.415802  49.168970  10.990662
  8809.521  8809.510  0.500  0.911485  122.366651  49.182464  11.006179
  8811.491  8811.480  0.500  0.910737  122.312761  49.197599  11.024133
  8813.498  8813.480  0.500  0.909799  122.265325  49.224624  11.045651
  8815.493  8815.490  0.500  0.908964  122.217107  49.246328  11.065936
  8817.536  8817.520  0.500  0.907698  122.168442  49.289070  11.092371
  8819.593  8819.580  0.500  0.906566  122.118210  49.324639  11.115326
  8821.657  8821.650  0.500  0.905731  122.075955  49.348767  11.136610
  8823.757  8823.740  0.500  0.904788  122.029058  49.376336  11.156163
  8825.860  8825.850  0.500  0.904086  121.973484  49.388525  11.172391
  8827.995  8827.980  0.500  0.903711  121.915468  49.383522  11.182679
  8830.141  8830.120  0.500  0.903185  121.871587  49.391702  11.194611
  8832.305  8832.290  0.500  0.902541  121.813917  49.400163  11.206353
  8834.496  8834.480  0.500  0.902194  121.769218  49.399166  11.213064
  8836.703  8836.680  0.500  0.901625  121.715437  49.405474  11.219976
  8838.910  8838.900  0.500  0.901098  121.663591  49.410450  11.224816
  8841.172  8841.150  0.500  0.900594  121.603973  49.411144  11.231318
  8843.426  8843.410  0.500  0.900014  121.546725  49.416512  11.237773
  8845.711  8845.690  0.500  0.899090  121.490034  49.439117  11.246703
  8847.993  8847.990  0.500  0.898071  121.435898  49.467476  11.258202
  8850.328  8850.310  0.500  0.896786  121.388921  49.511914  11.274871
  8852.664  8852.650  0.500  0.895424  121.319434  49.551030  11.292562
  8855.017  8855.000  0.500  0.894226  121.273147  49.591500  11.313765
  8857.403  8857.380  0.500  0.892600  121.211179  49.646801  11.337645
  8859.786  8859.770  0.500  0.891310  121.151852  49.686574  11.360291
  8862.212  8862.190  0.500  0.889787  121.091393  49.737492  11.383714
  8864.632  8864.620  0.500  0.888530  121.026390  49.773321  11.405219
  8867.094  8867.070  0.500  0.887411  120.968250  49.805105  11.426573
  8869.557  8869.550  0.500  0.886300  120.904302  49.834081  11.445776
  8872.066  8872.040  0.500  0.885219  120.851319  49.866106  11.464901
  8874.559  8874.550  0.500  0.884088  120.786744  49.895896  11.483046
  8877.098  8877.070  0.500  0.882889  120.725233  49.930318  11.500149
  8879.641  8879.620  0.500  0.881803  120.652801  49.954590  11.516971
  8882.214  8882.190  0.500  0.880675  120.596557  49.987633  11.531154
  8884.791  8884.770  0.500  0.879632  120.531851  50.012936  11.547464
  8887.403  8887.380  0.500  0.878447  120.471244  50.047089  11.563704
  8890.021  8890.000  0.500  0.877401  120.404057  50.071496  11.582402
  8892.674  8892.650  0.500  0.876204  120.348202  50.108235  11.602363
  8895.340  8895.310  0.500  0.875065  120.274646  50.134649  11.620684
  8898.006  8897.990  0.500  0.874161  120.207272  50.151882  11.638146
  8900.716  8900.690  0.500  0.873004  120.135556  50.179990  11.659291
  8903.434  8903.410  0.500  0.871848  120.067759  50.209696  11.681659
  8906.170  8906.150  0.500  0.870815  119.971960  50.221491  11.700729
  8908.922  8908.900  0.500  0.869734  119.789857  50.199491  11.711944
  8911.703  8911.680  0.500  0.868528  119.501144  50.138964  11.711920
  8914.490  8914.470  0.500  0.867425  119.791153  50.316112  11.768844
  8917.305  8917.290  0.500  0.866485  118.148838  49.672920  11.634948
  8920.143  8920.120  0.500  0.865663  119.710386  50.370844  11.809661
  8922.986  8922.970  0.500  0.864571  118.492540  49.912855  11.715614
  8925.872  8925.850  0.500  0.863503  119.603092  50.434519  11.849574
  8928.774  8928.740  0.500  0.862433  119.435230  50.417641  11.856849
  8931.671  8931.650  0.500  0.861230  118.058146  49.896332  11.743157
  8934.580  8934.570  0.500  0.859880  119.417666  50.539104  11.905551
  8937.543  8937.520  0.500  0.858705  119.314848  50.554970  11.922504
  8940.497  8940.490  0.500  0.857380  119.263122  50.600019  11.943274
  8943.498  8943.470  0.500  0.855996  119.170519  50.630758  11.962474
  8946.501  8946.480  0.500  0.854568  119.106512  50.675860  11.985388
  8949.527  8949.500  0.500  0.853017  119.023008  50.718938  12.006570
  8952.569  8952.550  0.500  0.851510  118.665917  50.643038  12.004031
  8955.633  8955.610  0.500  0.850021  118.849943  50.797194  12.055737
  8958.700  8958.690  0.500  0.848565  118.792712  50.846710  12.082550
  8961.811  8961.790  0.500  0.847490  118.719078  50.869823  12.104291
  8964.934  8964.910  0.500  0.846369  118.427250  50.801725  12.102107
  8968.076  8968.050  0.500  0.845375  118.546956  50.903613  12.142538
  8971.228  8971.200  0.500  0.843983  118.468813  50.940949  12.167232
  8974.399  8974.380  0.500  0.842707  118.376143  50.966053  12.185933
  8977.594  8977.570  0.500  0.841613  118.288524  50.984095  12.205338
  8980.808  8980.790  0.500  0.840482  118.197274  51.002425  12.225366
  8984.045  8984.020  0.500  0.839215  118.073326  51.013544  12.240830
  8987.292  8987.270  0.500  0.837821  117.980204  51.044410  12.261471
  8990.569  8990.550  0.500  0.836377  117.855575  51.064150  12.282252
  8993.862  8993.840  0.500  0.834751  115.672368  50.199802  12.090687
  8997.175  8997.150  0.500  0.833344  117.757041  51.176468  12.339284
  9000.498  9000.470  0.500  0.831922  117.591486  51.177245  12.355873
  9003.837  9003.820  0.500  0.830425  116.015678  50.567035  12.221786
  9007.218  9007.190  0.500  0.828992  117.625896  51.342400  12.428647
  9010.586  9010.570  0.500  0.827407  115.775003  50.614687  12.270703
  9013.996  9013.980  0.500  0.826128  117.594893  51.476099  12.496251
  9017.423  9017.400  0.500  0.824875  117.474502  51.487892  12.518210
  9020.866  9020.850  0.500  0.823540  115.188056  50.553211  12.307259
  9024.340  9024.310  0.500  0.822106  117.392568  51.594635  12.577381
  9027.799  9027.790  0.500  0.820876  117.299192  51.617032  12.600162
  9031.310  9031.290  0.500  0.819613  117.205776  51.641138  12.623022
  9034.834  9034.810  0.500  0.818392  117.115792  51.664513  12.645149
  9038.365  9038.350  0.500  0.817046  117.015181  51.689681  12.666742
  9041.930  9041.900  0.500  0.815642  115.607193  51.139470  12.547804
  9045.491  9045.480  0.500  0.814262  116.796981  51.737125  12.709224
  9049.091  9049.080  0.500  0.812916  116.716668  51.771158  12.734749
  9052.714  9052.690  0.500  0.811454  116.637238  51.811603  12.760869
  9056.337  9056.320  0.500  0.809950  116.550851  51.851158  12.787661
  9060.001  9059.980  0.500  0.808345  116.455550  51.892025  12.812431
  9063.673  9063.650  0.500  0.806718  115.084492  51.364554  12.698711
  9067.361  9067.340  0.500  0.805081  116.223807  51.958027  12.865482
  9071.070  9071.050  0.500  0.803526  116.153859  52.007607  12.894893
  9074.808  9074.780  0.500  0.801899  116.056120  52.048437  12.923279
  9078.534  9078.520  0.500  0.800458  115.961536  52.081044  12.951306
  9082.323  9082.290  0.500  0.798814  115.239242  51.841757  12.908465
  9086.095  9086.080  0.500  0.797374  115.716500  52.131470  12.999870
  9089.895  9089.880  0.500  0.795782  115.635772  52.178103  13.027564
  9093.726  9093.710  0.500  0.794313  115.545045  52.213846  13.053878
  9097.565  9097.550  0.500  0.792953  115.435412  52.235262  13.079739
  9101.431  9101.410  0.500  0.791532  115.344394  52.268305  13.104518
  9105.315  9105.290  0.500  0.790064  115.091293  52.230221  13.112136
  9109.207  9109.190  0.500  0.788655  115.123518  52.318556  13.153852
  9113.126  9113.110  0.500  0.787199  115.026500  52.350610  13.179891
