# XDI/1.0 BlueSky/1.10.0 BMM/2023-1.0-py310-tiled
# Beamline.name: BMM (06BM) -- Beamline for Materials Measurement (NIST)
# Beamline.xray_source: NSLS-II three-pole wiggler
# Beamline.collimation: paraboloid mirror, 5 nm Rh on 30 nm Pt
# Beamline.focusing: not in use
# Beamline.harmonic_rejection: flat mirror, Pt stripe, pitch = 7.0 mrad relative to beam
# Beamline.software: Bluesky 1.10.0, Ophyd 1.7.0, DataBroker 2.0.0b13, Python 3.10.8, 2023-1.0-py310-tiled
# Detector.I0: 10 cm N2
# Detector.I1: 25 cm N2
# Detector.I2: 25 cm N2
# Element.symbol: Tb
# Element.edge: L1
# Element.reference: Tb
# Element.reference_material: Tb4O9
# Facility.name: NSLS-II
# Facility.energy: 3.0
# Facility.current: 400.6
# Facility.mode: top-off
# Facility.GUP: 301027
# Facility.SAF: 310583
# Facility.cycle: 2023-2
# Mono.name: Si(111)
# Mono.d_spacing: 3.1351860
# Mono.encoder_resolution: 0.0000050 deg/ct
# Mono.angle_offset: 16.0754326 deg
# Mono.scan_mode: pseudo channel cut
# Mono.scan_type: step
# Mono.direction: forward in energy
# Sample.name: Tb4O9
# Sample.prep: PEG pellet
# Sample.x: 109.138 mm
# Sample.y: 153.150 mm
# Sample.SDD_position: 205.000 mm
# Scan.experimenters: Bruce Ravel
# Scan.edge_energy: 8708.0
# Scan.start_time: 2023-05-28T15:37:59
# Scan.end_time: 2023-05-28T15:46:59
# Scan.transient_id: 78805
# Scan.uid: 4871734f-c9e9-4688-86e2-cf48e303ed82
# Scan.plot_hint: ln(It/Ir)  --  ln($6/$7)
# Column.1: energy eV
# Column.2: requested_energy eV
# Column.3: measurement_time seconds
# Column.4: xmu 
# Column.5: I0 nA
# Column.6: It nA
# Column.7: Ir nA
# ///////////
# sample courtesy Martin Stennett, University of Sheffield
# -----------
# energy  requested_energy  measurement_time  xmu  I0  It  Ir
  8508.007  8508.000  0.500  1.724449  128.650041  169.093265  30.144480
  8518.055  8518.000  0.500  1.719271  128.483676  169.107600  30.303537
  8528.022  8528.000  0.500  1.714036  127.905513  168.570931  30.365917
  8538.050  8538.000  0.500  1.709453  127.957091  168.854747  30.556772
  8548.090  8548.000  0.500  1.705194  127.897666  169.024266  30.717976
  8558.017  8558.000  0.500  1.701036  127.709868  169.014232  30.844159
  8568.058  8568.000  0.500  1.695925  127.509105  168.999638  30.999529
  8578.073  8578.000  0.500  1.690589  127.262660  168.886014  31.144407
  8588.029  8588.000  0.500  1.685620  126.751302  168.421347  31.213446
  8598.022  8598.000  0.500  1.680818  126.773110  168.664725  31.409020
  8608.017  8608.000  0.500  1.676422  126.283849  168.254396  31.470651
  8618.023  8618.000  0.500  1.671538  97.274461  129.774835  24.392178
  8628.027  8628.000  0.500  1.667272  127.196709  169.942864  32.078646
  8638.024  8638.000  0.500  1.662655  126.506931  169.238669  32.093557
  8648.015  8648.000  0.500  1.657961  126.496273  169.435104  32.281988
  8658.026  8658.000  0.500  1.653516  126.385515  169.533543  32.444635
  8668.023  8668.000  0.500  1.649385  126.166827  169.491576  32.570877
  8678.024  8678.000  0.500  1.645448  125.950258  169.387193  32.679211
  8679.989  8680.000  0.500  1.644691  125.917774  169.366053  32.699867
  8681.984  8682.000  0.500  1.643874  125.874336  169.376238  32.728574
  8683.983  8684.000  0.500  1.643173  125.825159  169.367428  32.749820
  8685.986  8686.000  0.500  1.642432  125.781457  169.349462  32.770612
  8687.984  8688.000  0.500  1.641744  125.737504  169.335086  32.790390
  8689.989  8690.000  0.500  1.641036  125.699746  169.318079  32.810335
  8691.992  8692.000  0.500  1.640444  125.652771  169.278146  32.822020
  8693.986  8694.000  0.500  1.639763  125.600196  169.261654  32.841169
  8695.997  8696.000  0.500  1.639343  125.540048  169.234357  32.849674
  8697.987  8698.000  0.500  1.638835  125.490870  169.225481  32.864632
  8698.273  8698.300  0.500  1.638738  125.479395  169.222393  32.867221
  8698.572  8698.600  0.500  1.638669  125.461101  169.215519  32.868146
  8698.871  8698.900  0.500  1.638630  125.445149  169.185501  32.863618
  8699.170  8699.200  0.500  1.638541  125.432507  169.173427  32.864188
  8699.476  8699.500  0.500  1.638564  125.422802  169.133245  32.855617
  8699.782  8699.800  0.500  1.638489  125.399339  169.123568  32.856200
  8700.081  8700.100  0.500  1.638441  125.384211  169.099489  32.853104
  8700.381  8700.400  0.500  1.638414  125.376729  169.100889  32.854250
  8700.677  8700.700  0.500  1.638391  125.369144  169.092042  32.853292
  8700.989  8701.000  0.500  1.638387  125.348366  169.055431  32.846330
  8701.282  8701.300  0.500  1.638358  125.329068  169.055432  32.847276
  8701.588  8701.600  0.500  1.638356  125.306820  169.048240  32.845945
  8701.884  8701.900  0.500  1.638389  125.287938  169.024462  32.840246
  8702.183  8702.200  0.500  1.638375  125.263568  169.004355  32.836793
  8702.483  8702.500  0.500  1.638484  125.243337  168.987950  32.830014
  8702.785  8702.800  0.500  1.638477  125.223127  168.931929  32.819382
  8703.082  8703.100  0.500  1.638437  125.190798  168.904674  32.815394
  8703.381  8703.400  0.500  1.638585  125.156359  168.875917  32.804928
  8703.681  8703.700  0.500  1.638588  125.111895  168.838590  32.797597
  8703.977  8704.000  0.500  1.638719  125.067252  168.794073  32.784645
  8704.290  8704.300  0.500  1.638922  125.022754  168.737706  32.767053
  8704.583  8704.600  0.500  1.639006  124.962278  168.662615  32.749723
  8704.886  8704.900  0.500  1.639113  124.874585  168.552830  32.724904
  8705.179  8705.200  0.500  1.639331  124.779424  168.424466  32.692848
  8705.491  8705.500  0.500  1.639426  124.644534  168.241891  32.654319
  8705.788  8705.800  0.500  1.639652  124.453873  167.985028  32.597076
  8706.091  8706.100  0.500  1.639705  124.172377  167.623969  32.525295
  8706.394  8706.400  0.500  1.639931  123.733431  167.023703  32.401508
  8706.684  8706.700  0.500  1.640028  122.981380  166.016549  32.202981
  8707.000  8707.000  0.500  1.640084  121.509308  164.040394  31.817896
  8707.293  8707.300  0.500  1.640017  118.941741  160.590347  31.150799
  8707.599  8707.600  0.500  1.640195  115.013577  155.308516  30.120870
  8707.893  8707.900  0.500  1.640518  111.361582  150.372462  29.154162
  8708.186  8708.200  0.500  1.641025  109.298482  147.586762  28.599559
  8708.499  8708.500  0.500  1.641561  109.199118  147.457833  28.559273
  8708.789  8708.800  0.500  1.641944  110.506308  149.230906  28.891600
  8709.083  8709.100  0.500  1.642403  112.866236  152.427366  29.496889
  8709.392  8709.400  0.500  1.642933  116.241158  156.994489  30.364618
  8709.682  8709.700  0.500  1.643379  119.453912  161.345955  31.192320
  8709.989  8710.000  0.500  1.643960  121.813139  164.531636  31.789724
  8710.289  8710.300  0.500  1.644599  123.129997  166.303563  32.111553
  8710.595  8710.600  0.500  1.645290  123.781371  167.205379  32.263378
  8710.902  8710.900  0.500  1.645988  124.150718  167.717932  32.339694
  8711.199  8711.200  0.500  1.646868  124.378904  167.985970  32.362891
  8711.492  8711.500  0.500  1.647673  124.528977  168.202883  32.378616
  8711.806  8711.800  0.500  1.648608  124.640801  168.381959  32.382797
  8712.102  8712.100  0.500  1.649619  124.719361  168.514818  32.375574
  8712.403  8712.400  0.500  1.650601  124.775071  168.585321  32.357345
  8712.696  8712.700  0.500  1.651628  124.812120  168.637919  32.334215
  8712.993  8713.000  0.500  1.652687  124.846339  168.696506  32.311213
  8713.293  8713.300  0.500  1.653693  124.877616  168.711396  32.281563
  8713.600  8713.600  0.500  1.654730  124.893982  168.768901  32.259105
  8713.891  8713.900  0.500  1.655625  124.912354  168.774033  32.231223
  8714.184  8714.200  0.500  1.656691  124.917378  168.800511  32.201927
  8714.491  8714.500  0.500  1.657511  124.926874  168.827990  32.180783
  8714.798  8714.800  0.500  1.658494  124.937994  168.856737  32.154644
  8715.105  8715.100  0.500  1.659477  124.948929  168.873476  32.126227
  8715.392  8715.400  0.500  1.660473  124.939853  168.864530  32.092549
  8715.699  8715.700  0.500  1.661373  124.943096  168.872812  32.065241
  8715.996  8716.000  0.500  1.662398  124.941751  168.890938  32.035830
  8716.306  8716.300  0.500  1.663447  124.946662  168.900039  32.003979
  8716.604  8716.600  0.500  1.664470  124.937598  168.903602  31.971915
  8716.904  8716.900  0.500  1.665644  124.934290  168.908961  31.935418
  8717.195  8717.200  0.500  1.666762  124.939044  168.911754  31.900278
  8717.492  8717.500  0.500  1.667921  124.927015  168.874446  31.856269
  8717.793  8717.800  0.500  1.669195  124.912891  168.868708  31.814641
  8718.090  8718.100  0.500  1.670567  124.926680  168.897409  31.776425
  8718.394  8718.400  0.500  1.672106  124.926787  168.930371  31.733734
  8718.691  8718.700  0.500  1.673654  124.922573  168.935777  31.685671
  8718.992  8719.000  0.500  1.675363  124.911671  168.926097  31.629755
  8719.302  8719.300  0.500  1.677251  124.902801  168.889126  31.563186
  8719.606  8719.600  0.500  1.679287  124.901115  168.892022  31.499524
  8719.903  8719.900  0.500  1.681430  124.887341  168.892578  31.432203
  8720.198  8720.200  0.500  1.683544  124.883160  168.872435  31.362074
  8720.505  8720.500  0.500  1.685756  124.879401  168.866087  31.291618
  8720.806  8720.800  0.500  1.688114  124.874323  168.878496  31.220208
  8721.103  8721.100  0.500  1.690392  124.872305  168.893353  31.151913
  8721.397  8721.400  0.500  1.692737  124.869107  168.867456  31.074187
  8721.688  8721.700  0.500  1.695137  124.862794  168.889638  31.003760
  8721.992  8722.000  0.500  1.697512  124.856345  168.861600  30.925085
  8722.290  8722.300  0.500  1.699908  124.849360  168.876664  30.853831
  8722.588  8722.600  0.500  1.702119  124.839738  168.871173  30.784676
  8722.895  8722.900  0.500  1.704377  124.832711  168.884026  30.717579
  8723.196  8723.200  0.500  1.706549  124.831636  168.893868  30.652711
  8723.510  8723.500  0.500  1.708429  124.819641  168.872283  30.591251
  8723.801  8723.800  0.500  1.710122  124.816171  168.869769  30.539027
  8724.099  8724.100  0.500  1.711671  124.805224  168.868175  30.491468
  8724.400  8724.400  0.500  1.713078  124.799503  168.882823  30.451266
  8724.701  8724.700  0.500  1.714244  124.786070  168.857620  30.411227
  8725.002  8725.000  0.500  1.715290  124.777832  168.845863  30.377320
  8725.293  8725.300  0.500  1.716296  124.773155  168.863051  30.349850
  8725.594  8725.600  0.500  1.717140  124.775267  168.853503  30.322550
  8725.889  8725.900  0.500  1.717872  124.772547  168.843733  30.298601
  8726.187  8726.200  0.500  1.718449  125.105721  169.291190  30.361371
  8726.488  8726.500  0.500  1.719194  125.135204  169.340831  30.347651
  8726.792  8726.800  0.500  1.719606  125.135719  169.341125  30.335207
  8727.103  8727.100  0.500  1.720146  125.137990  169.359242  30.322093
  8727.398  8727.400  0.500  1.720610  125.136486  169.380372  30.311796
  8727.699  8727.700  0.500  1.721116  125.133641  169.388989  30.298000
  8728.000  8728.000  0.500  1.721649  125.133912  169.396421  30.283193
  8728.315  8728.300  0.500  1.722308  125.129848  169.395004  30.262989
  8728.675  8728.600  0.500  1.722980  125.118617  169.385314  30.240916
  8728.868  8728.900  0.500  1.723392  125.100483  169.370278  30.225788
  8729.166  8729.200  0.500  1.724171  125.081848  169.352217  30.199037
  8729.471  8729.500  0.500  1.724942  125.065707  169.335965  30.172860
  8729.789  8729.800  0.500  1.725718  125.061614  169.349995  30.151942
  8730.149  8730.100  0.500  1.726762  125.053156  169.324454  30.115952
  8730.369  8730.400  0.500  1.727403  125.034305  169.287004  30.090000
  8730.686  8730.700  0.500  1.728400  125.020466  169.269438  30.056884
  8731.054  8731.000  0.500  1.729517  125.001882  169.289581  30.026893
  8731.273  8731.300  0.500  1.730319  124.948464  169.222912  29.991014
  8731.624  8731.600  0.500  1.731594  124.943292  169.187205  29.946478
  8731.915  8731.900  0.500  1.732671  124.943725  169.220418  29.920131
  8732.220  8732.200  0.500  1.733856  124.927631  169.212177  29.883243
  8732.528  8732.500  0.500  1.734933  124.925926  169.200994  29.849101
  8732.817  8732.800  0.500  1.736026  124.917530  169.195170  29.815455
  8733.017  8733.000  0.500  1.736710  124.914214  169.225329  29.800367
  8734.014  8733.990  0.500  1.739748  124.888384  169.210828  29.707432
  8735.004  8734.990  0.500  1.741641  124.868600  169.192448  29.648027
  8736.028  8736.010  0.500  1.742027  124.849959  169.196739  29.637344
  8737.087  8737.060  0.500  1.740967  124.828978  169.187302  29.667108
  8738.148  8738.120  0.500  1.739538  124.806184  169.171622  29.706783
  8739.224  8739.200  0.500  1.738053  124.779992  169.164711  29.749726
  8740.318  8740.300  0.500  1.736734  124.760675  169.164244  29.788916
  8741.435  8741.420  0.500  1.735220  124.742873  169.164220  29.834038
  8742.581  8742.560  0.500  1.733387  124.719055  169.159538  29.887956
  8743.735  8743.710  0.500  1.731131  124.692120  169.140788  29.952118
  8744.918  8744.890  0.500  1.728400  124.667940  169.119833  30.030334
  8746.099  8746.080  0.500  1.725626  124.638154  169.126520  30.114930
  8747.315  8747.300  0.500  1.722920  124.615801  169.104244  30.192541
  8748.546  8748.530  0.500  1.720184  124.600711  169.090393  30.272781
  8749.797  8749.780  0.500  1.717409  124.571298  169.103909  30.359349
  8751.067  8751.050  0.500  1.714511  124.544189  169.094126  30.445707
  8752.351  8752.340  0.500  1.711572  124.509753  169.071011  30.531142
  8753.653  8753.650  0.500  1.709043  124.489752  169.070930  30.608439
  8754.990  8754.980  0.500  1.706941  124.463783  169.069597  30.672578
  8756.342  8756.330  0.500  1.705289  124.426309  169.045539  30.718930
  8757.720  8757.700  0.500  1.704238  124.403197  169.042863  30.750733
  8759.089  8759.080  0.500  1.703597  124.373734  169.060406  30.773660
  8760.491  8760.490  0.500  1.703028  124.339346  169.044481  30.788271
  8761.926  8761.910  0.500  1.702604  124.312326  169.008470  30.794771
  8763.359  8763.350  0.500  1.702157  124.274502  168.973686  30.802194
  8764.829  8764.810  0.500  1.701991  124.229614  168.950338  30.803050
  8766.292  8766.290  0.500  1.701819  124.203714  168.956325  30.809429
  8767.799  8767.790  0.500  1.701857  124.174369  168.956080  30.808231
  8769.327  8769.310  0.500  1.701875  124.158364  168.951045  30.806753
  8770.858  8770.850  0.500  1.701905  124.140970  168.940082  30.803846
  8772.416  8772.410  0.500  1.701951  124.103961  168.927537  30.800127
  8773.985  8773.980  0.500  1.701934  124.068054  168.930884  30.801261
  8775.590  8775.580  0.500  1.701804  124.043901  168.942952  30.807460
  8777.197  8777.190  0.500  1.701668  124.001339  168.913399  30.806278
  8778.844  8778.830  0.500  1.701561  123.971167  168.904970  30.808018
  8780.491  8780.480  0.500  1.701563  123.934636  168.880503  30.803492
  8782.172  8782.150  0.500  1.701706  123.895091  168.851402  30.793799
  8783.844  8783.840  0.500  1.701648  123.858046  168.843399  30.794126
  8785.556  8785.550  0.500  1.701501  123.806022  168.811188  30.792777
  8787.286  8787.280  0.500  1.701305  123.777127  168.806413  30.797931
  8789.039  8789.030  0.500  1.700922  123.732935  168.784968  30.805814
  8790.784  8790.790  0.500  1.700511  123.693018  168.767790  30.815356
  8792.595  8792.580  0.500  1.700061  123.650522  168.742013  30.824509
  8794.391  8794.380  0.500  1.699535  123.609528  168.730517  30.838627
  8796.217  8796.210  0.500  1.698800  123.565318  168.724831  30.860256
  8798.068  8798.050  0.500  1.697786  123.525854  168.672980  30.882062
  8799.922  8799.910  0.500  1.696688  123.489845  168.664326  30.914416
  8801.794  8801.790  0.500  1.695287  123.449938  168.663267  30.957572
  8803.714  8803.690  0.500  1.693824  123.406692  168.664134  31.003036
  8805.617  8805.610  0.500  1.692392  123.370909  168.643115  31.043588
  8807.559  8807.550  0.500  1.690889  123.324252  168.624935  31.086960
  8809.531  8809.510  0.500  1.689413  123.289791  168.612198  31.130519
  8811.487  8811.480  0.500  1.687971  123.245069  168.596390  31.172512
  8813.488  8813.480  0.500  1.686486  123.200992  168.576007  31.215048
  8815.503  8815.490  0.500  1.684961  123.154929  168.548050  31.257501
  8817.526  8817.520  0.500  1.683357  123.121544  168.559750  31.309874
  8819.596  8819.580  0.500  1.681701  123.072264  168.554970  31.360872
  8821.661  8821.650  0.500  1.680107  123.037735  168.527861  31.405857
  8823.737  8823.740  0.500  1.678582  122.986933  168.490836  31.446862
  8825.853  8825.850  0.500  1.677288  122.933968  168.468874  31.483469
  8827.985  8827.980  0.500  1.676141  122.895758  168.450968  31.516250
  8830.134  8830.120  0.500  1.675122  122.852461  168.423734  31.543290
  8832.315  8832.290  0.500  1.674136  122.793817  168.402765  31.570475
  8834.490  8834.480  0.500  1.673331  122.748835  168.350163  31.586034
  8836.686  8836.680  0.500  1.672525  122.705092  168.325791  31.606935
  8838.910  8838.900  0.500  1.671902  122.657333  168.342080  31.629683
  8841.152  8841.150  0.500  1.671304  122.624011  168.327134  31.645811
  8843.419  8843.410  0.500  1.670868  122.576507  168.317153  31.657720
  8845.700  8845.690  0.500  1.670284  122.526759  168.323573  31.677426
  8848.000  8847.990  0.500  1.669717  122.476846  168.277278  31.686676
  8850.318  8850.310  0.500  1.669067  122.429013  168.273893  31.706630
  8852.657  8852.650  0.500  1.668113  122.381878  168.260864  31.734431
  8855.011  8855.000  0.500  1.667150  122.331948  168.194815  31.752538
  8857.379  8857.380  0.500  1.665796  122.282474  168.159106  31.788807
  8859.786  8859.770  0.500  1.664518  122.222958  168.148763  31.827526
  8862.198  8862.190  0.500  1.663254  122.246508  168.242294  31.885509
  8864.638  8864.620  0.500  1.661890  122.267170  168.325457  31.944799
  8867.083  8867.070  0.500  1.660469  122.222185  168.320572  31.989280
  8869.547  8869.550  0.500  1.659247  122.233177  168.381638  32.040043
  8872.045  8872.040  0.500  1.657930  122.192364  168.380716  32.082073
  8874.549  8874.550  0.500  1.656745  122.146692  168.370227  32.118130
  8877.081  8877.070  0.500  1.655792  122.085037  168.338940  32.142769
  8879.624  8879.620  0.500  1.654688  122.028116  168.301511  32.171120
  8882.197  8882.190  0.500  1.653799  121.949452  168.240184  32.188010
  8884.777  8884.770  0.500  1.652751  121.920309  168.242646  32.222209
  8887.393  8887.380  0.500  1.651897  121.863480  168.202607  32.242069
  8890.014  8890.000  0.500  1.650811  121.804713  168.192782  32.275236
  8892.657  8892.650  0.500  1.649690  121.739851  168.160951  32.305318
  8895.323  8895.310  0.500  1.648222  121.679852  168.122217  32.345308
  8898.006  8897.990  0.500  1.647009  121.608953  168.065837  32.373706
  8900.702  8900.690  0.500  1.645521  121.555151  168.033365  32.415648
  8903.410  8903.410  0.500  1.643970  121.489780  168.002376  32.459970
  8906.170  8906.150  0.500  1.642357  121.411688  167.966633  32.505474
  8908.905  8908.900  0.500  1.640846  121.288871  167.853777  32.532758
  8911.700  8911.680  0.500  1.639168  119.757556  165.788059  32.186351
  8914.476  8914.470  0.500  1.637668  121.254927  167.926773  32.650503
  8917.305  8917.290  0.500  1.636242  120.682973  167.191244  32.553881
  8920.119  8920.120  0.500  1.634860  121.217248  167.984987  32.753646
  8922.993  8922.970  0.500  1.633585  120.795975  167.449214  32.690838
  8925.848  8925.850  0.500  1.632496  121.145021  168.001341  32.834381
  8928.757  8928.740  0.500  1.631343  120.992425  167.841530  32.840992
  8931.657  8931.650  0.500  1.630258  118.654108  164.649648  32.251410
  8934.597  8934.570  0.500  1.629165  120.948275  167.883897  32.920911
  8937.529  8937.520  0.500  1.628132  120.752530  167.667021  32.912336
  8940.514  8940.490  0.500  1.627058  120.786114  167.767352  32.967423
