# XDI/1.0 BlueSky/1.10.0 BMM/2023-1.0-py310-tiled
# Beamline.name: BMM (06BM) -- Beamline for Materials Measurement (NIST)
# Beamline.xray_source: NSLS-II three-pole wiggler
# Beamline.collimation: paraboloid mirror, 5 nm Rh on 30 nm Pt
# Beamline.focusing: not in use
# Beamline.harmonic_rejection: flat mirror, Pt stripe, pitch = 7.0 mrad relative to beam
# Beamline.software: Bluesky 1.10.0, Ophyd 1.7.0, DataBroker 2.0.0b13, Python 3.10.8, 2023-1.0-py310-tiled
# Detector.I0: 10 cm N2
# Detector.I1: 25 cm N2
# Detector.I2: 25 cm N2
# Element.symbol: Cu
# Element.edge: K
# Element.reference: Cu
# Element.reference_material: Cu foil
# Facility.name: NSLS-II
# Facility.energy: 3.0
# Facility.current: 400.7
# Facility.mode: top-off
# Facility.GUP: 123456
# Facility.SAF: 301027
# Facility.cycle: 2023-2
# Mono.name: Si(111)
# Mono.d_spacing: 3.1351860
# Mono.encoder_resolution: 0.0000050 deg/ct
# Mono.angle_offset: 16.0754326 deg
# Mono.scan_mode: pseudo channel cut
# Mono.scan_type: step
# Mono.direction: forward in energy
# Sample.name: Cu metal
# Sample.prep: reference metal
# Sample.x: 116.329 mm
# Sample.y: 114.126 mm
# Sample.SDD_position: 205.000 mm
# Scan.experimenters: Bruce Ravel
# Scan.edge_energy: 8978.9
# Scan.start_time: 2023-05-06T12:36:03
# Scan.end_time: 2023-05-06T12:43:56
# Scan.transient_id: 74793
# Scan.uid: 6fc5776a-8f3f-4c58-8524-579e661c6461
# Scan.plot_hint: ln(It/Ir)  --  ln($6/$7)
# Column.1: energy eV
# Column.2: requested_energy eV
# Column.3: measurement_time seconds
# Column.4: xmu 
# Column.5: I0 nA
# Column.6: It nA
# Column.7: Ir nA
# ///////////
# reference foil
# -----------
# energy  requested_energy  measurement_time  xmu  I0  It  Ir
  8778.946  8778.900  0.500  0.656676  121.863047  143.815864  74.578943
  8789.033  8788.900  0.500  0.654456  121.663217  143.811498  74.742388
  8798.960  8798.900  0.500  0.652216  121.472446  143.833770  74.921608
  8808.950  8808.900  0.500  0.650040  121.280206  143.869145  75.103308
  8818.974  8818.900  0.500  0.647960  121.102177  143.912267  75.282226
  8828.940  8828.900  0.500  0.645787  120.901328  143.877777  75.427883
  8838.930  8838.900  0.500  0.643662  120.698126  143.866346  75.582323
  8848.930  8848.900  0.500  0.641567  120.505629  143.893530  75.755148
  8858.929  8858.900  0.500  0.639420  120.305103  143.913528  75.928564
  8868.927  8868.900  0.500  0.637388  120.096040  143.912297  76.082343
  8878.895  8878.900  0.500  0.635381  119.856294  143.845301  76.199708
  8889.480  8888.900  0.500  0.633355  120.687186  145.116584  77.029058
  8898.909  8898.900  0.500  0.631516  120.505843  145.125526  77.175587
  8908.898  8908.900  0.500  0.629791  120.146794  144.933828  77.206707
  8918.904  8918.900  0.500  0.628113  120.184352  145.209591  77.483503
  8928.898  8928.900  0.500  0.626665  119.883797  145.091596  77.532751
  8938.897  8938.900  0.500  0.625518  119.764572  145.176760  77.667285
  8948.910  8948.900  0.500  0.625036  119.559179  145.154311  77.692701
  8950.879  8950.900  0.500  0.624991  119.430217  145.051309  77.641083
  8952.886  8952.900  0.500  0.625110  119.399694  145.041911  77.626802
  8954.881  8954.900  0.500  0.625271  119.415006  145.131760  77.662348
  8956.870  8956.900  0.500  0.625600  119.360762  145.115946  77.628385
  8958.876  8958.900  0.500  0.626065  119.339702  145.128904  77.599230
  8960.877  8960.900  0.500  0.626612  119.302012  145.125461  77.554932
  8962.876  8962.900  0.500  0.627407  119.245602  145.101335  77.480445
  8964.875  8964.900  0.500  0.628461  118.925883  144.755326  77.214229
  8966.885  8966.900  0.500  0.630000  119.149718  145.086283  77.271797
  8968.876  8968.900  0.500  0.632116  119.111837  145.088081  77.109377
  8969.170  8969.200  0.500  0.632495  119.110201  145.099975  77.086473
  8969.465  8969.500  0.500  0.632914  119.103824  145.084800  77.046168
  8969.763  8969.800  0.500  0.633299  119.090515  145.089351  77.018859
  8970.064  8970.100  0.500  0.633743  119.088812  145.093817  76.987107
  8970.369  8970.400  0.500  0.634291  119.066337  145.063387  76.928755
  8970.667  8970.700  0.500  0.634750  119.070124  145.080002  76.902237
  8970.975  8971.000  0.500  0.635302  119.063920  145.080273  76.860007
  8971.269  8971.300  0.500  0.635946  119.039171  145.060109  76.799838
  8971.574  8971.600  0.500  0.636528  119.040613  145.061176  76.755694
  8971.869  8971.900  0.500  0.637300  119.027078  145.057508  76.694551
  8972.184  8972.200  0.500  0.638068  119.018207  145.042908  76.627945
  8972.479  8972.500  0.500  0.638828  119.006954  145.020744  76.558023
  8972.780  8972.800  0.500  0.639697  119.004159  145.027336  76.495013
  8973.085  8973.100  0.500  0.640610  118.996521  145.041667  76.432744
  8973.394  8973.400  0.500  0.641618  118.989853  145.038284  76.353976
  8973.688  8973.700  0.500  0.642631  118.978373  145.010131  76.261838
  8973.994  8974.000  0.500  0.643879  118.972858  145.000081  76.161465
  8974.278  8974.300  0.500  0.645110  118.954863  144.991717  76.063382
  8974.593  8974.600  0.500  0.646519  118.957458  144.991712  75.956271
  8974.888  8974.900  0.500  0.648076  118.947381  144.991138  75.837803
  8975.190  8975.200  0.500  0.649869  118.933972  145.004874  75.709081
  8975.492  8975.500  0.500  0.651774  118.930376  145.015939  75.570789
  8975.790  8975.800  0.500  0.654058  118.919806  145.013725  75.397253
  8976.085  8976.100  0.500  0.656395  118.911008  145.010839  75.219727
  8976.390  8976.400  0.500  0.659116  118.894102  144.995191  75.007237
  8976.681  8976.700  0.500  0.662224  118.886267  144.981356  74.767355
  8976.990  8977.000  0.500  0.665804  118.884559  144.972484  74.495628
  8977.292  8977.300  0.500  0.669981  118.863598  144.973169  74.185391
  8977.590  8977.600  0.500  0.674935  118.854421  144.950217  73.807108
  8977.882  8977.900  0.500  0.680988  118.843324  144.932035  73.352530
  8978.190  8978.200  0.500  0.688721  118.833924  144.939692  72.791331
  8978.489  8978.500  0.500  0.698283  118.833766  144.972630  72.115013
  8978.794  8978.800  0.500  0.710910  118.823680  144.982029  71.214705
  8979.086  8979.100  0.500  0.727574  118.807232  144.959042  70.026727
  8979.398  8979.400  0.500  0.751447  118.802262  144.963354  68.376847
  8979.697  8979.700  0.500  0.783557  118.786262  144.958873  66.214055
  8980.002  8980.000  0.500  0.828457  118.778430  144.947894  63.302029
  8980.290  8980.300  0.500  0.885854  118.771486  144.962930  59.777171
  8980.606  8980.600  0.500  0.959336  118.753107  144.966135  55.543385
  8980.895  8980.900  0.500  1.037848  118.682538  144.881895  51.319497
  8981.207  8981.200  0.500  1.116772  118.573776  144.780182  47.391568
  8981.502  8981.500  0.500  1.184416  118.473258  144.688394  44.263766
  8981.798  8981.800  0.500  1.236459  118.430133  144.652121  42.008511
  8982.100  8982.100  0.500  1.272271  118.407044  144.636590  40.526373
  8982.385  8982.400  0.500  1.293835  118.440931  144.683806  39.674774
  8982.701  8982.700  0.500  1.305650  118.540380  144.811000  39.243233
  8982.989  8983.000  0.500  1.308281  118.599320  144.904076  39.165278
  8983.295  8983.300  0.500  1.304388  118.624759  144.927817  39.324488
  8983.587  8983.600  0.500  1.296409  118.619016  144.932702  39.640873
  8983.892  8983.900  0.500  1.286428  118.614316  144.935384  40.039246
  8984.191  8984.200  0.500  1.276649  118.605522  144.936022  40.432876
  8984.493  8984.500  0.500  1.269571  118.603403  144.928573  40.717979
  8984.799  8984.800  0.500  1.266857  118.596034  144.924565  40.827522
  8985.095  8985.100  0.500  1.269861  118.577092  144.886447  40.694360
  8985.401  8985.400  0.500  1.279136  118.572751  144.888812  40.319303
  8985.696  8985.700  0.500  1.293189  118.560374  144.876432  39.753292
  8986.005  8986.000  0.500  1.310811  118.557236  144.874853  39.058448
  8986.304  8986.300  0.500  1.329693  118.537919  144.876161  38.328214
  8986.596  8986.600  0.500  1.347521  118.529301  144.882872  37.652702
  8986.906  8986.900  0.500  1.364819  118.521278  144.883783  37.007226
  8987.198  8987.200  0.500  1.380289  118.510231  144.846914  36.429864
  8987.494  8987.500  0.500  1.395520  118.503909  144.865413  35.883762
  8987.800  8987.800  0.500  1.411379  118.490110  144.869213  35.320122
  8988.099  8988.100  0.500  1.428025  118.469554  144.866295  34.736351
  8988.398  8988.400  0.500  1.446446  118.459795  144.845616  34.097461
  8988.690  8988.700  0.500  1.466464  118.456269  144.863833  33.425884
  8989.000  8989.000  0.500  1.489796  118.445464  144.865029  32.655272
  8989.295  8989.300  0.500  1.514880  118.438676  144.864952  31.846310
  8989.598  8989.600  0.500  1.542271  118.422620  144.850745  30.982817
  8989.904  8989.900  0.500  1.572767  118.398569  144.835697  30.049096
  8990.190  8990.200  0.500  1.603344  118.394993  144.836664  29.144409
  8990.496  8990.500  0.500  1.637470  118.381462  144.836890  28.166649
  8990.799  8990.800  0.500  1.671826  118.365315  144.827433  27.213598
  8991.105  8991.100  0.500  1.709211  118.347759  144.821534  26.213933
  8991.404  8991.400  0.500  1.747435  118.325184  144.790510  25.225429
  8991.693  8991.700  0.500  1.785432  118.286835  144.756099  24.279153
  8992.010  8992.000  0.500  1.826626  118.251108  144.723158  23.294024
  8992.306  8992.300  0.500  1.864731  118.398614  144.924793  22.454346
  8992.605  8992.600  0.500  1.902623  118.296696  144.802536  21.601182
  8992.908  8992.900  0.500  1.939091  117.993331  144.437919  20.775169
  8993.201  8993.200  0.500  1.972140  117.265918  143.565340  19.978381
  8993.503  8993.500  0.500  2.003310  116.391383  142.495425  19.220941
  8993.796  8993.800  0.500  2.031096  116.107655  142.152027  18.649152
  8994.099  8994.100  0.500  2.054870  116.500594  142.625487  18.271674
  8994.399  8994.400  0.500  2.074065  117.136116  143.432800  18.025754
  8994.688  8994.700  0.500  2.088132  117.766018  144.180316  17.866595
  8995.001  8995.000  0.500  2.096912  118.245973  144.780392  17.784123
  8995.297  8995.300  0.500  2.099856  118.439105  145.029986  17.762417
  8995.593  8995.600  0.500  2.097564  118.474684  145.102782  17.812101
  8995.900  8995.900  0.500  2.090795  118.477288  145.104125  17.933247
  8996.203  8996.200  0.500  2.080648  118.474273  145.100797  18.115735
  8996.503  8996.500  0.500  2.067807  118.464588  145.092983  18.348869
  8996.803  8996.800  0.500  2.053891  118.440406  145.065665  18.602500
  8997.106  8997.100  0.500  2.039281  118.425634  145.040506  18.872992
  8997.409  8997.400  0.500  2.024561  118.416280  145.045879  19.153567
  8997.702  8997.700  0.500  2.010708  118.398129  145.039394  19.419887
  8998.008  8998.000  0.500  1.996862  118.389683  145.038861  19.690573
  8998.305  8998.300  0.500  1.984418  118.367616  145.020470  19.934591
  8998.608  8998.600  0.500  1.972816  118.351927  144.992987  20.163415
  8998.908  8998.900  0.500  1.962894  118.346282  145.007759  20.366540
  8999.201  8999.200  0.500  1.954896  118.329748  144.998022  20.528709
  8999.497  8999.500  0.500  1.948853  118.303212  144.963422  20.648216
  8999.790  8999.800  0.500  1.945362  118.273488  144.948825  20.718333
  9000.104  9000.100  0.500  1.944505  118.242874  144.899849  20.729078
  9000.404  9000.400  0.500  1.946532  118.210821  144.859914  20.681413
  9000.690  9000.700  0.500  1.951301  118.183112  144.839383  20.580088
  9000.997  9001.000  0.500  1.959083  118.142255  144.779092  20.412066
  9001.290  9001.300  0.500  1.969520  118.076684  144.698261  20.188856
  9001.604  9001.600  0.500  1.982783  117.982654  144.603102  19.909748
  9001.897  9001.900  0.500  1.998486  117.780046  144.377369  19.568964
  9002.201  9002.200  0.500  2.016262  117.282714  143.790005  19.145965
  9002.497  9002.500  0.500  2.035114  116.486845  142.816846  18.661243
  9002.797  9002.800  0.500  2.054042  115.889517  142.100802  18.219540
  9003.104  9003.100  0.500  2.073422  115.931491  142.147597  17.875733
  9003.401  9003.400  0.500  2.090008  116.509226  142.862250  17.670079
  9003.701  9003.700  0.500  2.103658  117.236187  143.762363  17.540351
  9003.904  9003.900  0.500  2.110307  117.645302  144.262223  17.484693
  9004.906  9004.890  0.500  2.115844  118.227486  145.000857  17.477178
  9005.904  9005.890  0.500  2.082621  118.185446  144.975603  18.064423
  9006.924  9006.910  0.500  2.033073  118.142556  144.934322  18.976626
  9007.972  9007.960  0.500  1.990677  118.068142  144.868570  19.789474
  9009.038  9009.020  0.500  1.960429  117.897395  144.686198  20.371518
  9010.111  9010.100  0.500  1.931893  116.347146  142.804611  20.688622
  9011.212  9011.200  0.500  1.903030  116.798765  143.382293  21.380602
  9012.331  9012.320  0.500  1.886518  118.095642  144.999849  21.981792
  9013.478  9013.460  0.500  1.884238  118.066485  144.984056  22.029578
  9014.622  9014.610  0.500  1.890564  118.019381  144.952747  21.885923
  9015.809  9015.790  0.500  1.900993  117.978523  144.927785  21.655139
  9016.985  9016.980  0.500  1.917109  117.929624  144.904786  21.305554
  9018.204  9018.200  0.500  1.940918  117.851200  144.832754  20.793932
  9019.443  9019.430  0.500  1.969529  117.404598  144.321762  20.136142
  9020.698  9020.680  0.500  1.999688  115.944153  142.557259  19.299047
  9021.959  9021.950  0.500  2.028127  117.852294  144.920449  19.068885
  9023.249  9023.240  0.500  2.055456  117.857395  144.956982  18.559493
  9024.561  9024.550  0.500  2.082366  117.820455  144.968731  18.068173
  9025.908  9025.880  0.500  2.103039  117.776669  144.936243  17.694513
  9027.230  9027.230  0.500  2.109677  117.735269  144.909927  17.574262
  9028.610  9028.600  0.500  2.096800  117.712619  144.914022  17.802531
  9030.000  9029.980  0.500  2.068647  117.682368  144.905210  18.309735
  9031.401  9031.390  0.500  2.033793  117.646436  144.889879  18.957144
  9032.817  9032.810  0.500  1.999377  117.613432  144.877815  19.619291
  9034.261  9034.250  0.500  1.970356  117.580834  144.872581  20.196284
  9035.727  9035.710  0.500  1.951442  117.547680  144.864029  20.580694
  9037.201  9037.190  0.500  1.941661  117.500387  144.825742  20.777490
  9038.689  9038.690  0.500  1.939912  117.467760  144.826539  20.813967
  9040.227  9040.210  0.500  1.945403  117.122049  144.437009  20.644319
  9041.772  9041.750  0.500  1.955788  116.250188  143.393623  20.283459
  9043.318  9043.310  0.500  1.964033  117.255064  144.661006  20.294715
  9044.896  9044.880  0.500  1.965136  117.275783  144.721577  20.280818
  9046.506  9046.480  0.500  1.960659  117.248708  144.711997  20.370474
  9048.107  9048.090  0.500  1.960195  117.213154  144.705404  20.379003
  9049.740  9049.730  0.500  1.968869  117.182645  144.713083  20.204064
  9051.387  9051.380  0.500  1.980797  117.154972  144.716401  19.964971
  9053.063  9053.050  0.500  1.988498  117.115210  144.720043  19.812310
  9054.748  9054.740  0.500  1.988908  117.088633  144.719218  19.804072
  9056.457  9056.450  0.500  1.989808  117.050702  144.705354  19.784351
  9058.195  9058.180  0.500  1.997600  117.000139  144.668464  19.625785
  9059.934  9059.930  0.500  2.012286  116.958639  144.666338  19.339399
  9061.695  9061.690  0.500  2.027309  116.827983  144.538702  19.034227
  9063.499  9063.480  0.500  2.038560  115.776252  143.255395  18.654152
  9065.286  9065.280  0.500  2.047149  116.790204  144.567123  18.663967
  9067.124  9067.110  0.500  2.057327  116.792540  144.624056  18.482243
  9068.962  9068.950  0.500  2.070369  116.777441  144.650154  18.246057
  9070.822  9070.810  0.500  2.086450  116.713268  144.613024  17.950389
  9072.705  9072.690  0.500  2.098174  116.668574  144.605987  17.740304
  9074.612  9074.590  0.500  2.098994  116.617887  144.594429  17.724338
  9076.521  9076.510  0.500  2.087206  116.584142  144.582894  17.933086
  9078.459  9078.450  0.500  2.064532  116.536391  144.561783  18.341655
  9080.426  9080.410  0.500  2.036976  115.674927  143.540134  18.720871
  9082.380  9082.380  0.500  2.012052  116.243136  144.280812  19.292361
  9084.385  9084.380  0.500  1.990268  116.372235  144.470089  19.743099
  9086.387  9086.390  0.500  1.970927  116.333806  144.463552  20.127765
  9088.432  9088.420  0.500  1.957741  116.290567  144.456346  20.393907
  9090.493  9090.480  0.500  1.950964  116.247079  144.459792  20.533081
  9092.547  9092.550  0.500  1.938925  116.198150  144.446491  20.779856
  9094.652  9094.640  0.500  1.918424  116.155660  144.437121  21.208892
  9096.755  9096.750  0.500  1.897009  116.101904  144.418422  21.665172
  9098.888  9098.880  0.500  1.882050  116.069006  144.424299  21.992591
  9101.028  9101.020  0.500  1.879775  116.027416  144.368718  22.034190
  9103.194  9103.190  0.500  1.889308  114.967660  143.112265  21.635187
  9105.398  9105.380  0.500  1.907188  115.797744  144.188810  21.411655
  9107.595  9107.580  0.500  1.928838  115.818494  144.288343  20.967541
  9109.807  9109.800  0.500  1.948609  115.782331  144.287607  20.556955
  9112.068  9112.050  0.500  1.963694  115.728189  144.273612  20.247212
  9114.318  9114.310  0.500  1.972485  115.681651  144.267542  20.069168
  9116.598  9116.590  0.500  1.974353  115.631111  144.255100  20.029980
  9118.891  9118.890  0.500  1.972847  115.576271  144.228100  20.056413
  9121.231  9121.210  0.500  1.974588  115.512843  144.209872  20.019001
  9123.569  9123.550  0.500  1.986976  115.461753  144.200977  19.771302
  9125.904  9125.900  0.500  2.013054  115.405534  144.143856  19.254743
  9128.294  9128.280  0.500  2.048965  115.337121  144.118820  18.572328
  9130.675  9130.670  0.500  2.077662  115.276981  144.113871  18.046321
  9133.115  9133.090  0.500  2.089491  115.210040  144.068708  17.828521
  9135.542  9135.520  0.500  2.086362  115.137438  144.028829  17.879444
  9137.980  9137.970  0.500  2.075614  115.061624  143.984298  18.067057
  9140.464  9140.450  0.500  2.061415  114.944613  143.890799  18.313523
  9142.952  9142.940  0.500  2.041461  114.244994  143.067750  18.575754
  9145.474  9145.450  0.500  2.013339  114.870700  143.899321  19.216600
  9147.972  9147.970  0.500  1.980644  114.928140  144.026671  19.872846
  9150.541  9150.520  0.500  1.943700  114.826581  143.957973  20.610929
  9153.103  9153.090  0.500  1.905868  114.676402  143.822629  21.385495
  9155.689  9155.670  0.500  1.870330  114.192080  143.284466  22.076248
  9158.298  9158.280  0.500  1.842721  114.172198  143.305477  22.697555
  9160.915  9160.900  0.500  1.831286  114.663478  143.971593  23.065324
  9163.567  9163.550  0.500  1.838598  114.524440  143.855127  22.878761
  9166.224  9166.210  0.500  1.861598  114.187354  143.486955  22.301325
  9168.911  9168.890  0.500  1.892321  112.982231  142.041579  21.408735
  9171.619  9171.590  0.500  1.921023  114.485171  143.971803  21.085683
  9174.331  9174.310  0.500  1.939763  114.377809  143.903098  20.684353
  9177.081  9177.050  0.500  1.948519  114.260542  143.826697  20.493133
  9179.830  9179.800  0.500  1.949273  114.008812  143.563313  20.440185
  9182.598  9182.580  0.500  1.944312  112.505905  141.721157  20.278256
  9185.394  9185.370  0.500  1.939424  114.183528  143.902289  20.691239
  9188.213  9188.190  0.500  1.936791  114.076372  143.828585  20.735171
  9191.034  9191.020  0.500  1.934417  113.978207  143.762429  20.774892
  9193.893  9193.870  0.500  1.929775  113.899293  143.722218  20.865712
  9196.768  9196.750  0.500  1.923049  113.801008  143.657888  20.997126
  9199.660  9199.640  0.500  1.921717  113.705269  143.599721  21.016596
  9202.576  9202.550  0.500  1.932613  113.628168  143.554982  20.782364
  9205.482  9205.470  0.500  1.953034  113.551881  143.521832  20.357581
  9208.442  9208.420  0.500  1.971870  113.478585  143.484486  19.972502
  9211.407  9211.390  0.500  1.979318  113.409972  143.476499  19.823207
