# XDI/1.0 BlueSky/1.10.0 BMM/2023-1.0-py310-tiled
# Beamline.name: BMM (06BM) -- Beamline for Materials Measurement (NIST)
# Beamline.xray_source: NSLS-II three-pole wiggler
# Beamline.collimation: paraboloid mirror, 5 nm Rh on 30 nm Pt
# Beamline.focusing: not in use
# Beamline.harmonic_rejection: flat mirror, Pt stripe, pitch = 7.0 mrad relative to beam
# Beamline.software: Bluesky 1.10.0, Ophyd 1.7.0, DataBroker 2.0.0b13, Python 3.10.8, 2023-1.0-py310-tiled
# Detector.I0: 10 cm N2
# Detector.I1: 25 cm N2
# Detector.I2: 25 cm N2
# Element.symbol: Cu
# Element.edge: K
# Element.reference: Cu
# Element.reference_material: Cu foil
# Facility.name: NSLS-II
# Facility.energy: 3.0
# Facility.current: 399.8
# Facility.mode: top-off
# Facility.GUP: 123456
# Facility.SAF: 301027
# Facility.cycle: 2023-2
# Mono.name: Si(111)
# Mono.d_spacing: 3.1351860
# Mono.encoder_resolution: 0.0000050 deg/ct
# Mono.angle_offset: 16.0754326 deg
# Mono.scan_mode: pseudo channel cut
# Mono.scan_type: step
# Mono.direction: forward in energy
# Sample.name: Cu2O
# Sample.prep: powder in PEG pellet
# Sample.x: 116.329 mm
# Sample.y: 114.126 mm
# Sample.SDD_position: 205.000 mm
# Scan.experimenters: Bruce Ravel
# Scan.edge_energy: 8978.9
# Scan.start_time: 2023-05-07T09:17:46
# Scan.end_time: 2023-05-07T09:25:40
# Scan.transient_id: 74867
# Scan.uid: 56d5fda3-075e-4e9c-92d8-bff39cbc9bf4
# Scan.plot_hint: ln(I0/It)  --  ln($5/$6)
# Column.1: energy eV
# Column.2: requested_energy eV
# Column.3: measurement_time seconds
# Column.4: xmu 
# Column.5: I0 nA
# Column.6: It nA
# Column.7: Ir nA
# ///////////
# sample courtesy Martin Stennett, University of Sheffield
# -----------
# energy  requested_energy  measurement_time  xmu  I0  It  Ir
  8778.913  8778.900  0.500  0.336181  121.934710  87.121602  45.230426
  8788.963  8788.900  0.500  0.332858  121.763863  87.289082  45.417602
  8798.953  8798.900  0.500  0.329432  121.556316  87.439383  45.596391
  8808.984  8808.900  0.500  0.326137  121.371093  87.594298  45.777912
  8818.920  8818.900  0.500  0.322721  121.174792  87.751833  45.957504
  8828.917  8828.900  0.500  0.319378  120.977216  87.902152  46.138400
  8838.886  8838.900  0.500  0.316093  120.780535  88.048002  46.308037
  8848.896  8848.900  0.500  0.312857  120.589169  88.193408  46.485083
  8858.898  8858.900  0.500  0.309680  120.385822  88.324873  46.653136
  8868.887  8868.900  0.500  0.306520  120.196538  88.465102  46.819545
  8878.875  8878.900  0.500  0.303257  120.000219  88.609272  46.990681
  8888.889  8888.900  0.500  0.299929  119.798522  88.755242  47.159737
  8898.892  8898.900  0.500  0.297024  119.592380  88.860293  47.307728
  8908.919  8908.900  0.500  0.293866  119.267031  88.898830  47.408897
  8918.900  8918.900  0.500  0.290916  119.260297  89.156386  47.628359
  8928.905  8928.900  0.500  0.287940  119.006742  89.232028  47.740592
  8938.908  8938.900  0.500  0.285269  118.849864  89.352718  47.857285
  8948.896  8948.900  0.500  0.282985  118.652062  89.408047  47.911093
  8950.910  8950.900  0.500  0.282365  118.573790  89.404409  47.906199
  8952.900  8952.900  0.500  0.281923  118.441842  89.344478  47.870875
  8954.898  8954.900  0.500  0.281666  118.513870  89.421737  47.906199
  8956.901  8956.900  0.500  0.281447  118.479774  89.415612  47.886579
  8958.887  8958.900  0.500  0.281193  118.444435  89.411643  47.866147
  8960.891  8960.900  0.500  0.281040  118.404193  89.394908  47.830089
  8962.896  8962.900  0.500  0.280978  118.359880  89.367020  47.777475
  8964.889  8964.900  0.500  0.281104  118.075147  89.140824  47.612279
  8966.903  8966.900  0.500  0.281401  118.247360  89.244306  47.592618
  8968.893  8968.900  0.500  0.282030  118.494286  89.374399  47.564686
  8969.177  8969.200  0.500  0.282118  118.484456  89.359198  47.537981
  8969.472  8969.500  0.500  0.282479  118.480027  89.323611  47.500726
  8969.776  8969.800  0.500  0.282704  118.470158  89.295994  47.466463
  8970.074  8970.100  0.500  0.282658  118.454717  89.288467  47.443110
  8970.372  8970.400  0.500  0.282643  118.446547  89.283720  47.417534
  8970.680  8970.700  0.500  0.282859  118.433862  89.254879  47.379945
  8970.975  8971.000  0.500  0.283160  118.426490  89.222428  47.340552
  8971.276  8971.300  0.500  0.283375  118.415093  89.194698  47.298552
  8971.571  8971.600  0.500  0.283617  118.416317  89.174023  47.257957
  8971.879  8971.900  0.500  0.283788  118.401025  89.147228  47.212065
  8972.177  8972.200  0.500  0.284001  118.399863  89.127334  47.171852
  8972.482  8972.500  0.500  0.284269  118.385534  89.092705  47.115498
  8972.780  8972.800  0.500  0.284608  118.378648  89.057300  47.058709
  8973.085  8973.100  0.500  0.284907  118.358746  89.015769  46.996128
  8973.387  8973.400  0.500  0.285280  118.349148  88.975327  46.932801
  8973.692  8973.700  0.500  0.285695  118.346040  88.936039  46.863095
  8973.987  8974.000  0.500  0.286166  118.334829  88.885771  46.785658
  8974.295  8974.300  0.500  0.286619  118.328679  88.840924  46.706209
  8974.586  8974.600  0.500  0.287132  118.325718  88.793151  46.620304
  8974.899  8974.900  0.500  0.287689  118.314282  88.735139  46.520011
  8975.186  8975.200  0.500  0.288406  118.295821  88.657645  46.407345
  8975.498  8975.500  0.500  0.289092  118.289822  88.592349  46.286904
  8975.790  8975.800  0.500  0.289709  118.293537  88.540507  46.169966
  8976.098  8976.100  0.500  0.290655  118.277104  88.444495  46.015105
  8976.386  8976.400  0.500  0.291480  118.258986  88.358021  45.862490
  8976.688  8976.700  0.500  0.292358  118.260570  88.281684  45.689759
  8976.983  8977.000  0.500  0.293391  118.247873  88.181060  45.496583
  8977.295  8977.300  0.500  0.294600  118.228831  88.060353  45.262801
  8977.583  8977.600  0.500  0.295933  118.222827  87.938560  45.012702
  8977.889  8977.900  0.500  0.297564  118.208522  87.784604  44.697763
  8978.187  8978.200  0.500  0.299321  118.207671  87.629878  44.331477
  8978.489  8978.500  0.500  0.301828  118.196873  87.402469  43.854263
  8978.791  8978.800  0.500  0.304482  118.183025  87.160572  43.293664
  8979.096  8979.100  0.500  0.307608  118.173675  86.881683  42.578201
  8979.391  8979.400  0.500  0.311396  118.170782  86.551123  41.653796
  8979.697  8979.700  0.500  0.315916  118.162098  86.154446  40.436206
  8979.999  8980.000  0.500  0.321522  118.152216  85.665620  38.852511
  8980.290  8980.300  0.500  0.328514  118.145936  85.064213  36.864296
  8980.603  8980.600  0.500  0.338151  118.137662  84.242512  34.283054
  8980.902  8980.900  0.500  0.350605  118.098046  83.171968  31.489190
  8981.200  8981.200  0.500  0.368175  118.026926  81.674172  28.549009
  8981.502  8981.500  0.500  0.392326  117.911399  79.647262  25.782607
  8981.801  8981.800  0.500  0.425821  117.825029  76.967262  23.338362
  8982.096  8982.100  0.500  0.468130  117.782685  73.752223  21.319145
  8982.398  8982.400  0.500  0.519494  117.789805  70.063912  19.595251
  8982.694  8982.700  0.500  0.574401  117.834904  66.345994  18.173855
  8982.989  8983.000  0.500  0.621299  117.928333  63.356542  17.180548
  8983.291  8983.300  0.500  0.655084  117.978699  61.277969  16.591327
  8983.593  8983.600  0.500  0.668229  117.993102  60.485103  16.453766
  8983.896  8983.900  0.500  0.664528  117.979964  60.702590  16.664377
  8984.195  8984.200  0.500  0.649629  117.967787  61.607452  17.087212
  8984.487  8984.500  0.500  0.630045  117.952736  62.817860  17.587297
  8984.799  8984.800  0.500  0.609240  117.946132  64.134860  18.071330
  8985.102  8985.100  0.500  0.592751  117.952497  65.204652  18.392438
  8985.394  8985.400  0.500  0.581365  117.918968  65.932576  18.513720
  8985.706  8985.700  0.500  0.575808  117.906294  66.292842  18.416665
  8986.005  8986.000  0.500  0.575854  117.891155  66.281277  18.142501
  8986.297  8986.300  0.500  0.580189  117.883536  65.990298  17.748306
  8986.610  8986.600  0.500  0.587510  117.861055  65.496469  17.282957
  8986.902  8986.900  0.500  0.596570  117.851007  64.900208  16.831760
  8987.205  8987.200  0.500  0.606233  117.837057  64.268517  16.393970
  8987.511  8987.500  0.500  0.616424  117.812378  63.603545  15.972086
  8987.796  8987.800  0.500  0.626077  117.789959  62.980541  15.581208
  8988.088  8988.100  0.500  0.635578  117.774075  62.376610  15.190972
  8988.394  8988.400  0.500  0.645038  117.758468  61.781100  14.784148
  8988.690  8988.700  0.500  0.654379  117.730577  61.192217  14.374579
  8988.993  8989.000  0.500  0.664581  117.718074  60.564651  13.924788
  8989.292  8989.300  0.500  0.674999  117.699965  59.927758  13.466167
  8989.595  8989.600  0.500  0.686112  117.683349  59.257073  12.974255
  8989.904  8989.900  0.500  0.697400  117.668967  58.584823  12.466107
  8990.203  8990.200  0.500  0.707988  117.637828  57.952436  11.972535
  8990.503  8990.500  0.500  0.718430  117.624671  57.344021  11.481602
  8990.802  8990.800  0.500  0.728591  117.604727  56.754692  10.993454
  8991.105  8991.100  0.500  0.738979  117.574334  56.153633  10.498054
  8991.404  8991.400  0.500  0.749864  117.553861  55.536045  10.004760
  8991.700  8991.700  0.500  0.761662  117.524179  54.870825  9.516433
  8991.996  8992.000  0.500  0.774369  117.492046  54.163172  9.036623
  8992.295  8992.300  0.500  0.788579  117.447542  53.378774  8.557777
  8992.598  8992.600  0.500  0.803610  117.383814  52.553891  8.106819
  8992.894  8992.900  0.500  0.819618  117.255492  51.662776  7.675623
  8993.197  8993.200  0.500  0.836340  116.896009  50.650281  7.264064
  8993.493  8993.500  0.500  0.852915  116.081917  49.470703  6.864035
  8993.803  8993.800  0.500  0.869855  115.252091  48.292039  6.493188
  8994.102  8994.100  0.500  0.885046  115.136184  47.516127  6.216996
  8994.402  8994.400  0.500  0.898399  115.606498  47.077391  6.016311
  8994.698  8994.700  0.500  0.908945  116.255036  46.844849  5.878490
  8994.998  8995.000  0.500  0.917009  116.867164  46.713293  5.785848
  8995.308  8995.300  0.500  0.923322  117.253223  46.572686  5.723339
  8995.604  8995.600  0.500  0.928222  117.382620  46.396172  5.693321
  8995.900  8995.900  0.500  0.932466  117.405892  46.208825  5.687748
  8996.200  8996.200  0.500  0.936071  117.402839  46.041343  5.708892
  8996.496  8996.500  0.500  0.939438  117.388864  45.881157  5.749425
  8996.796  8996.800  0.500  0.942450  117.369272  45.735530  5.805282
  8997.088  8997.100  0.500  0.944975  117.356511  45.615196  5.870299
  8997.398  8997.400  0.500  0.946595  117.342848  45.536085  5.950404
  8997.698  8997.700  0.500  0.946899  117.328967  45.516855  6.032902
  8998.002  8998.000  0.500  0.945602  117.309627  45.568434  6.127291
  8998.298  8998.300  0.500  0.942676  117.295485  45.696415  6.226214
  8998.601  8998.600  0.500  0.937864  117.281749  45.911469  6.336596
  8998.908  8998.900  0.500  0.931163  117.257725  46.210699  6.451352
  8999.204  8999.200  0.500  0.923668  117.246509  46.553874  6.562599
  8999.511  8999.500  0.500  0.915375  117.219153  46.930606  6.667612
  8999.804  8999.800  0.500  0.907435  117.206214  47.299502  6.755913
  9000.101  9000.100  0.500  0.899537  117.176775  47.662579  6.826864
  9000.397  9000.400  0.500  0.892069  117.148010  48.008064  6.878845
  9000.693  9000.700  0.500  0.885154  117.131540  48.334381  6.908165
  9000.993  9001.000  0.500  0.878735  117.099169  48.632212  6.913161
  9001.290  9001.300  0.500  0.872440  117.048179  48.918024  6.897312
  9001.604  9001.600  0.500  0.866235  116.979398  49.193573  6.857202
  9001.908  9001.900  0.500  0.860400  116.868146  49.434407  6.796230
  9002.211  9002.200  0.500  0.854877  116.630271  49.606991  6.709533
  9002.511  9002.500  0.500  0.849777  116.062132  49.617752  6.590346
  9002.808  9002.800  0.500  0.845351  115.277427  49.500897  6.453860
  9003.104  9003.100  0.500  0.841318  114.766310  49.480589  6.327334
  9003.401  9003.400  0.500  0.837985  114.921444  49.712881  6.243607
  9003.698  9003.700  0.500  0.835375  115.541663  50.111785  6.191239
  9003.900  9003.900  0.500  0.833949  116.044253  50.401571  6.170903
  9004.899  9004.890  0.500  0.830833  117.153080  51.041957  6.144181
  9005.915  9005.890  0.500  0.834009  117.137224  50.873261  6.284306
  9006.924  9006.910  0.500  0.840264  117.093592  50.537185  6.549499
  9007.972  9007.960  0.500  0.846490  117.019152  50.191592  6.805871
  9009.038  9009.020  0.500  0.853326  116.908819  49.802677  6.977113
  9010.111  9010.100  0.500  0.861519  115.922549  48.979564  7.059144
  9011.216  9011.200  0.500  0.870568  115.223628  48.245699  7.164860
  9012.352  9012.320  0.500  0.875414  117.027805  48.764233  7.388265
  9013.471  9013.460  0.500  0.874599  117.043999  48.810754  7.431815
  9014.622  9014.610  0.500  0.871134  117.007031  48.964720  7.416711
  9015.812  9015.790  0.500  0.869424  116.958009  49.027957  7.356123
  9016.999  9016.980  0.500  0.867392  116.916858  49.110430  7.260508
  9018.218  9018.200  0.500  0.859959  116.852012  49.449353  7.149406
  9019.443  9019.430  0.500  0.847302  116.609256  49.975173  7.027125
  9020.694  9020.680  0.500  0.833645  114.584990  49.782928  6.789739
  9021.973  9021.950  0.500  0.824100  116.757194  51.213147  6.783340
  9023.246  9023.240  0.500  0.817891  116.826664  51.562806  6.647421
  9024.564  9024.550  0.500  0.812053  116.799347  51.852578  6.502502
  9025.904  9025.880  0.500  0.807260  116.779685  52.092933  6.390165
  9027.248  9027.230  0.500  0.803861  116.745665  52.255078  6.345529
  9028.617  9028.600  0.500  0.801414  116.808170  52.411128  6.425685
  9030.000  9029.980  0.500  0.799707  117.091732  52.628135  6.621988
  9031.394  9031.390  0.500  0.798871  117.096390  52.674213  6.857797
  9032.824  9032.810  0.500  0.799534  117.087640  52.635388  7.096847
  9034.261  9034.250  0.500  0.802534  117.056228  52.463655  7.292943
  9035.724  9035.710  0.500  0.807892  117.033166  52.173009  7.403864
  9037.208  9037.190  0.500  0.813546  117.008600  51.867994  7.444576
  9038.696  9038.690  0.500  0.819095  116.967993  51.563067  7.424765
  9040.220  9040.210  0.500  0.824546  116.835242  51.224545  7.343190
  9041.754  9041.750  0.500  0.830297  115.617833  50.400125  7.153926
  9043.325  9043.310  0.500  0.836816  116.735235  50.556537  7.109041
  9044.892  9044.880  0.500  0.843966  116.779804  50.215508  7.045145
  9046.489  9046.480  0.500  0.850459  116.760318  49.882200  7.027655
  9048.103  9048.090  0.500  0.854030  116.741686  49.696479  7.012386
  9049.736  9049.730  0.500  0.853526  116.700416  49.703923  6.962900
  9051.401  9051.380  0.500  0.849564  116.674626  49.890207  6.904263
  9053.056  9053.050  0.500  0.844446  116.631328  50.127628  6.877892
  9054.748  9054.740  0.500  0.841181  116.600530  50.278253  6.890178
  9056.471  9056.450  0.500  0.839780  116.573270  50.336978  6.896067
  9058.192  9058.180  0.500  0.839376  116.536835  50.341605  6.852162
  9059.945  9059.930  0.500  0.838662  116.498421  50.360956  6.757796
  9061.695  9061.690  0.500  0.837026  116.407753  50.404113  6.660674
  9063.496  9063.480  0.500  0.835021  115.178550  49.971988  6.526417
  9065.297  9065.280  0.500  0.833705  116.335812  50.540564  6.542298
  9067.120  9067.110  0.500  0.833751  116.340543  50.540269  6.479489
  9068.966  9068.950  0.500  0.834676  116.310888  50.480672  6.391149
  9070.819  9070.810  0.500  0.836393  116.283786  50.382317  6.278540
  9072.708  9072.690  0.500  0.838406  116.240891  50.262480  6.184317
  9074.591  9074.590  0.500  0.840131  116.196699  50.156754  6.153377
  9076.518  9076.510  0.500  0.841525  116.157149  50.069855  6.206457
  9078.463  9078.450  0.500  0.842499  116.103054  49.997814  6.331535
  9080.423  9080.410  0.500  0.842690  115.497702  49.727630  6.473458
  9082.402  9082.380  0.500  0.842765  115.723767  49.821244  6.654124
  9084.395  9084.380  0.500  0.842147  115.947128  49.948223  6.818855
  9086.411  9086.390  0.500  0.840651  115.917334  50.010155  6.963807
  9088.429  9088.420  0.500  0.837681  115.874731  50.140502  7.081138
  9090.489  9090.480  0.500  0.833176  115.835825  50.349966  7.161079
  9092.547  9092.550  0.500  0.827501  115.798782  50.620311  7.280961
  9094.649  9094.640  0.500  0.821379  115.760629  50.914382  7.468219
  9096.759  9096.750  0.500  0.815446  115.714328  51.196852  7.674107
  9098.888  9098.880  0.500  0.809896  115.678533  51.465898  7.838987
  9101.024  9101.020  0.500  0.805216  115.640440  51.690279  7.904662
  9103.209  9103.190  0.500  0.801395  114.818964  51.519566  7.812865
  9105.390  9105.380  0.500  0.798917  115.359941  51.890737  7.736004
  9107.595  9107.580  0.500  0.797637  115.440057  51.993288  7.584756
  9109.811  9109.800  0.500  0.797822  115.409209  51.969742  7.430217
  9112.075  9112.050  0.500  0.799439  115.353550  51.860770  7.299783
  9114.332  9114.310  0.500  0.802224  115.314729  51.699136  7.205985
  9116.613  9116.590  0.500  0.804926  115.257877  51.534222  7.165666
  9118.916  9118.890  0.500  0.806666  115.222886  51.429032  7.161987
  9121.224  9121.210  0.500  0.807464  115.168126  51.363542  7.146340
  9123.565  9123.550  0.500  0.807532  115.117120  51.337347  7.064796
  9125.918  9125.900  0.500  0.807253  115.059055  51.325725  6.891058
  9128.305  9128.280  0.500  0.807136  115.005495  51.307881  6.647534
  9130.686  9130.670  0.500  0.806887  114.950819  51.296223  6.448096
  9133.104  9133.090  0.500  0.806624  114.887076  51.281261  6.359572
  9135.552  9135.520  0.500  0.806406  114.816586  51.261006  6.368674
  9137.991  9137.970  0.500  0.806731  114.752362  51.215666  6.426590
  9140.493  9140.450  0.500  0.807608  114.645959  51.123320  6.507672
  9142.934  9142.940  0.500  0.808307  114.214928  50.895503  6.601714
  9145.438  9145.450  0.500  0.808114  114.162851  50.882127  6.781398
  9147.962  9147.970  0.500  0.806666  114.617516  51.158789  7.043846
  9150.526  9150.520  0.500  0.804513  114.516815  51.224046  7.316071
  9153.666  9153.090  0.500  0.801573  114.351533  51.300676  7.645423
  9155.732  9155.670  0.500  0.799294  113.999077  51.259278  7.889479
  9158.298  9158.280  0.500  0.797119  113.124673  50.976862  8.071214
  9160.905  9160.900  0.500  0.794673  114.397391  51.676626  8.288937
  9163.549  9163.550  0.500  0.792844  114.264599  51.711136  8.249348
  9166.220  9166.210  0.500  0.791583  113.975589  51.645385  8.061088
  9168.897  9168.890  0.500  0.790796  111.764755  50.683480  7.676643
  9171.604  9171.590  0.500  0.790136  114.246341  51.843043  7.624572
  9174.324  9174.310  0.500  0.789377  114.142362  51.835221  7.472836
  9177.060  9177.050  0.500  0.788573  114.030860  51.826229  7.399337
  9179.797  9179.800  0.500  0.787817  113.842152  51.779580  7.381965
  9182.587  9182.580  0.500  0.787180  111.298032  50.654668  7.254894
  9185.372  9185.370  0.500  0.786258  113.954788  51.911656  7.472144
  9188.180  9188.190  0.500  0.785216  113.854541  51.920086  7.496231
  9191.019  9191.020  0.500  0.783867  113.758386  51.946245  7.515356
  9193.864  9193.870  0.500  0.782525  113.690088  51.984813  7.553883
  9196.750  9196.750  0.500  0.780798  113.582493  52.025385  7.611013
  9199.638  9199.640  0.500  0.779039  113.487119  52.073200  7.635350
  9202.546  9202.550  0.500  0.777275  113.414828  52.131889  7.573029
  9205.475  9205.470  0.500  0.775135  113.343006  52.210523  7.433608
  9208.413  9208.420  0.500  0.773048  113.281391  52.291125  7.301359
  9211.400  9211.390  0.500  0.770607  113.204908  52.383549  7.251450
  9214.356  9214.370  0.500  0.768386  113.155040  52.476872  7.266889
  9217.380  9217.380  0.500  0.766195  113.094488  52.563859  7.316176
  9220.395  9220.400  0.500  0.764089  113.029055  52.644172  7.399810
  9223.445  9223.450  0.500  0.762077  112.951312  52.713948  7.525180
  9226.520  9226.510  0.500  0.760609  112.878245  52.757229  7.692360
