# XDI/1.0 BlueSky/1.10.0 BMM/2023-1.0-py310-tiled
# Beamline.name: BMM (06BM) -- Beamline for Materials Measurement (NIST)
# Beamline.xray_source: NSLS-II three-pole wiggler
# Beamline.collimation: paraboloid mirror, 5 nm Rh on 30 nm Pt
# Beamline.focusing: not in use
# Beamline.harmonic_rejection: flat mirror, Pt stripe, pitch = 7.0 mrad relative to beam
# Beamline.software: Bluesky 1.10.0, Ophyd 1.7.0, DataBroker 2.0.0b13, Python 3.10.8, 2023-1.0-py310-tiled
# Detector.I0: 10 cm N2
# Detector.I1: 25 cm N2
# Detector.I2: 25 cm N2
# Element.symbol: Cu
# Element.edge: K
# Element.reference: Cu
# Element.reference_material: Cu foil
# Facility.name: NSLS-II
# Facility.energy: 3.0
# Facility.current: 400.0
# Facility.mode: top-off
# Facility.GUP: 123456
# Facility.SAF: 301027
# Facility.cycle: 2023-2
# Mono.name: Si(111)
# Mono.d_spacing: 3.1351860
# Mono.encoder_resolution: 0.0000050 deg/ct
# Mono.angle_offset: 16.0754326 deg
# Mono.scan_mode: pseudo channel cut
# Mono.scan_type: step
# Mono.direction: forward in energy
# Sample.name: CuSi2(OH)2
# Sample.prep: powder in PEG pellet
# Sample.x: 116.329 mm
# Sample.y: 114.126 mm
# Sample.SDD_position: 205.000 mm
# Scan.experimenters: Bruce Ravel
# Scan.edge_energy: 8978.9
# Scan.start_time: 2023-05-06T12:53:15
# Scan.end_time: 2023-05-06T13:02:22
# Scan.transient_id: 74803
# Scan.uid: 6dfe6bec-947c-4b21-964b-1286035686e8
# Scan.plot_hint: ln(I0/It)  --  ln($5/$6)
# Column.1: energy eV
# Column.2: requested_energy eV
# Column.3: measurement_time seconds
# Column.4: xmu 
# Column.5: I0 nA
# Column.6: It nA
# Column.7: Ir nA
# ///////////
# sample courtesy Martin Stennett, University of Sheffield
# -----------
# energy  requested_energy  measurement_time  xmu  I0  It  Ir
  8778.910  8778.900  0.500  0.653249  122.790004  63.894100  33.122813
  8788.920  8788.900  0.500  0.649161  122.565904  64.038713  33.271353
  8798.923  8798.900  0.500  0.644472  122.348741  64.225703  33.439155
  8808.933  8808.900  0.500  0.640122  122.143764  64.397593  33.603138
  8818.937  8818.900  0.500  0.635700  121.935077  64.572532  33.767244
  8828.984  8828.900  0.500  0.631318  121.728511  64.746226  33.930972
  8838.913  8838.900  0.500  0.626902  121.530304  64.926888  34.096269
  8848.940  8848.900  0.500  0.622621  121.329162  65.097500  34.259654
  8858.973  8858.900  0.500  0.618472  121.118826  65.254842  34.409499
  8868.934  8868.900  0.500  0.614346  120.901838  65.407262  34.562216
  8878.925  8878.900  0.500  0.610109  120.688978  65.569315  34.721491
  8888.909  8888.900  0.500  0.605872  120.475685  65.731377  34.873453
  8898.916  8898.900  0.500  0.601691  120.265320  65.891462  35.025412
  8908.912  8908.900  0.500  0.597474  119.892266  65.964659  35.128644
  8918.911  8918.900  0.500  0.593661  119.927190  66.235986  35.328454
  8928.908  8928.900  0.500  0.589781  119.642123  66.335387  35.437044
  8938.925  8938.900  0.500  0.586182  119.517451  66.505184  35.567669
  8948.917  8948.900  0.500  0.582835  119.305511  66.609831  35.643355
  8950.899  8950.900  0.500  0.582224  119.191642  66.586933  35.629857
  8952.893  8952.900  0.500  0.581667  119.129669  66.589386  35.628516
  8954.888  8954.900  0.500  0.581220  119.155762  66.633780  35.642010
  8956.894  8956.900  0.500  0.580673  119.111764  66.645625  35.640018
  8958.883  8958.900  0.500  0.580342  119.070561  66.644595  35.623529
  8960.891  8960.900  0.500  0.580085  119.026246  66.636956  35.599733
  8962.896  8962.900  0.500  0.579816  118.980841  66.629421  35.568855
  8964.889  8964.900  0.500  0.579563  118.660981  66.467120  35.443616
  8966.892  8966.900  0.500  0.579715  118.873703  66.576173  35.446641
  8968.886  8968.900  0.500  0.579956  118.844817  66.543948  35.354967
  8969.174  8969.200  0.500  0.579807  118.832371  66.546891  35.341246
  8969.465  8969.500  0.500  0.579855  118.823890  66.538922  35.323818
  8969.766  8969.800  0.500  0.579763  118.805245  66.534598  35.307132
  8970.074  8970.100  0.500  0.579924  118.796997  66.519292  35.281575
  8970.369  8970.400  0.500  0.579927  118.792492  66.516576  35.267499
  8970.680  8970.700  0.500  0.580041  118.784653  66.504614  35.241879
  8970.975  8971.000  0.500  0.580161  118.779289  66.493635  35.217410
  8971.283  8971.300  0.500  0.580229  118.764521  66.480861  35.186954
  8971.574  8971.600  0.500  0.580262  118.760395  66.476312  35.161797
  8971.890  8971.900  0.500  0.580488  118.747977  66.454380  35.129062
  8972.177  8972.200  0.500  0.580593  118.741170  66.443587  35.097384
  8972.489  8972.500  0.500  0.580758  118.726910  66.424603  35.057898
  8972.780  8972.800  0.500  0.580815  118.714004  66.413633  35.025105
  8973.085  8973.100  0.500  0.581115  118.710560  66.391755  34.984348
  8973.380  8973.400  0.500  0.581178  118.697126  66.380064  34.943171
  8973.685  8973.700  0.500  0.581370  118.689430  66.363013  34.896814
  8973.983  8974.000  0.500  0.581584  118.683610  66.345563  34.849610
  8974.278  8974.300  0.500  0.581879  118.671903  66.319468  34.793476
  8974.579  8974.600  0.500  0.582152  118.661222  66.295402  34.731546
  8974.881  8974.900  0.500  0.582454  118.650433  66.269366  34.664045
  8975.183  8975.200  0.500  0.582923  118.641048  66.233037  34.587971
  8975.478  8975.500  0.500  0.583177  118.627925  66.208906  34.510103
  8975.786  8975.800  0.500  0.583532  118.616466  66.178982  34.419617
  8976.078  8976.100  0.500  0.584006  118.606611  66.142172  34.319537
  8976.390  8976.400  0.500  0.584298  118.597675  66.117831  34.213733
  8976.695  8976.700  0.500  0.584813  118.585637  66.077122  34.087685
  8976.990  8977.000  0.500  0.585479  118.568928  66.023839  33.945667
  8977.295  8977.300  0.500  0.586418  118.566079  65.960228  33.771839
  8977.597  8977.600  0.500  0.587535  118.554309  65.880074  33.569547
  8977.892  8977.900  0.500  0.589191  118.547176  65.767150  33.321139
  8978.197  8978.200  0.500  0.591352  118.537604  65.619841  33.002556
  8978.496  8978.500  0.500  0.593668  118.523531  65.460285  32.622172
  8978.791  8978.800  0.500  0.596055  118.782999  65.447169  32.236367
  8979.086  8979.100  0.500  0.597783  118.880929  65.388047  31.717510
  8979.391  8979.400  0.500  0.598421  118.869567  65.340087  31.004687
  8979.693  8979.700  0.500  0.597748  118.861136  65.379464  30.119039
  8979.988  8980.000  0.500  0.596574  118.844303  65.447005  28.958642
  8980.284  8980.300  0.500  0.595404  118.833633  65.517709  27.452376
  8980.593  8980.600  0.500  0.594759  118.815727  65.550075  25.647978
  8980.902  8980.900  0.500  0.594541  118.774144  65.541469  23.641183
  8981.200  8981.200  0.500  0.594899  118.672366  65.461853  21.813830
  8981.499  8981.500  0.500  0.595580  118.555531  65.352874  20.284995
  8981.794  8981.800  0.500  0.596651  118.498577  65.251552  19.149738
  8982.100  8982.100  0.500  0.597878  118.461790  65.151315  18.382722
  8982.402  8982.400  0.500  0.599709  118.494490  65.050076  17.900388
  8982.701  8982.700  0.500  0.601566  118.572819  64.972322  17.635907
  8983.006  8983.000  0.500  0.603968  118.653117  64.860356  17.525365
  8983.295  8983.300  0.500  0.606710  118.683267  64.699138  17.524680
  8983.600  8983.600  0.500  0.609910  118.681088  64.491258  17.599090
  8983.892  8983.900  0.500  0.613249  118.672321  64.271528  17.704033
  8984.188  8984.200  0.500  0.617151  118.660953  64.015136  17.811585
  8984.493  8984.500  0.500  0.621824  118.655588  63.713782  17.871565
  8984.796  8984.800  0.500  0.627227  118.650666  63.367839  17.846114
  8985.102  8985.100  0.500  0.633864  118.637132  62.941468  17.695348
  8985.394  8985.400  0.500  0.642039  118.631757  62.426224  17.421417
  8985.710  8985.700  0.500  0.653019  118.624307  61.740614  16.999282
  8986.005  8986.000  0.500  0.666367  118.615538  60.917487  16.495545
  8986.304  8986.300  0.500  0.683754  118.603265  59.861285  15.914913
  8986.600  8986.600  0.500  0.704571  118.591110  58.622019  15.309566
  8986.899  8986.900  0.500  0.730696  118.586092  57.107916  14.664899
  8987.198  8987.200  0.500  0.762089  118.577950  55.339214  13.986612
  8987.497  8987.500  0.500  0.799187  118.577493  53.323641  13.274806
  8987.793  8987.800  0.500  0.842358  118.557121  51.061834  12.521269
  8988.092  8988.100  0.500  0.891495  118.552364  48.611492  11.728520
  8988.401  8988.400  0.500  0.944898  118.534044  46.076463  10.913620
  8988.700  8988.700  0.500  0.996895  118.528498  43.739815  10.154569
  8989.007  8989.000  0.500  1.045368  118.524524  41.668771  9.453986
  8989.302  8989.300  0.500  1.085242  118.507288  40.034138  8.861837
  8989.605  8989.600  0.500  1.116947  118.490838  38.779378  8.352427
  8989.904  8989.900  0.500  1.140678  118.481647  37.867008  7.920824
  8990.200  8990.200  0.500  1.158510  118.465645  37.192700  7.544969
  8990.503  8990.500  0.500  1.173776  118.449245  36.624190  7.188207
  8990.802  8990.800  0.500  1.188237  118.435256  36.094106  6.846972
  8991.098  8991.100  0.500  1.203644  118.412874  35.535561  6.505505
  8991.397  8991.400  0.500  1.221540  118.393016  34.899387  6.155565
  8991.690  8991.700  0.500  1.242285  118.365246  34.174859  5.804974
  8991.996  8992.000  0.500  1.267909  118.332895  33.301175  5.429667
  8992.306  8992.300  0.500  1.296442  118.279325  32.349783  5.071171
  8992.609  8992.600  0.500  1.328265  118.186016  31.311807  4.721811
  8992.905  8992.900  0.500  1.362110  117.963262  30.212740  4.393474
  8993.204  8993.200  0.500  1.398841  117.307505  28.961228  4.070425
  8993.507  8993.500  0.500  1.438597  116.398499  27.616757  3.761060
  8993.810  8993.800  0.500  1.482418  115.970711  26.335556  3.483410
  8994.106  8994.100  0.500  1.529186  116.251033  25.192994  3.248587
  8994.399  8994.400  0.500  1.576188  116.862066  24.162614  3.051665
  8994.702  8994.700  0.500  1.623157  117.527349  23.185190  2.881317
  8994.994  8995.000  0.500  1.667010  118.031462  22.285613  2.740755
  8995.297  8995.300  0.500  1.706925  118.300097  21.462332  2.627643
  8995.593  8995.600  0.500  1.741436  118.356262  20.744128  2.540471
  8995.893  8995.900  0.500  1.770569  118.369932  20.150835  2.481350
  8996.203  8996.200  0.500  1.794530  118.351463  19.670676  2.446445
  8996.499  8996.500  0.500  1.812170  118.340231  19.324894  2.432629
  8996.806  8996.800  0.500  1.824405  118.334079  19.088902  2.437600
  8997.102  8997.100  0.500  1.830772  118.321297  18.965686  2.457596
  8997.405  8997.400  0.500  1.831451  118.299573  18.949340  2.492610
  8997.698  8997.700  0.500  1.826652  118.295794  19.039883  2.539818
  8997.998  8998.000  0.500  1.816650  118.280132  19.228741  2.601681
  8998.305  8998.300  0.500  1.801116  118.268813  19.527903  2.677168
  8998.601  8998.600  0.500  1.782234  118.251672  19.897235  2.760413
  8998.901  8998.900  0.500  1.760937  118.240582  20.323642  2.849009
  8999.194  8999.200  0.500  1.739192  118.213861  20.765714  2.935739
  8999.490  8999.500  0.500  1.718148  118.200941  21.205024  3.017230
  8999.794  8999.800  0.500  1.699746  118.172283  21.593607  3.085391
  9000.094  9000.100  0.500  1.684986  118.149498  21.910473  3.134345
  9000.404  9000.400  0.500  1.673894  118.120588  22.149428  3.163105
  9000.704  9000.700  0.500  1.666862  118.094211  22.300757  3.171245
  9001.011  9001.000  0.500  1.662951  118.047437  22.379282  3.159678
  9001.304  9001.300  0.500  1.661404  118.004184  22.405726  3.132540
  9001.600  9001.600  0.500  1.660465  117.920212  22.410814  3.094918
  9001.904  9001.900  0.500  1.659278  117.756854  22.406338  3.047053
  9002.201  9002.200  0.500  1.656667  117.360052  22.389210  2.993125
  9002.501  9002.500  0.500  1.651257  116.610375  22.366885  2.934800
  9002.797  9002.800  0.500  1.642652  115.926466  22.427871  2.888331
  9003.097  9003.100  0.500  1.630236  115.760954  22.675645  2.865996
  9003.398  9003.400  0.500  1.614451  116.221020  23.127977  2.871929
  9003.701  9003.700  0.500  1.596000  116.942203  23.704844  2.901452
  9003.886  9003.900  0.500  1.584145  117.375041  24.076330  2.925552
  9004.906  9004.890  0.500  1.515655  118.130720  25.949091  3.126418
  9005.901  9005.890  0.500  1.452015  118.104292  27.647997  3.436460
  9006.924  9006.910  0.500  1.415048  118.054596  28.677110  3.743067
  9007.979  9007.960  0.500  1.411365  117.986402  28.766307  3.917843
  9009.045  9009.020  0.500  1.424117  117.842710  28.367215  3.986124
  9010.121  9010.100  0.500  1.436507  116.445057  27.685593  4.001552
  9011.216  9011.200  0.500  1.442106  116.550659  27.555981  4.101128
  9012.338  9012.320  0.500  1.441422  117.992498  27.915970  4.227695
  9013.482  9013.460  0.500  1.437377  117.982306  28.026712  4.258060
  9014.619  9014.610  0.500  1.435064  117.936538  28.080709  4.241783
  9015.805  9015.790  0.500  1.433306  117.889053  28.118789  4.203231
  9017.006  9016.980  0.500  1.426258  117.837591  28.305317  4.163313
  9018.211  9018.200  0.500  1.409776  117.761344  28.757089  4.135029
  9019.454  9019.430  0.500  1.387603  117.400442  29.311722  4.096338
  9020.708  9020.680  0.500  1.365346  115.726110  29.543990  4.005263
  9021.970  9021.950  0.500  1.345521  117.750301  30.662659  4.039964
  9023.246  9023.240  0.500  1.327155  117.771510  31.236638  4.005438
  9024.571  9024.550  0.500  1.309627  117.736867  31.779621  3.965478
  9025.901  9025.880  0.500  1.296695  117.703270  32.184069  3.932367
  9027.241  9027.230  0.500  1.290117  117.675262  32.388771  3.926426
  9028.620  9028.600  0.500  1.290010  117.643769  32.383573  3.973692
  9030.014  9029.980  0.500  1.294595  117.603705  32.224442  4.065065
  9031.426  9031.390  0.500  1.302894  117.564064  31.947350  4.174049
  9032.835  9032.810  0.500  1.313972  117.520420  31.583679  4.270045
  9034.360  9034.250  0.500  1.328836  117.472990  31.105112  4.334164
  9035.766  9035.710  0.500  1.345368  117.427647  30.583295  4.342193
  9037.138  9037.190  0.500  1.360867  117.364466  30.096747  4.314908
  9038.763  9038.690  0.500  1.379343  117.663054  29.620965  4.256832
  9040.244  9040.210  0.500  1.396966  117.278214  29.008331  4.145947
  9041.754  9041.750  0.500  1.416203  116.310852  28.220901  3.992652
  9043.297  9043.310  0.500  1.434962  117.374513  27.949732  3.920934
  9044.864  9044.880  0.500  1.451731  117.399115  27.490723  3.850985
  9046.461  9046.480  0.500  1.465265  117.375136  27.115627  3.814513
  9048.072  9048.090  0.500  1.475884  117.347750  26.822955  3.776622
  9049.722  9049.730  0.500  1.483832  117.308916  26.601784  3.714308
  9051.370  9051.380  0.500  1.487083  117.276358  26.508098  3.658310
  9053.035  9053.050  0.500  1.485967  117.236772  26.528733  3.631564
  9054.730  9054.740  0.500  1.482861  117.202884  26.603569  3.639494
  9056.450  9056.450  0.500  1.478039  117.158463  26.722033  3.652644
  9058.174  9058.180  0.500  1.471310  117.119517  26.893518  3.649851
  9059.913  9059.930  0.500  1.462437  117.080386  27.124127  3.628443
  9061.681  9061.690  0.500  1.452536  116.975940  27.369571  3.606168
  9063.482  9063.480  0.500  1.441920  115.804081  27.384562  3.566617
  9065.276  9065.280  0.500  1.432640  116.895664  27.900411  3.602377
  9067.110  9067.110  0.500  1.424392  116.892109  28.130654  3.596270
  9068.951  9068.950  0.500  1.417434  116.862280  28.319826  3.573961
  9070.819  9070.810  0.500  1.412101  116.819836  28.460907  3.534309
  9072.690  9072.690  0.500  1.408860  116.781320  28.543882  3.502561
  9074.588  9074.590  0.500  1.406985  116.738520  28.586976  3.501875
  9076.514  9076.510  0.500  1.404684  116.697375  28.642735  3.549773
  9078.459  9078.450  0.500  1.401343  116.644543  28.725577  3.639123
  9080.402  9080.410  0.500  1.397353  115.882472  28.652004  3.731349
  9082.373  9082.380  0.500  1.391698  116.324483  28.924413  3.863131
  9084.371  9084.380  0.500  1.384411  116.479488  29.174772  3.982765
  9086.387  9086.390  0.500  1.377106  116.440241  29.378759  4.088605
  9088.418  9088.420  0.500  1.370618  116.407499  29.561682  4.170629
  9090.482  9090.480  0.500  1.365120  116.365501  29.713928  4.221005
  9092.561  9092.550  0.500  1.361348  116.320330  29.814645  4.286198
  9094.628  9094.640  0.500  1.359874  116.277428  29.847602  4.377021
  9096.748  9096.750  0.500  1.360663  116.233898  29.812923  4.468925
  9098.888  9098.880  0.500  1.362521  116.196230  29.747938  4.527194
  9101.021  9101.020  0.500  1.364235  116.152385  29.685780  4.530457
  9103.184  9103.190  0.500  1.365785  115.195594  29.395643  4.445544
  9105.387  9105.380  0.500  1.366758  115.930905  29.554498  4.391158
  9107.570  9107.580  0.500  1.366569  115.979031  29.572379  4.300796
  9109.818  9109.800  0.500  1.365952  115.939980  29.580658  4.215620
  9112.046  9112.050  0.500  1.365580  115.895884  29.580415  4.152757
  9114.311  9114.310  0.500  1.365337  115.838422  29.572929  4.114051
  9116.595  9116.590  0.500  1.365772  115.803590  29.551168  4.101490
  9118.887  9118.890  0.500  1.367471  115.754827  29.488597  4.099635
  9121.209  9121.210  0.500  1.369729  115.703452  29.409009  4.083296
  9123.561  9123.550  0.500  1.371940  115.646397  29.329597  4.022948
  9125.911  9125.900  0.500  1.374213  115.599691  29.251183  3.909906
  9128.294  9128.280  0.500  1.376597  115.540370  29.166575  3.762718
  9130.668  9130.670  0.500  1.378959  115.489394  29.084931  3.644108
  9133.093  9133.090  0.500  1.381248  115.420391  29.001090  3.588960
  9135.542  9135.520  0.500  1.383151  115.356907  28.930016  3.590196
  9137.962  9137.970  0.500  1.384089  115.285814  28.885093  3.622286
  9140.471  9140.450  0.500  1.383854  115.165546  28.861737  3.670783
  9142.948  9142.940  0.500  1.382563  114.549038  28.744304  3.728538
  9145.449  9145.450  0.500  1.380675  115.007786  28.913977  3.855498
  9147.987  9147.970  0.500  1.378411  115.166781  29.019560  4.000201
  9150.526  9150.520  0.500  1.375822  115.066658  29.069508  4.155225
  9153.107  9153.090  0.500  1.373489  114.932749  29.103496  4.321629
  9155.674  9155.670  0.500  1.370391  114.501343  29.084215  4.475313
  9158.283  9158.280  0.500  1.366782  114.179680  29.107355  4.605387
  9160.915  9160.900  0.500  1.362387  114.917149  29.424413  4.711855
  9163.560  9163.550  0.500  1.357332  114.781042  29.538501  4.699242
  9166.220  9166.210  0.500  1.351346  114.461617  29.633133  4.608485
  9168.904  9168.890  0.500  1.345416  112.972277  29.421524  4.437837
  9171.611  9171.590  0.500  1.339640  114.743005  30.055775  4.404987
  9174.324  9174.310  0.500  1.334570  114.634333  30.179943  4.339077
  9177.060  9177.050  0.500  1.330341  114.528009  30.279716  4.313640
  9179.812  9179.800  0.500  1.327056  114.294504  30.317409  4.315750
  9182.598  9182.580  0.500  1.324507  112.384091  29.886760  4.274644
  9185.390  9185.370  0.500  1.322577  114.466645  30.499391  4.383709
  9188.198  9188.190  0.500  1.321579  114.353077  30.499558  4.396921
  9191.041  9191.020  0.500  1.321315  114.256565  30.481863  4.402879
  9193.885  9193.870  0.500  1.321267  114.176398  30.461921  4.420673
  9196.765  9196.750  0.500  1.321031  114.078014  30.442860  4.447959
  9199.653  9199.640  0.500  1.320533  113.995479  30.435995  4.454734
  9202.565  9202.550  0.500  1.319925  113.915676  30.433181  4.408302
  9205.482  9205.470  0.500  1.318667  113.847784  30.453342  4.321717
  9208.438  9208.420  0.500  1.316760  113.772444  30.491272  4.245167
  9211.403  9211.390  0.500  1.314666  113.699244  30.535532  4.218660
  9214.382  9214.370  0.500  1.312589  113.637307  30.582346  4.229337
  9217.398  9217.380  0.500  1.310718  113.562673  30.619497  4.256242
  9220.417  9220.400  0.500  1.309488  113.490984  30.637824  4.302032
  9223.467  9223.450  0.500  1.308531  113.409960  30.645280  4.371832
  9226.531  9226.510  0.500  1.307594  113.337627  30.654444  4.469429
