# XDI/1.0 BlueSky/1.10.0 BMM/2023-1.0-py310-tiled
# Beamline.name: BMM (06BM) -- Beamline for Materials Measurement (NIST)
# Beamline.xray_source: NSLS-II three-pole wiggler
# Beamline.collimation: paraboloid mirror, 5 nm Rh on 30 nm Pt
# Beamline.focusing: not in use
# Beamline.harmonic_rejection: flat mirror, Pt stripe, pitch = 7.0 mrad relative to beam
# Beamline.software: Bluesky 1.10.0, Ophyd 1.7.0, DataBroker 2.0.0b13, Python 3.10.8, 2023-1.0-py310-tiled
# Detector.I0: 10 cm N2
# Detector.I1: 25 cm N2
# Detector.I2: 25 cm N2
# Element.symbol: Cu
# Element.edge: K
# Element.reference: Cu
# Element.reference_material: Cu foil
# Facility.name: NSLS-II
# Facility.energy: 3.0
# Facility.current: 400.2
# Facility.mode: top-off
# Facility.GUP: 301027
# Facility.SAF: 310583
# Facility.cycle: 2023-2
# Mono.name: Si(111)
# Mono.d_spacing: 3.1351860
# Mono.encoder_resolution: 0.0000050 deg/ct
# Mono.angle_offset: 16.0754326 deg
# Mono.scan_mode: pseudo channel cut
# Mono.scan_type: step
# Mono.direction: forward in energy
# Sample.name: Cu foil
# Sample.prep: reference foil
# Sample.x: 109.138 mm
# Sample.y: 153.150 mm
# Sample.SDD_position: 205.000 mm
# Scan.experimenters: Bruce Ravel
# Scan.edge_energy: 8978.9
# Scan.start_time: 2023-05-28T16:00:18
# Scan.end_time: 2023-05-28T16:08:28
# Scan.transient_id: 78819
# Scan.uid: 7a9331ae-bb98-4301-bb17-874292cebbc0
# Scan.plot_hint: ln(It/Ir)  --  ln($6/$7)
# Column.1: energy eV
# Column.2: requested_energy eV
# Column.3: measurement_time seconds
# Column.4: xmu 
# Column.5: I0 nA
# Column.6: It nA
# Column.7: Ir nA
# ///////////
# standard reference foil
# -----------
# energy  requested_energy  measurement_time  xmu  I0  It  Ir
  8778.913  8778.900  0.500  0.809505  123.420962  168.124028  74.828379
  8788.966  8788.900  0.500  0.806764  123.226666  168.059657  75.004999
  8798.947  8798.900  0.500  0.804066  123.006527  168.020728  75.190242
  8808.907  8808.900  0.500  0.801299  122.823360  167.971343  75.376449
  8818.934  8818.900  0.500  0.798642  122.647973  167.930795  75.558693
  8828.967  8828.900  0.500  0.795968  122.460157  167.887461  75.741495
  8838.917  8838.900  0.500  0.793410  122.281528  167.850481  75.918776
  8848.909  8848.900  0.500  0.790711  122.097122  167.785792  76.094614
  8858.966  8858.900  0.500  0.788142  121.903834  167.740581  76.269805
  8868.907  8868.900  0.500  0.785610  121.701571  167.635028  76.414983
  8878.915  8878.900  0.500  0.783088  121.505334  167.578130  76.581959
  8888.926  8888.900  0.500  0.780627  121.315549  167.516004  76.742197
  8898.964  8898.900  0.500  0.778149  121.120821  167.450294  76.902411
  8908.960  8908.900  0.500  0.775913  120.853376  167.263167  76.988446
  8918.911  8918.900  0.500  0.773691  119.752521  165.938355  76.548545
  8928.905  8928.900  0.500  0.771761  120.587942  167.297605  77.324694
  8938.911  8938.900  0.500  0.770060  120.439037  167.278502  77.447447
  8948.917  8948.900  0.500  0.769031  120.244677  167.191560  77.486930
  8950.886  8950.900  0.500  0.768956  120.203504  167.160710  77.478436
  8952.883  8952.900  0.500  0.768894  119.848510  166.740061  77.288246
  8954.877  8954.900  0.500  0.768979  120.096139  167.138057  77.466167
  8956.883  8956.900  0.500  0.769142  120.063303  167.104225  77.437863
  8958.880  8958.900  0.500  0.769366  120.029179  167.069473  77.404413
  8960.877  8960.900  0.500  0.769786  120.000032  167.082192  77.377829
  8962.879  8962.900  0.500  0.770314  119.953417  167.079624  77.335782
  8964.889  8964.900  0.500  0.771179  119.871340  166.960732  77.213950
  8966.885  8966.900  0.500  0.772374  119.752381  166.846862  77.069125
  8968.883  8968.900  0.500  0.774115  119.826283  167.012805  77.011560
  8969.174  8969.200  0.500  0.774454  119.816705  166.967070  76.964366
  8969.468  8969.500  0.500  0.774797  119.798548  166.965724  76.937385
  8969.773  8969.800  0.500  0.775138  119.801002  166.965785  76.911139
  8970.067  8970.100  0.500  0.775544  119.785242  166.951229  76.873235
  8970.365  8970.400  0.500  0.775922  119.776046  166.976903  76.855984
  8970.670  8970.700  0.500  0.776277  119.761804  166.963215  76.822415
  8970.968  8971.000  0.500  0.776774  119.751354  166.953028  76.779559
  8971.269  8971.300  0.500  0.777240  119.751224  166.940340  76.737931
  8971.571  8971.600  0.500  0.777777  119.737603  166.942028  76.697524
  8971.869  8971.900  0.500  0.778297  119.728505  166.924207  76.649467
  8972.177  8972.200  0.500  0.778900  119.718210  166.907620  76.595675
  8972.472  8972.500  0.500  0.779537  119.711829  166.893066  76.540202
  8972.780  8972.800  0.500  0.780272  119.698493  166.905567  76.489678
  8973.075  8973.100  0.500  0.780920  119.690905  166.899595  76.437415
  8973.387  8973.400  0.500  0.781722  119.686243  166.894923  76.374009
  8973.688  8973.700  0.500  0.782486  119.684438  166.886748  76.311941
  8973.983  8974.000  0.500  0.783463  119.677049  166.872755  76.231055
  8974.281  8974.300  0.500  0.784417  119.670590  166.847790  76.146969
  8974.600  8974.600  0.500  0.785548  119.662664  166.861241  76.066982
  8974.892  8974.900  0.500  0.786666  119.658898  166.846547  75.975331
  8975.197  8975.200  0.500  0.787939  119.648812  166.849990  75.880204
  8975.492  8975.500  0.500  0.789353  119.644505  166.869976  75.782048
  8975.793  8975.800  0.500  0.790974  119.626881  166.846293  75.648578
  8976.088  8976.100  0.500  0.792655  119.622297  166.832574  75.515301
  8976.390  8976.400  0.500  0.794483  119.610940  166.810005  75.367236
  8976.685  8976.700  0.500  0.796521  119.602053  166.806892  75.212373
  8976.990  8977.000  0.500  0.798883  119.596758  166.799216  75.031460
  8977.288  8977.300  0.500  0.801475  119.584404  166.793144  74.834495
  8977.580  8977.600  0.500  0.804502  119.576834  166.821126  74.620853
  8977.889  8977.900  0.500  0.808217  119.564404  166.791171  74.330801
  8978.177  8978.200  0.500  0.812304  119.560358  166.774271  74.020122
  8978.485  8978.500  0.500  0.817531  119.548416  166.764717  73.630000
  8978.791  8978.800  0.500  0.823760  119.884067  167.251722  73.386476
  8979.086  8979.100  0.500  0.831190  119.905610  167.300225  72.864399
  8979.398  8979.400  0.500  0.841120  119.908153  167.316501  72.151460
  8979.697  8979.700  0.500  0.853509  119.910483  167.306935  71.259010
  8979.999  8980.000  0.500  0.869552  119.906085  167.333767  70.136163
  8980.297  8980.300  0.500  0.891474  119.891072  167.310719  68.605882
  8980.603  8980.600  0.500  0.923534  119.881576  167.292507  66.434087
  8980.895  8980.900  0.500  0.965744  119.877562  167.298779  63.690649
  8981.193  8981.200  0.500  1.023447  119.866631  167.292773  60.117343
  8981.495  8981.500  0.500  1.095086  119.841386  167.262972  55.951290
  8981.794  8981.800  0.500  1.175128  119.770654  167.171435  51.619101
  8982.096  8982.100  0.500  1.257539  119.661340  167.033740  47.496515
  8982.385  8982.400  0.500  1.325566  119.569186  166.916268  44.341752
  8982.683  8982.700  0.500  1.378404  119.512267  166.855613  42.044363
  8982.996  8983.000  0.500  1.415711  119.495920  166.811538  40.494003
  8983.291  8983.300  0.500  1.438604  119.542933  166.893731  39.597009
  8983.604  8983.600  0.500  1.450845  119.643920  167.043579  39.150381
  8983.903  8983.900  0.500  1.454336  119.703501  167.139073  39.036234
  8984.198  8984.200  0.500  1.451374  119.716924  167.176566  39.160797
  8984.500  8984.500  0.500  1.443619  119.715455  167.169428  39.464003
  8984.799  8984.800  0.500  1.433401  119.709261  167.165757  39.868416
  8985.105  8985.100  0.500  1.422998  119.702370  167.160181  40.284007
  8985.401  8985.400  0.500  1.415689  119.690719  167.167754  40.581355
  8985.693  8985.700  0.500  1.412732  119.684473  167.131503  40.692718
  8985.995  8986.000  0.500  1.415594  119.674842  167.121042  40.573884
  8986.294  8986.300  0.500  1.424299  119.663823  167.115540  40.220887
  8986.596  8986.600  0.500  1.438091  119.654763  167.116205  39.670136
  8986.889  8986.900  0.500  1.454329  119.646925  167.088781  39.024758
  8987.195  8987.200  0.500  1.472403  119.639995  167.108787  38.330356
  8987.497  8987.500  0.500  1.491050  119.632197  167.108853  37.622231
  8987.803  8987.800  0.500  1.508476  119.624184  167.090065  36.968172
  8988.106  8988.100  0.500  1.524919  119.609609  167.099487  36.367303
  8988.405  8988.400  0.500  1.540512  119.604484  167.079056  35.800242
  8988.697  8988.700  0.500  1.556124  119.596797  167.059853  35.241623
  8989.010  8989.000  0.500  1.574070  119.579531  167.049918  34.612765
  8989.302  8989.300  0.500  1.592594  119.569264  167.054332  33.978405
  8989.608  8989.600  0.500  1.613543  119.557099  167.043547  33.271859
  8989.894  8989.900  0.500  1.635466  119.549430  167.030395  32.547790
  8990.197  8990.200  0.500  1.659810  119.542754  167.020647  31.763167
  8990.492  8990.500  0.500  1.686248  119.526099  167.016884  30.933734
  8990.785  8990.800  0.500  1.714090  119.519311  167.017319  30.084434
  8991.101  8991.100  0.500  1.746163  119.498692  166.992246  29.130457
  8991.397  8991.400  0.500  1.778998  119.484296  166.986873  28.188577
  8991.697  8991.700  0.500  1.814377  119.467448  166.983794  27.208236
  8992.003  8992.000  0.500  1.852453  119.448677  166.921333  26.181928
  8992.292  8992.300  0.500  1.890575  119.428710  166.890057  25.197885
  8992.605  8992.600  0.500  1.932262  119.398052  166.884182  24.168215
  8992.901  8992.900  0.500  1.972760  119.356988  166.841754  23.203101
  8993.211  8993.200  0.500  2.012745  119.289867  166.739241  22.279924
  8993.497  8993.500  0.500  2.049163  119.195730  166.596667  21.464755
  8993.800  8993.800  0.500  2.084844  118.919178  166.234149  20.667320
  8994.092  8994.100  0.500  2.117238  118.233591  165.263411  19.891696
  8994.392  8994.400  0.500  2.148211  117.368013  164.067621  19.145502
  8994.695  8994.700  0.500  2.177084  116.995149  163.558010  18.542843
  8994.994  8995.000  0.500  2.202551  117.311405  164.003055  18.125752
  8995.304  8995.300  0.500  2.223346  117.968013  164.926821  17.852715
  8995.604  8995.600  0.500  2.238451  118.623802  165.849830  17.683500
  8995.893  8995.900  0.500  2.247457  119.120991  166.535174  17.597368
  8996.193  8996.200  0.500  2.250831  119.341568  166.841095  17.570307
  8996.496  8996.500  0.500  2.248744  119.392240  166.913364  17.614653
  8996.806  8996.800  0.500  2.241892  119.386324  166.932717  17.737821
  8997.106  8997.100  0.500  2.232225  119.382717  166.937762  17.910653
  8997.402  8997.400  0.500  2.220119  119.375615  166.956931  18.130894
  8997.698  8997.700  0.500  2.207161  119.362460  166.922050  18.363517
  8997.998  8998.000  0.500  2.192964  119.340420  166.872857  18.620602
  8998.305  8998.300  0.500  2.177856  119.329306  166.890836  18.906081
  8998.594  8998.600  0.500  2.163721  119.318907  166.890668  19.175203
  8998.887  8998.900  0.500  2.149860  119.299339  166.867119  19.440104
  8999.194  8999.200  0.500  2.136212  119.288867  166.858353  19.706203
  8999.501  8999.500  0.500  2.123862  119.277267  166.867663  19.952197
  8999.797  8999.800  0.500  2.113418  119.251756  166.824694  20.156470
  9000.108  9000.100  0.500  2.104939  119.242544  166.806024  20.325834
  9000.394  9000.400  0.500  2.099180  119.223433  166.790398  20.441318
  9000.707  9000.700  0.500  2.095218  119.206371  166.742680  20.516589
  9001.000  9001.000  0.500  2.094203  119.182071  166.717781  20.534359
  9001.304  9001.300  0.500  2.095839  119.158788  166.703910  20.499095
  9001.600  9001.600  0.500  2.100319  119.127873  166.671471  20.403491
  9001.890  9001.900  0.500  2.107559  119.092032  166.620044  20.250040
  9002.201  9002.200  0.500  2.118015  119.043861  166.530322  20.028620
  9002.490  9002.500  0.500  2.130888  118.954338  166.418591  19.759181
  9002.794  9002.800  0.500  2.146614  118.762750  166.146927  19.419131
  9003.087  9003.100  0.500  2.163836  118.312085  165.534630  19.017206
  9003.384  9003.400  0.500  2.183019  117.517696  164.444405  18.533019
  9003.698  9003.700  0.500  2.203192  116.869665  163.536164  18.062584
  9003.886  9003.900  0.500  2.215148  116.778426  163.411389  17.834296
  9004.878  9004.890  0.500  2.261467  118.645841  166.063595  17.303417
  9006.156  9005.890  0.500  2.262202  119.169787  166.810269  17.368451
  9006.882  9006.910  0.500  2.230166  119.126093  166.751341  17.927528
  9008.056  9007.960  0.500  2.175317  119.080421  166.710771  18.933702
  9009.024  9009.020  0.500  2.136920  119.002085  166.636241  19.666034
  9010.111  9010.100  0.500  2.106053  118.814754  166.368830  20.249979
  9011.205  9011.200  0.500  2.076358  116.937646  163.758731  20.533067
  9012.328  9012.320  0.500  2.048692  118.072662  165.379905  21.318032
  9013.461  9013.460  0.500  2.033904  119.037323  166.758088  21.815926
  9014.619  9014.610  0.500  2.033615  119.001480  166.729508  21.818496
  9015.795  9015.790  0.500  2.040794  118.959441  166.668303  21.654456
  9016.982  9016.980  0.500  2.052555  118.921065  166.652145  21.399195
  9018.211  9018.200  0.500  2.070933  118.868437  166.610396  21.004252
  9019.440  9019.430  0.500  2.095820  118.766286  166.471656  20.470916
  9020.687  9020.680  0.500  2.126162  117.457992  164.649175  19.641707
  9021.959  9021.950  0.500  2.156578  117.712005  165.029615  19.097304
  9023.232  9023.240  0.500  2.184487  118.849004  166.659374  18.755091
  9024.547  9024.550  0.500  2.212812  118.823595  166.662945  18.231695
  9025.883  9025.880  0.500  2.238520  118.795647  166.641541  17.766689
  9027.237  9027.230  0.500  2.256466  118.775768  166.625965  17.449051
  9028.610  9028.600  0.500  2.257514  118.740111  166.597970  17.427849
  9029.983  9029.980  0.500  2.238844  118.709987  166.591001  17.755539
  9031.387  9031.390  0.500  2.206690  118.677756  166.559609  18.332280
  9032.814  9032.810  0.500  2.171199  118.649530  166.546532  18.993094
  9034.254  9034.250  0.500  2.136853  118.620692  166.535117  19.655412
  9035.710  9035.710  0.500  2.110897  118.592280  166.526117  20.171195
  9037.180  9037.190  0.500  2.095361  118.554249  166.492352  20.482859
  9038.692  9038.690  0.500  2.088080  118.509975  166.487974  20.631997
  9040.205  9040.210  0.500  2.089019  118.470104  166.451929  20.608169
  9041.761  9041.750  0.500  2.097118  117.408378  165.006527  20.264422
  9043.300  9043.310  0.500  2.107642  118.026448  165.892210  20.159908
  9044.882  9044.880  0.500  2.113357  118.310833  166.314871  20.096096
  9046.475  9046.480  0.500  2.111235  118.307722  166.358671  20.144096
  9048.100  9048.090  0.500  2.107236  118.274214  166.347556  20.223452
  9049.733  9049.730  0.500  2.110571  118.252838  166.325639  20.153463
  9051.373  9051.380  0.500  2.121431  118.209782  166.291382  19.931676
  9053.049  9053.050  0.500  2.132800  118.178556  166.307228  19.708247
  9054.733  9054.740  0.500  2.136771  118.139286  166.268644  19.625582
  9056.443  9056.450  0.500  2.136303  118.108038  166.258163  19.633529
  9058.174  9058.180  0.500  2.139774  118.079155  166.232641  19.562501
  9059.938  9059.930  0.500  2.151396  118.043265  166.224573  19.335525
  9061.692  9061.690  0.500  2.167165  117.989466  166.179398  19.027827
  9063.482  9063.480  0.500  2.180783  117.033482  164.871865  18.622779
  9065.272  9065.280  0.500  2.190167  117.697179  165.837826  18.556928
  9067.120  9067.110  0.500  2.199308  117.852639  166.067292  18.413525
  9068.955  9068.950  0.500  2.210486  117.831128  166.083547  18.210628
  9070.801  9070.810  0.500  2.225661  117.801473  166.074366  17.935377
  9072.694  9072.690  0.500  2.240561  117.768055  166.042591  17.666736
  9074.595  9074.590  0.500  2.247781  117.729024  166.040718  17.539445
  9076.518  9076.510  0.500  2.242092  117.686742  166.016748  17.636965
  9078.445  9078.450  0.500  2.224009  117.642760  165.988434  17.955719
  9080.419  9080.410  0.500  2.197339  117.550475  165.879562  18.428946
  9082.384  9082.380  0.500  2.170354  116.394233  164.291477  18.751767
  9084.392  9084.380  0.500  2.146671  117.457504  165.842854  19.382473
  9086.397  9086.390  0.500  2.125788  117.451499  165.845846  19.791864
  9088.414  9088.420  0.500  2.108844  117.410409  165.833477  20.128560
  9090.486  9090.480  0.500  2.099855  117.376435  165.844112  20.311612
  9092.561  9092.550  0.500  2.091213  117.341049  165.809755  20.483674
  9094.638  9094.640  0.500  2.073992  117.300620  165.790553  20.837055
  9096.759  9096.750  0.500  2.051765  117.262271  165.790623  21.305396
  9098.895  9098.880  0.500  2.032457  117.226099  165.789339  21.720603
  9101.028  9101.020  0.500  2.023979  117.359151  166.018907  21.935848
  9103.212  9103.190  0.500  2.028542  117.383559  166.075837  21.843491
  9105.394  9105.380  0.500  2.043118  116.750752  165.203786  21.414366
  9107.584  9107.580  0.500  2.063951  117.353427  166.093109  21.085761
  9109.818  9109.800  0.500  2.085576  117.341565  166.131065  20.639382
  9112.064  9112.050  0.500  2.102756  117.301520  166.118131  20.286244
  9114.318  9114.310  0.500  2.114555  117.263180  166.097942  20.045857
  9116.609  9116.590  0.500  2.119081  117.213123  166.082757  19.953505
  9118.891  9118.890  0.500  2.118360  117.165243  166.054073  19.964449
  9121.227  9121.210  0.500  2.117597  117.115631  166.026544  19.976387
  9123.561  9123.550  0.500  2.124644  117.064321  165.986261  19.831283
  9125.904  9125.900  0.500  2.145136  117.010080  165.947104  19.424452
  9128.291  9128.280  0.500  2.178880  116.953141  165.902419  18.774884
  9130.675  9130.670  0.500  2.212491  116.895180  165.852090  18.148812
  9133.104  9133.090  0.500  2.231802  116.832866  165.814246  17.797641
  9135.527  9135.520  0.500  2.233514  116.776295  165.769726  17.762434
  9137.970  9137.970  0.500  2.225143  116.704272  165.725139  17.906929
  9140.457  9140.450  0.500  2.211973  116.612654  165.647801  18.135845
  9142.959  9142.940  0.500  2.194122  116.378453  165.360758  18.430515
  9145.460  9145.450  0.500  2.168823  113.735854  161.652812  18.478862
  9147.987  9147.970  0.500  2.137460  116.607889  165.760391  19.552118
  9150.519  9150.520  0.500  2.101545  116.507048  165.684914  20.257855
  9153.110  9153.090  0.500  2.063005  116.386346  165.560764  21.038066
  9155.671  9155.670  0.500  2.026092  116.171048  165.292279  21.793754
  9158.291  9158.280  0.500  1.993796  112.583205  160.229609  21.819664
  9160.923  9160.900  0.500  1.975314  116.358476  165.658309  22.979741
  9163.571  9163.550  0.500  1.975583  116.235065  165.508961  22.952848
  9166.220  9166.210  0.500  1.993424  116.047344  165.295777  22.517937
  9168.897  9168.890  0.500  2.022408  112.430308  160.173706  21.196811
  9171.619  9171.590  0.500  2.053502  116.188957  165.574865  21.240751
  9174.327  9174.310  0.500  2.076211  116.092622  165.487191  20.752832
  9177.071  9177.050  0.500  2.088272  115.979946  165.350408  20.487085
  9179.819  9179.800  0.500  2.091614  115.809132  165.155111  20.394611
  9182.606  9182.580  0.500  2.088232  112.081518  159.908733  19.813645
  9185.390  9185.370  0.500  2.082597  115.918930  165.427314  20.613275
  9188.202  9188.190  0.500  2.078894  115.812098  165.314576  20.675647
  9191.045  9191.020  0.500  2.076699  115.706540  165.210291  20.708007
  9193.882  9193.870  0.500  2.072844  115.630792  165.159544  20.781605
  9196.772  9196.750  0.500  2.066128  115.539612  165.067432  20.909976
  9199.645  9199.640  0.500  2.061846  115.452996  164.994355  20.990393
  9202.561  9202.550  0.500  2.068156  115.373625  164.930536  20.850297
  9205.486  9205.470  0.500  2.086152  115.300317  164.883001  20.472523
  9208.446  9208.420  0.500  2.107409  115.217978  164.831542  20.035694
  9211.403  9211.390  0.500  2.118760  115.157667  164.775006  19.802747
