# XDI/1.0 BlueSky/1.10.0 BMM/2023-1.0-py310-tiled
# Beamline.name: BMM (06BM) -- Beamline for Materials Measurement (NIST)
# Beamline.xray_source: NSLS-II three-pole wiggler
# Beamline.collimation: paraboloid mirror, 5 nm Rh on 30 nm Pt
# Beamline.focusing: not in use
# Beamline.harmonic_rejection: flat mirror, Pt stripe, pitch = 7.0 mrad relative to beam
# Beamline.software: Bluesky 1.10.0, Ophyd 1.7.0, DataBroker 2.0.0b13, Python 3.10.8, 2023-1.0-py310-tiled
# Detector.I0: 10 cm N2
# Detector.I1: 25 cm N2
# Detector.I2: 25 cm N2
# Element.symbol: Au
# Element.edge: L1
# Element.reference: Au
# Element.reference_material: Au foil
# Facility.name: NSLS-II
# Facility.energy: 3.0
# Facility.current: 400.0
# Facility.mode: top-off
# Facility.GUP: 301027
# Facility.SAF: 310583
# Facility.cycle: 2023-2
# Mono.name: Si(111)
# Mono.d_spacing: 3.1351860
# Mono.encoder_resolution: 0.0000050 deg/ct
# Mono.angle_offset: 16.0754326 deg
# Mono.scan_mode: pseudo channel cut
# Mono.scan_type: step
# Mono.direction: forward in energy
# Sample.name: La4LiAuO8
# Sample.prep: powder on tape
# Sample.x: 145.711 mm
# Sample.y: 114.376 mm
# Sample.SDD_position: 205.000 mm
# Scan.experimenters: Bruce Ravel
# Scan.edge_energy: 14352.8
# Scan.start_time: 2023-06-27T20:28:02
# Scan.end_time: 2023-06-27T20:35:56
# Scan.transient_id: 85298
# Scan.uid: f0270cbe-5d36-4b96-b2c1-f7f115644796
# Scan.plot_hint: ln(I0/It)  --  ln($5/$6)
# Column.1: energy eV
# Column.2: requested_energy eV
# Column.3: measurement_time seconds
# Column.4: xmu 
# Column.5: I0 nA
# Column.6: It nA
# Column.7: Ir nA
# ///////////
# sample courtesy Martin Stennett, University of Sheffield, see DOI: 10.1021/ic100486g
# -----------
# energy  requested_energy  measurement_time  xmu  I0  It  Ir
  14152.861  14152.800  0.500  0.806927  34.523460  15.405312  8.698080
  14162.839  14162.800  0.500  0.804349  34.292727  15.341843  8.671615
  14172.874  14172.800  0.500  0.801815  34.542377  15.492742  8.763595
  14182.880  14182.800  0.500  0.799505  34.419805  15.473468  8.758687
  14192.900  14192.800  0.500  0.797506  34.329011  15.463530  8.757997
  14202.829  14202.800  0.500  0.795681  34.244183  15.453507  8.759043
  14212.842  14212.800  0.500  0.794058  34.191156  15.454640  8.770027
  14222.878  14222.800  0.500  0.791577  34.099938  15.451691  8.772021
  14232.903  14232.800  0.500  0.789299  34.029141  15.454772  8.787224
  14242.817  14242.800  0.500  0.787134  33.946825  15.450813  8.794430
  14252.816  14252.800  0.500  0.784696  33.867398  15.452278  8.804249
  14262.812  14262.800  0.500  0.782257  33.775119  15.447819  8.808830
  14272.840  14272.800  0.500  0.780180  31.918900  14.629188  8.351061
  14282.819  14282.800  0.500  0.778204  33.657413  15.456501  8.827642
  14292.840  14292.800  0.500  0.776178  33.583514  15.453835  8.830925
  14302.857  14302.800  0.500  0.774497  33.479874  15.432059  8.821506
  14312.825  14312.800  0.500  0.772838  33.444018  15.441137  8.833050
  14322.852  14322.800  0.500  0.771085  33.366952  15.432585  8.830366
  14324.807  14324.800  0.500  0.770655  33.361259  15.436590  8.832258
  14326.817  14326.800  0.500  0.770360  33.328996  15.426209  8.827671
  14328.791  14328.800  0.500  0.770016  33.338981  15.436144  8.832549
  14330.774  14330.800  0.500  0.769707  33.298706  15.422249  8.824151
  14332.777  14332.800  0.500  0.769398  33.297925  15.426653  8.825504
  14334.788  14334.800  0.500  0.769208  33.281590  15.422016  8.821835
  14336.810  14336.800  0.500  0.769173  33.278709  15.421220  8.820472
  14338.805  14338.800  0.500  0.768767  33.249416  15.413900  8.813317
  14340.764  14340.800  0.500  0.768721  33.237072  15.408898  8.807634
  14342.778  14342.800  0.500  0.768761  33.218921  15.399870  8.798545
  14343.030  14343.100  0.500  0.768805  33.213653  15.396748  8.796474
  14343.327  14343.400  0.500  0.768927  33.222920  15.399156  8.798361
  14343.632  14343.700  0.500  0.768770  33.196705  15.389429  8.790133
  14343.956  14344.000  0.500  0.768822  33.197090  15.388806  8.787703
  14344.244  14344.300  0.500  0.768757  33.194864  15.388778  8.786961
  14344.541  14344.600  0.500  0.768808  33.173607  15.378139  8.779798
  14344.865  14344.900  0.500  0.768845  33.179867  15.380468  8.780308
  14345.153  14345.200  0.500  0.769017  33.173357  15.374807  8.777559
  14345.467  14345.500  0.500  0.769024  33.182903  15.379113  8.777481
  14345.773  14345.800  0.500  0.768884  33.188241  15.383744  8.778392
  14346.070  14346.100  0.500  0.768880  33.179690  15.379853  8.774304
  14346.367  14346.400  0.500  0.768995  33.182388  15.379329  8.774298
  14346.673  14346.700  0.500  0.769134  33.184492  15.378172  8.771798
  14346.961  14347.000  0.500  0.769132  33.185840  15.378827  8.770956
  14347.276  14347.300  0.500  0.769104  33.177929  15.375592  8.765668
  14347.591  14347.600  0.500  0.769237  33.182361  15.375598  8.766040
  14347.888  14347.900  0.500  0.769351  33.184612  15.374891  8.763812
  14348.176  14348.200  0.500  0.769511  33.185247  15.372714  8.760801
  14348.482  14348.500  0.500  0.769632  33.182918  15.369775  8.756847
  14348.779  14348.800  0.500  0.769513  33.169415  15.365355  8.750816
  14349.085  14349.100  0.500  0.769632  33.172767  15.365072  8.747779
  14349.382  14349.400  0.500  0.769986  33.167186  15.357058  8.742798
  14349.679  14349.700  0.500  0.769984  33.173293  15.359906  8.740647
  14349.976  14350.000  0.500  0.770104  33.170379  15.356714  8.735919
  14350.264  14350.300  0.500  0.770229  33.158823  15.349451  8.729046
  14350.561  14350.600  0.500  0.770303  33.151314  15.344836  8.723456
  14350.876  14350.900  0.500  0.770324  33.153853  15.345696  8.720258
  14351.173  14351.200  0.500  0.770576  33.149997  15.340050  8.712633
  14351.461  14351.500  0.500  0.770797  33.144166  15.333962  8.707248
  14351.767  14351.800  0.500  0.770834  33.139957  15.331445  8.699701
  14352.064  14352.100  0.500  0.771029  33.138245  15.327661  8.693917
  14352.370  14352.400  0.500  0.771335  33.132909  15.320496  8.685798
  14352.686  14352.700  0.500  0.771544  33.136663  15.319039  8.680612
  14352.974  14353.000  0.500  0.771900  33.130616  15.310794  8.672321
  14353.289  14353.300  0.500  0.772151  33.145534  15.313843  8.666365
  14353.595  14353.600  0.500  0.772128  33.132292  15.308075  8.657156
  14353.865  14353.900  0.500  0.772597  33.119603  15.295041  8.644025
  14354.199  14354.200  0.500  0.772795  33.109302  15.287252  8.634087
  14354.487  14354.500  0.500  0.773170  33.107990  15.280910  8.624224
  14354.775  14354.800  0.500  0.773616  33.120350  15.279803  8.615441
  14355.099  14355.100  0.500  0.773980  33.108294  15.268683  8.603172
  14355.406  14355.400  0.500  0.774413  33.104905  15.260503  8.591534
  14355.703  14355.700  0.500  0.774998  33.101116  15.249833  8.578145
  14356.009  14356.000  0.500  0.775389  33.100986  15.243817  8.566771
  14356.298  14356.300  0.500  0.775724  33.111369  15.243497  8.558169
  14356.604  14356.600  0.500  0.776392  33.219728  15.283170  8.572506
  14356.892  14356.900  0.500  0.776852  33.208625  15.271033  8.558492
  14357.199  14357.200  0.500  0.777252  33.200742  15.261307  8.544105
  14357.505  14357.500  0.500  0.777992  33.199607  15.249496  8.529962
  14357.784  14357.800  0.500  0.778678  33.190744  15.234963  8.515295
  14358.100  14358.100  0.500  0.779164  33.169578  15.217844  8.494939
  14358.388  14358.400  0.500  0.779721  33.160013  15.204984  8.480871
  14358.694  14358.700  0.500  0.780310  33.131190  15.182836  8.459699
  14358.983  14359.000  0.500  0.780961  33.113799  15.164990  8.442470
  14359.271  14359.300  0.500  0.781577  33.114515  15.155967  8.429193
  14359.596  14359.600  0.500  0.782180  33.099246  15.139849  8.410796
  14359.866  14359.900  0.500  0.782659  33.102408  15.134044  8.400632
  14360.200  14360.200  0.500  0.783372  33.109855  15.126658  8.386961
  14360.488  14360.500  0.500  0.784059  33.129447  15.125217  8.378362
  14360.777  14360.800  0.500  0.784572  33.127354  15.116511  8.365185
  14361.110  14361.100  0.500  0.785418  33.143912  15.111269  8.352617
  14361.390  14361.400  0.500  0.785981  33.150490  15.105773  8.342948
  14361.705  14361.700  0.500  0.786671  33.169192  15.103868  8.333161
  14362.003  14362.000  0.500  0.787273  33.160512  15.090816  8.319022
  14362.291  14362.300  0.500  0.787900  33.161897  15.082000  8.307001
  14362.616  14362.600  0.500  0.788515  33.155903  15.069991  8.289076
  14362.896  14362.900  0.500  0.789163  33.161641  15.062839  8.277817
  14363.220  14363.200  0.500  0.789688  33.159173  15.053815  8.263902
  14363.509  14363.500  0.500  0.790287  33.164387  15.047169  8.252730
  14363.815  14363.800  0.500  0.790700  33.149806  15.034346  8.236593
  14364.113  14364.100  0.500  0.791303  33.146998  15.024010  8.223744
  14364.411  14364.400  0.500  0.792001  33.150667  15.015186  8.211174
  14364.717  14364.700  0.500  0.792612  33.137493  15.000051  8.194683
  14364.997  14365.000  0.500  0.793294  33.131931  14.987304  8.180819
  14365.313  14365.300  0.500  0.793803  33.141408  14.983963  8.172656
  14365.601  14365.600  0.500  0.794500  33.126675  14.966870  8.157219
  14365.908  14365.900  0.500  0.794997  33.125546  14.958914  8.144564
  14366.215  14366.200  0.500  0.795894  33.126856  14.946101  8.132087
  14366.504  14366.500  0.500  0.796507  33.108705  14.928753  8.118503
  14366.801  14366.800  0.500  0.797154  33.100619  14.915451  8.103594
  14367.063  14367.100  0.500  0.797861  33.078122  14.894787  8.090552
  14367.397  14367.400  0.500  0.798714  33.073564  14.880027  8.077986
  14367.686  14367.700  0.500  0.799481  33.059043  14.862098  8.064112
  14367.974  14368.000  0.500  0.799917  33.048150  14.850725  8.053571
  14368.281  14368.300  0.500  0.800798  33.039518  14.833769  8.041194
  14368.579  14368.600  0.500  0.801669  33.041943  14.821937  8.032824
  14368.904  14368.900  0.500  0.802130  33.057112  14.821916  8.029540
  14369.193  14369.200  0.500  0.803062  33.039465  14.800208  8.019042
  14369.500  14369.500  0.500  0.803806  33.051242  14.794467  8.014152
  14369.779  14369.800  0.500  0.804466  33.057102  14.787332  8.007833
  14370.095  14370.100  0.500  0.805165  33.072381  14.783818  8.005686
  14370.411  14370.400  0.500  0.806121  33.095625  14.780072  8.004415
  14370.709  14370.700  0.500  0.806521  33.073116  14.764120  7.995042
  14371.007  14371.000  0.500  0.807236  33.084274  14.758543  7.991687
  14371.296  14371.300  0.500  0.807823  33.077614  14.746908  7.987775
  14371.621  14371.600  0.500  0.808304  33.077310  14.739681  7.983159
  14371.910  14371.900  0.500  0.809013  33.079613  14.730266  7.980662
  14372.208  14372.200  0.500  0.809318  33.076208  14.724263  7.976538
  14372.524  14372.500  0.500  0.809705  33.071642  14.716529  7.974275
  14372.804  14372.800  0.500  0.810357  33.069761  14.706101  7.972237
  14373.120  14373.100  0.500  0.810294  33.063956  14.704448  7.970725
  14373.391  14373.400  0.500  0.810660  33.072510  14.702869  7.970907
  14373.698  14373.700  0.500  0.811005  33.065035  14.694471  7.970424
  14373.996  14374.000  0.500  0.811006  33.050185  14.687865  7.966953
  14374.312  14374.300  0.500  0.811191  33.060035  14.689512  7.971170
  14374.592  14374.600  0.500  0.811061  33.050396  14.687146  7.970580
  14374.872  14374.900  0.500  0.810965  33.055238  14.690703  7.974464
  14375.188  14375.200  0.500  0.810972  33.026488  14.677819  7.971172
  14375.469  14375.500  0.500  0.811008  33.025999  14.677079  7.974017
  14375.776  14375.800  0.500  0.810838  33.004828  14.670163  7.972804
  14376.083  14376.100  0.500  0.810660  32.984788  14.663874  7.971452
  14376.381  14376.400  0.500  0.810524  32.977789  14.662752  7.972634
  14376.706  14376.700  0.500  0.810461  32.973982  14.661985  7.975372
  14376.995  14377.000  0.500  0.809998  32.961293  14.663120  7.977408
  14377.303  14377.300  0.500  0.809858  32.960969  14.665035  7.980152
  14377.601  14377.600  0.500  0.809667  32.963325  14.668885  7.985309
  14377.791  14377.800  0.500  0.809555  32.980834  14.678323  7.992292
  14378.821  14378.790  0.500  0.809223  32.987987  14.686379  8.004788
  14379.833  14379.790  0.500  0.808534  33.006437  14.704714  8.018830
  14380.855  14380.810  0.500  0.808027  33.010455  14.713964  8.028489
  14381.885  14381.860  0.500  0.807737  32.991633  14.709843  8.029118
  14382.943  14382.920  0.500  0.807603  32.981171  14.707147  8.024145
  14383.992  14384.000  0.500  0.807477  32.967035  14.702701  8.019474
  14385.105  14385.100  0.500  0.807684  32.932986  14.684475  8.005023
  14386.236  14386.220  0.500  0.807745  32.905330  14.671248  7.989766
  14387.385  14387.360  0.500  0.807987  32.904740  14.667438  7.980108
  14388.534  14388.510  0.500  0.807855  32.933345  14.682127  7.978462
  14389.729  14389.690  0.500  0.807195  32.933485  14.691873  7.974171
  14390.879  14390.880  0.500  0.806624  32.921267  14.694813  7.967473
  14392.119  14392.100  0.500  0.805586  32.921015  14.709971  7.971888
  14393.324  14393.330  0.500  0.804197  32.909412  14.725218  7.975878
  14394.610  14394.580  0.500  0.802841  32.896146  14.739259  7.985273
  14395.860  14395.850  0.500  0.801344  32.889101  14.758179  7.997870
  14397.165  14397.140  0.500  0.800049  32.883226  14.774659  8.012482
  14398.470  14398.450  0.500  0.798745  32.880623  14.792771  8.029659
  14399.811  14399.780  0.500  0.797468  32.855344  14.800290  8.043597
  14401.125  14401.130  0.500  0.796589  32.841407  14.807015  8.055666
  14402.504  14402.500  0.500  0.795858  32.832554  14.813845  8.068717
  14403.882  14403.880  0.500  0.795344  32.823614  14.817431  8.076796
  14405.324  14405.290  0.500  0.795024  32.811218  14.816571  8.078547
  14406.722  14406.710  0.500  0.794956  32.806904  14.815638  8.080175
  14408.174  14408.150  0.500  0.794908  32.779546  14.803994  8.073514
  14409.617  14409.610  0.500  0.795200  32.765628  14.793391  8.067674
  14411.087  14411.090  0.500  0.795737  32.675215  14.744644  8.042948
  14412.567  14412.590  0.500  0.795956  32.614224  14.713895  8.025678
  14414.129  14414.110  0.500  0.796298  32.705939  14.750227  8.044522
  14415.674  14415.650  0.500  0.796723  32.724562  14.752354  8.045476
  14417.227  14417.210  0.500  0.796813  32.726683  14.751988  8.043539
  14418.791  14418.780  0.500  0.796811  32.708555  14.743841  8.038672
  14420.381  14420.380  0.500  0.796892  32.693491  14.735861  8.033289
  14421.981  14421.990  0.500  0.796706  32.604950  14.698692  8.012433
  14423.655  14423.630  0.500  0.796596  32.534578  14.668573  7.994049
  14425.301  14425.280  0.500  0.796323  32.645451  14.722588  8.022552
  14426.975  14426.950  0.500  0.796135  32.663840  14.733644  8.026906
  14428.659  14428.640  0.500  0.795717  32.646061  14.731776  8.025676
  14430.352  14430.350  0.500  0.795167  32.631099  14.733137  8.023903
  14432.082  14432.080  0.500  0.794347  32.573516  14.719195  8.015044
  14433.839  14433.830  0.500  0.793646  32.442705  14.670373  7.990127
  14435.607  14435.590  0.500  0.792997  32.570093  14.737532  8.032030
  14437.401  14437.380  0.500  0.792500  32.609583  14.762735  8.049371
  14439.188  14439.180  0.500  0.792062  32.577047  14.754473  8.049796
  14441.002  14441.010  0.500  0.791998  32.560546  14.747932  8.050964
  14442.853  14442.850  0.500  0.791959  32.541006  14.739665  8.052459
  14444.723  14444.710  0.500  0.792148  32.466743  14.703242  8.037600
  14446.602  14446.590  0.500  0.792132  32.399939  14.673232  8.025878
  14448.482  14448.490  0.500  0.792134  32.501359  14.719127  8.053246
  14450.390  14450.410  0.500  0.791885  32.496239  14.720470  8.054721
  14452.353  14452.350  0.500  0.791446  32.484568  14.721644  8.056418
  14454.344  14454.310  0.500  0.790978  32.462688  14.718620  8.056929
  14456.308  14456.280  0.500  0.790294  32.451333  14.723539  8.058976
  14458.291  14458.280  0.500  0.789449  32.438509  14.730167  8.064675
  14460.265  14460.290  0.500  0.788647  32.408079  14.728153  8.066446
  14462.295  14462.320  0.500  0.787655  32.401695  14.739863  8.072568
  14464.380  14464.380  0.500  0.786618  32.384873  14.747493  8.080449
  14466.457  14466.450  0.500  0.785723  32.378310  14.757717  8.088373
  14468.516  14468.540  0.500  0.784902  32.357161  14.760185  8.092982
  14470.603  14470.650  0.500  0.784200  32.339701  14.762574  8.095164
  14472.763  14472.780  0.500  0.783542  32.327071  14.766526  8.099834
  14474.888  14474.920  0.500  0.782913  32.308199  14.767190  8.101820
  14477.069  14477.090  0.500  0.782234  32.293354  14.770437  8.104015
  14479.241  14479.280  0.500  0.781854  32.281012  14.770406  8.104878
  14481.423  14481.480  0.500  0.781351  32.223041  14.751292  8.094429
  14483.669  14483.700  0.500  0.780881  32.233983  14.763236  8.102335
  14485.935  14485.950  0.500  0.780482  32.235690  14.769918  8.105531
  14488.670  14488.210  0.500  0.779950  32.203770  14.763137  8.102077
  14490.395  14490.490  0.500  0.779570  32.186600  14.760873  8.101941
  14492.985  14492.790  0.500  0.779374  32.165552  14.754109  8.099161
  14495.042  14495.110  0.500  0.778975  32.155453  14.755376  8.102962
  14497.468  14497.450  0.500  0.778800  32.131854  14.747123  8.101331
  14499.784  14499.800  0.500  0.778495  32.120364  14.746342  8.103403
  14502.183  14502.180  0.500  0.778195  32.105833  14.744101  8.104566
  14504.574  14504.570  0.500  0.777850  32.081699  14.738089  8.102330
  14506.994  14506.990  0.500  0.777600  32.066549  14.734818  8.106082
  14509.387  14509.420  0.500  0.776999  32.055915  14.738787  8.109450
  14511.854  14511.870  0.500  0.776504  32.026683  14.732638  8.109669
  14514.340  14514.350  0.500  0.775884  32.011175  14.734643  8.113239
  14516.837  14516.840  0.500  0.775535  31.969972  14.720804  8.111074
  14519.362  14519.350  0.500  0.774914  31.984571  14.736674  8.119766
  14521.870  14521.870  0.500  0.774354  31.971456  14.738886  8.123819
  14524.433  14524.420  0.500  0.773599  31.950847  14.740517  8.125968
  14526.980  14526.990  0.500  0.773193  31.933629  14.738551  8.127149
  14529.564  14529.570  0.500  0.772655  31.913729  14.737297  8.131726
  14532.186  14532.180  0.500  0.772309  31.899614  14.735876  8.133297
  14534.809  14534.800  0.500  0.771630  31.879686  14.736674  8.136542
  14537.469  14537.450  0.500  0.771184  31.921475  14.762566  8.152270
  14540.131  14540.110  0.500  0.770791  31.938995  14.776483  8.161519
  14542.775  14542.790  0.500  0.770453  31.918242  14.771865  8.159398
  14545.476  14545.490  0.500  0.769835  31.895967  14.770693  8.160449
  14548.206  14548.210  0.500  0.769166  31.867415  14.767334  8.157609
  14550.945  14550.950  0.500  0.768639  31.820652  14.753447  8.150386
  14553.714  14553.700  0.500  0.767954  31.846070  14.775352  8.164304
  14556.511  14556.480  0.500  0.767033  31.823630  14.778539  8.165654
  14559.245  14559.270  0.500  0.766416  31.800040  14.776705  8.166318
  14562.082  14562.090  0.500  0.765514  31.780434  14.780908  8.169197
  14564.910  14564.920  0.500  0.764976  31.756521  14.777740  8.171667
  14567.796  14567.770  0.500  0.763995  31.744862  14.786820  8.176988
  14570.673  14570.650  0.500  0.763320  31.717886  14.784222  8.178792
  14573.551  14573.540  0.500  0.762705  31.700843  14.785370  8.183844
  14576.449  14576.450  0.500  0.761826  31.671469  14.784664  8.186622
  14579.367  14579.370  0.500  0.761192  31.655054  14.786375  8.191397
  14582.314  14582.320  0.500  0.760446  31.632426  14.786822  8.196467
  14585.300  14585.290  0.500  0.759795  31.612068  14.786941  8.199800
  14588.295  14588.270  0.500  0.759302  31.594372  14.785941  8.204458
  14591.293  14591.280  0.500  0.758754  31.572421  14.783764  8.208458
  14594.300  14594.300  0.500  0.758308  31.550431  14.780058  8.210852
