# XDI/1.0 BlueSky/1.10.0 BMM/2023-1.0-py310-tiled
# Beamline.name: BMM (06BM) -- Beamline for Materials Measurement (NIST)
# Beamline.xray_source: NSLS-II three-pole wiggler
# Beamline.collimation: paraboloid mirror, 5 nm Rh on 30 nm Pt
# Beamline.focusing: not in use
# Beamline.harmonic_rejection: flat mirror, Pt stripe, pitch = 7.0 mrad relative to beam
# Beamline.software: Bluesky 1.10.0, Ophyd 1.7.0, DataBroker 2.0.0b13, Python 3.10.8, 2023-1.0-py310-tiled
# Detector.I0: 10 cm N2
# Detector.I1: 25 cm N2
# Detector.I2: 25 cm N2
# Element.symbol: Au
# Element.edge: L3
# Element.reference: Au
# Element.reference_material: Au foil
# Facility.name: NSLS-II
# Facility.energy: 3.0
# Facility.current: 400.7
# Facility.mode: top-off
# Facility.GUP: 301027
# Facility.SAF: 310583
# Facility.cycle: 2023-2
# Mono.name: Si(111)
# Mono.d_spacing: 3.1351860
# Mono.encoder_resolution: 0.0000050 deg/ct
# Mono.angle_offset: 16.0754326 deg
# Mono.scan_mode: pseudo channel cut
# Mono.scan_type: step
# Mono.direction: forward in energy
# Sample.name: KAu(SCN)4, gold potassium thocyanate
# Sample.prep: powder in BN pellet
# Sample.x: 145.711 mm
# Sample.y: 114.376 mm
# Sample.SDD_position: 205.000 mm
# Scan.experimenters: Bruce Ravel
# Scan.edge_energy: 11918.7
# Scan.start_time: 2023-06-27T17:50:19
# Scan.end_time: 2023-06-27T17:58:22
# Scan.transient_id: 85202
# Scan.uid: 69124dc7-875e-4600-a0e7-eba7cf9667dc
# Scan.plot_hint: ln(I0/It)  --  ln($5/$6)
# Column.1: energy eV
# Column.2: requested_energy eV
# Column.3: measurement_time seconds
# Column.4: xmu 
# Column.5: I0 nA
# Column.6: It nA
# Column.7: Ir nA
# ///////////
# Welcome to BMM
# -----------
# energy  requested_energy  measurement_time  xmu  I0  It  Ir
  11718.720  11718.700  0.500  1.168672  64.581085  20.070468  12.767455
  11728.735  11728.700  0.500  1.164359  64.469357  20.122346  12.814688
  11738.732  11738.700  0.500  1.160077  64.287084  20.151557  12.847648
  11748.758  11748.700  0.500  1.155954  64.086280  20.171605  12.874812
  11758.771  11758.700  0.500  1.151552  63.846357  20.184745  12.893189
  11768.789  11768.700  0.500  1.147419  63.915364  20.290251  12.977314
  11778.668  11778.700  0.500  1.143271  63.570202  20.264560  12.974391
  11788.733  11788.700  0.500  1.139126  63.649801  20.374207  13.058631
  11798.730  11798.700  0.500  1.134962  63.515495  20.416056  13.096288
  11808.745  11808.700  0.500  1.131006  63.358122  20.446192  13.133161
  11818.753  11818.700  0.500  1.126883  63.220393  20.486039  13.170113
  11828.741  11828.700  0.500  1.123108  63.062237  20.512075  13.199801
  11838.777  11838.700  0.500  1.119242  62.964155  20.559510  13.243918
  11848.696  11848.700  0.500  1.115692  62.647813  20.528969  13.234504
  11858.693  11858.700  0.500  1.112398  62.621674  20.588098  13.283281
  11868.732  11868.700  0.500  1.109734  62.568970  20.625643  13.316365
  11878.727  11878.700  0.500  1.107787  62.449725  20.626465  13.321436
  11888.714  11888.700  0.500  1.107449  62.256514  20.569592  13.281722
  11890.658  11890.700  0.500  1.107893  62.265814  20.563543  13.276200
  11892.658  11892.700  0.500  1.108387  62.225490  20.540079  13.258935
  11894.665  11894.700  0.500  1.109135  62.194676  20.514560  13.238954
  11896.648  11896.700  0.500  1.110035  62.167899  20.487276  13.215357
  11898.662  11898.700  0.500  1.111409  62.128309  20.446107  13.183113
  11900.653  11900.700  0.500  1.113419  62.031294  20.373188  13.128646
  11902.669  11902.700  0.500  1.116030  61.433563  20.124269  12.959390
  11904.667  11904.700  0.500  1.119345  62.009280  20.245632  13.021728
  11906.659  11906.700  0.500  1.124074  62.042554  20.160929  12.950866
  11908.665  11908.700  0.500  1.130454  62.016938  20.024435  12.838759
  11908.949  11909.000  0.500  1.131563  62.009169  19.999734  12.815892
  11909.245  11909.300  0.500  1.132944  62.010015  19.972408  12.796094
  11909.541  11909.600  0.500  1.134219  62.008935  19.946624  12.774895
  11909.850  11909.900  0.500  1.135728  62.005075  19.915291  12.748967
  11910.153  11910.200  0.500  1.137193  62.001240  19.884921  12.726413
  11910.455  11910.500  0.500  1.138772  61.999330  19.852929  12.697546
  11910.770  11910.800  0.500  1.140570  61.988002  19.813642  12.666524
  11911.054  11911.100  0.500  1.142223  61.993748  19.782761  12.640511
  11911.369  11911.400  0.500  1.144110  61.980930  19.741368  12.607999
  11911.678  11911.700  0.500  1.146113  61.976268  19.700388  12.575439
  11911.962  11912.000  0.500  1.148191  61.971134  19.657860  12.537460
  11912.270  11912.300  0.500  1.150619  61.971666  19.610362  12.501671
  11912.585  11912.600  0.500  1.152886  61.960968  19.562588  12.460318
  11912.876  11912.900  0.500  1.155498  61.946834  19.507096  12.416327
  11913.166  11913.200  0.500  1.158275  61.942705  19.451711  12.374220
  11913.469  11913.500  0.500  1.161283  61.941103  19.392780  12.324147
  11913.765  11913.800  0.500  1.164593  61.929532  19.325096  12.272485
  11914.068  11914.100  0.500  1.168118  61.933362  19.258287  12.217337
  11914.371  11914.400  0.500  1.171997  61.919187  19.179322  12.156113
  11914.661  11914.700  0.500  1.175920  61.920330  19.104586  12.093222
  11914.970  11915.000  0.500  1.180506  61.898537  19.010489  12.017383
  11915.267  11915.300  0.500  1.185456  61.887834  18.913344  11.940273
  11915.563  11915.600  0.500  1.190828  61.856392  18.802452  11.854455
  11915.878  11915.900  0.500  1.197169  61.805517  18.668237  11.749006
  11916.169  11916.200  0.500  1.203236  61.725730  18.531368  11.642613
  11916.484  11916.500  0.500  1.210891  61.584620  18.348005  11.505071
  11916.774  11916.800  0.500  1.218600  61.455512  18.168933  11.370008
  11917.077  11917.100  0.500  1.227296  61.329417  17.974679  11.222350
  11917.392  11917.400  0.500  1.237282  61.238558  17.769703  11.063269
  11917.677  11917.700  0.500  1.247428  61.206437  17.581090  10.915542
  11917.992  11918.000  0.500  1.259873  61.255742  17.377639  10.751355
  11918.283  11918.300  0.500  1.272792  61.335095  17.176808  10.592527
  11918.598  11918.600  0.500  1.287551  61.433476  16.952302  10.411883
  11918.889  11918.900  0.500  1.303872  61.543035  16.707617  10.218529
  11919.198  11919.200  0.500  1.322019  61.648850  16.435365  10.001586
  11919.494  11919.500  0.500  1.342692  61.741728  16.123336  9.760566
  11919.791  11919.800  0.500  1.364882  61.782687  15.779974  9.495065
  11920.107  11920.100  0.500  1.391038  61.823198  15.382656  9.193544
  11920.391  11920.400  0.500  1.417915  61.822706  14.974604  8.886699
  11920.700  11920.700  0.500  1.449428  61.829939  14.511765  8.542197
  11920.991  11921.000  0.500  1.480347  61.838233  14.071829  8.216725
  11921.307  11921.300  0.500  1.516311  61.827018  13.572281  7.849024
  11921.591  11921.600  0.500  1.549990  61.829970  13.123413  7.519451
  11921.894  11921.900  0.500  1.585433  61.817497  12.663877  7.186425
  11922.179  11922.200  0.500  1.618034  61.820971  12.258370  6.893794
  11922.488  11922.500  0.500  1.649821  61.821832  11.875002  6.611839
  11922.785  11922.800  0.500  1.675101  61.819917  11.578212  6.392416
  11923.088  11923.100  0.500  1.697288  61.819570  11.324085  6.198154
  11923.379  11923.400  0.500  1.712427  61.801917  11.150753  6.059785
  11923.701  11923.700  0.500  1.722537  61.798678  11.038012  5.958548
  11923.985  11924.000  0.500  1.727264  61.792189  10.984807  5.898435
  11924.282  11924.300  0.500  1.727842  61.789462  10.977968  5.866185
  11924.592  11924.600  0.500  1.725721  61.785446  11.000563  5.854200
  11924.901  11924.900  0.500  1.721827  61.780519  11.042605  5.855767
  11925.198  11925.200  0.500  1.717413  61.781917  11.091705  5.867937
  11925.502  11925.500  0.500  1.712993  61.784756  11.141353  5.880563
  11925.805  11925.800  0.500  1.708926  61.770488  11.184169  5.893783
  11926.102  11926.100  0.500  1.705887  61.766882  11.217559  5.904639
  11926.405  11926.400  0.500  1.703700  61.776726  11.243915  5.911880
  11926.703  11926.700  0.500  1.702973  61.756263  11.248359  5.911132
  11927.006  11927.000  0.500  1.702891  61.750176  11.248176  5.911352
  11927.291  11927.300  0.500  1.703548  61.739841  11.238900  5.906466
  11927.600  11927.600  0.500  1.704682  61.741633  11.226492  5.898699
  11927.885  11927.900  0.500  1.706235  61.737488  11.208319  5.890429
  11928.195  11928.200  0.500  1.708043  61.735860  11.187776  5.880867
  11928.486  11928.500  0.500  1.709635  61.732471  11.169368  5.869924
  11928.789  11928.800  0.500  1.711532  61.734650  11.148596  5.859168
  11929.080  11929.100  0.500  1.713270  61.714563  11.125613  5.844932
  11929.396  11929.400  0.500  1.714854  61.722907  11.109510  5.833090
  11929.687  11929.700  0.500  1.716589  61.713161  11.088498  5.820535
  11929.985  11930.000  0.500  1.718118  61.702883  11.069711  5.805842
  11930.288  11930.300  0.500  1.719825  61.709866  11.052078  5.790694
  11930.598  11930.600  0.500  1.721971  61.696880  11.026069  5.771823
  11930.902  11930.900  0.500  1.724175  61.683032  10.999325  5.751023
  11931.199  11931.200  0.500  1.726694  61.681657  10.971405  5.729598
  11931.503  11931.500  0.500  1.729524  61.678836  10.939907  5.705524
  11931.800  11931.800  0.500  1.732714  61.674855  10.904359  5.677614
  11932.104  11932.100  0.500  1.735904  61.661852  10.867340  5.649974
  11932.389  11932.400  0.500  1.739036  61.666658  10.834196  5.623371
  11932.711  11932.700  0.500  1.742653  61.650920  10.792327  5.594880
  11933.002  11933.000  0.500  1.745821  61.632999  10.755060  5.566139
  11933.312  11933.300  0.500  1.748994  61.615142  10.717888  5.536431
  11933.597  11933.600  0.500  1.751921  61.591438  10.682445  5.510837
  11933.913  11933.900  0.500  1.754605  61.525049  10.642333  5.481939
  11934.199  11934.200  0.500  1.756797  61.396091  10.596767  5.451917
  11934.496  11934.500  0.500  1.759173  61.244568  10.545526  5.420580
  11934.775  11934.800  0.500  1.761037  61.093891  10.499998  5.391112
  11935.097  11935.100  0.500  1.762526  60.979247  10.464696  5.366783
  11935.383  11935.400  0.500  1.763778  60.934204  10.443886  5.351982
  11935.686  11935.700  0.500  1.764675  60.942615  10.435958  5.345289
  11935.984  11936.000  0.500  1.764932  61.003099  10.443630  5.344731
  11936.300  11936.300  0.500  1.765007  61.095827  10.458724  5.350118
  11936.586  11936.600  0.500  1.764908  61.198142  10.477280  5.358219
  11936.908  11936.900  0.500  1.764395  61.328579  10.504996  5.370156
  11937.193  11937.200  0.500  1.763475  61.433796  10.532708  5.383461
  11937.510  11937.500  0.500  1.762311  61.485966  10.553922  5.392681
  11937.795  11937.800  0.500  1.761160  61.517991  10.571586  5.399832
  11938.111  11938.100  0.500  1.759666  61.529650  10.589393  5.408492
  11938.397  11938.400  0.500  1.758231  61.525090  10.603815  5.413421
  11938.713  11938.700  0.500  1.756769  61.538141  10.621588  5.421102
  11938.998  11939.000  0.500  1.755452  61.534157  10.634899  5.426033
  11939.309  11939.300  0.500  1.754090  61.541668  10.650693  5.432456
  11939.606  11939.600  0.500  1.753022  61.531277  10.660270  5.432908
  11939.917  11939.900  0.500  1.752202  61.532364  10.669205  5.434806
  11940.202  11940.200  0.500  1.751285  61.533441  10.679176  5.436872
  11940.506  11940.500  0.500  1.750701  61.530649  10.684935  5.436402
  11940.792  11940.800  0.500  1.750401  61.518408  10.686015  5.434049
  11941.108  11941.100  0.500  1.750068  61.509378  10.688003  5.432033
  11941.387  11941.400  0.500  1.750039  61.657757  10.714092  5.441137
  11941.698  11941.700  0.500  1.750184  61.694684  10.718958  5.441754
  11941.990  11942.000  0.500  1.750392  61.675095  10.713322  5.436788
  11942.300  11942.300  0.500  1.751149  61.673983  10.705020  5.429710
  11942.592  11942.600  0.500  1.751914  61.673860  10.696816  5.421943
  11942.896  11942.900  0.500  1.752949  61.672280  10.685474  5.412365
  11943.188  11943.200  0.500  1.754139  61.665193  10.671544  5.400196
  11943.498  11943.500  0.500  1.755762  61.664439  10.654108  5.386352
  11943.703  11943.700  0.500  1.757052  61.659431  10.639505  5.373681
  11944.709  11944.690  0.500  1.765368  61.640943  10.548233  5.296394
  11945.696  11945.690  0.500  1.776268  61.626850  10.431500  5.194067
  11946.721  11946.710  0.500  1.789303  61.614346  10.294319  5.075340
  11947.753  11947.760  0.500  1.801369  61.601000  10.168650  4.975741
  11948.821  11948.820  0.500  1.811153  61.583796  10.066830  4.911374
  11949.903  11949.900  0.500  1.817070  61.572644  10.005627  4.890287
  11951.028  11951.000  0.500  1.820316  61.558417  9.970896  4.900347
  11952.141  11952.120  0.500  1.821539  61.536264  9.955126  4.924400
  11953.279  11953.260  0.500  1.822782  61.521402  9.940358  4.945199
  11954.404  11954.410  0.500  1.824711  61.513780  9.919971  4.951875
  11955.593  11955.590  0.500  1.827539  61.497701  9.889375  4.942974
  11956.787  11956.780  0.500  1.830303  61.474468  9.858350  4.931587
  11958.020  11958.000  0.500  1.832259  61.463488  9.837329  4.927157
  11959.246  11959.230  0.500  1.834076  61.433703  9.814716  4.923898
  11960.497  11960.480  0.500  1.836396  61.421317  9.789996  4.918910
  11961.749  11961.750  0.500  1.839521  61.401395  9.756286  4.897644
  11963.051  11963.040  0.500  1.843674  61.382246  9.712818  4.865781
  11964.353  11964.350  0.500  1.848958  61.367178  9.659265  4.821824
  11965.699  11965.680  0.500  1.854663  61.352076  9.601947  4.769914
  11967.033  11967.030  0.500  1.860226  61.323302  9.544204  4.720739
  11968.404  11968.400  0.500  1.865064  61.306539  9.495539  4.676318
  11969.782  11969.780  0.500  1.868519  61.283730  9.459267  4.641406
  11971.211  11971.190  0.500  1.870196  61.267844  9.440971  4.622825
  11972.577  11972.610  0.500  1.869052  61.250158  9.449052  4.626358
  11974.031  11974.050  0.500  1.865166  61.231177  9.482903  4.650690
  11975.491  11975.510  0.500  1.859720  61.203623  9.530393  4.687646
  11976.965  11976.990  0.500  1.853443  61.189126  9.588133  4.730377
  11978.482  11978.490  0.500  1.846452  61.159354  9.650702  4.771852
  11979.994  11980.010  0.500  1.839631  61.135538  9.712973  4.813683
  11981.606  11981.550  0.500  1.832643  61.113599  9.777572  4.854829
  11983.056  11983.110  0.500  1.826552  61.087275  9.833071  4.890261
  11984.694  11984.680  0.500  1.820215  61.057220  9.890716  4.925461
  11986.238  11986.280  0.500  1.814756  61.041825  9.942344  4.956580
  11987.877  11987.890  0.500  1.809166  61.012888  9.993346  4.989821
  11989.529  11989.530  0.500  1.804251  60.989119  10.038667  5.026045
  11991.168  11991.180  0.500  1.799950  60.966428  10.078187  5.055690
  11992.827  11992.850  0.500  1.796884  60.938822  10.104555  5.076609
  11994.512  11994.540  0.500  1.795407  60.914526  10.115452  5.085752
  11996.215  11996.250  0.500  1.795040  60.899279  10.116636  5.086165
  11997.988  11997.980  0.500  1.795041  60.863299  10.110646  5.081095
  11999.724  11999.730  0.500  1.795875  60.841648  10.098629  5.069567
  12001.480  12001.490  0.500  1.797212  60.822486  10.081955  5.053839
  12003.267  12003.280  0.500  1.799135  60.803653  10.059470  5.031798
  12005.061  12005.080  0.500  1.801442  60.784974  10.033211  5.007987
  12006.893  12006.910  0.500  1.803339  60.755391  10.009322  4.985450
  12008.739  12008.750  0.500  1.805015  60.725153  9.987589  4.965284
  12010.603  12010.610  0.500  1.806413  60.705615  9.970424  4.954425
  12012.488  12012.490  0.500  1.807346  60.680588  9.957021  4.950022
  12014.385  12014.390  0.500  1.808254  60.653309  9.943515  4.948390
  12016.296  12016.310  0.500  1.809388  60.634100  9.929098  4.947087
  12018.238  12018.250  0.500  1.810845  60.604562  9.909809  4.942266
  12020.200  12020.210  0.500  1.812961  60.579719  9.884812  4.936893
  12022.176  12022.180  0.500  1.815483  60.552142  9.855422  4.927853
  12024.177  12024.180  0.500  1.818050  60.531582  9.826819  4.914887
  12026.191  12026.190  0.500  1.820501  60.503839  9.798272  4.903057
  12028.213  12028.220  0.500  1.822404  60.472556  9.774586  4.891529
  12030.254  12030.280  0.500  1.823332  60.443134  9.760766  4.884811
  12032.346  12032.350  0.500  1.822807  60.414532  9.761275  4.885297
  12034.439  12034.440  0.500  1.820879  60.393811  9.776757  4.896823
  12036.558  12036.550  0.500  1.817112  60.357774  9.807798  4.914851
  12038.690  12038.680  0.500  1.812213  60.324890  9.850597  4.942875
  12040.816  12040.820  0.500  1.806381  60.294348  9.903194  4.975726
  12042.988  12042.990  0.500  1.800324  60.255479  9.956935  5.009080
  12045.173  12045.180  0.500  1.794369  60.186634  10.004966  5.039896
  12047.384  12047.380  0.500  1.789382  59.030858  9.861895  4.973796
  12049.603  12049.600  0.500  1.785263  59.219234  9.934196  5.013633
  12051.860  12051.850  0.500  1.781623  60.053849  10.110949  5.104869
  12054.105  12054.110  0.500  1.779302  60.073492  10.137757  5.116070
  12056.383  12056.390  0.500  1.777837  60.054405  10.149392  5.120642
  12058.693  12058.690  0.500  1.777139  60.030170  10.152380  5.118361
  12061.023  12061.010  0.500  1.776368  60.002096  10.155457  5.115989
  12063.361  12063.350  0.500  1.776332  59.967723  10.150012  5.110744
  12065.693  12065.700  0.500  1.776099  59.937619  10.147274  5.106993
  12068.070  12068.080  0.500  1.776400  59.902080  10.138206  5.101962
  12070.473  12070.470  0.500  1.776715  59.879515  10.131200  5.095517
  12072.910  12072.890  0.500  1.776966  59.843122  10.122495  5.091006
  12075.334  12075.320  0.500  1.777376  59.809447  10.112654  5.084288
  12077.760  12077.770  0.500  1.777818  59.773308  10.102082  5.080804
  12080.225  12080.250  0.500  1.778669  59.740641  10.087970  5.074805
  12082.741  12082.740  0.500  1.779291  59.705423  10.075750  5.070137
  12085.246  12085.250  0.500  1.780472  59.674989  10.058734  5.063506
  12087.759  12087.770  0.500  1.781629  59.640336  10.041265  5.053703
  12090.317  12090.320  0.500  1.782937  59.594929  10.020501  5.043811
  12092.895  12092.890  0.500  1.784400  59.395919  9.972441  5.018195
  12095.480  12095.470  0.500  1.785304  59.544663  9.988383  5.027838
  12098.093  12098.080  0.500  1.786047  59.513689  9.975772  5.022817
  12100.706  12100.700  0.500  1.785612  59.474526  9.973544  5.026704
  12103.365  12103.350  0.500  1.784666  59.440541  9.977277  5.037690
  12106.013  12106.010  0.500  1.782813  59.409361  9.990540  5.051418
  12108.681  12108.690  0.500  1.780396  59.370393  10.008153  5.066991
  12111.388  12111.390  0.500  1.777777  59.339481  10.029171  5.082692
  12114.123  12114.110  0.500  1.775205  59.302751  10.048775  5.098270
  12116.858  12116.850  0.500  1.772348  59.261057  10.070444  5.111312
  12119.608  12119.600  0.500  1.769664  59.227560  10.091801  5.124014
  12122.403  12122.380  0.500  1.766873  59.182755  10.112352  5.136118
  12125.194  12125.170  0.500  1.764529  59.145076  10.129626  5.145729
  12127.992  12127.990  0.500  1.762347  59.079120  10.140428  5.151796
  12130.830  12130.820  0.500  1.760293  59.006639  10.148811  5.154598
  12133.682  12133.670  0.500  1.758647  59.055594  10.173965  5.164526
  12136.549  12136.550  0.500  1.757333  59.010156  10.179503  5.165987
  12139.448  12139.440  0.500  1.756306  58.968495  10.182771  5.164118
  12142.382  12142.350  0.500  1.755331  58.926796  10.185500  5.160975
  12145.291  12145.270  0.500  1.754503  58.882077  10.186197  5.157551
  12148.214  12148.220  0.500  1.753570  58.838299  10.188128  5.156274
  12151.209  12151.190  0.500  1.752710  58.800190  10.190290  5.156522
  12154.193  12154.170  0.500  1.751582  58.758955  10.194639  5.160018
  12157.192  12157.180  0.500  1.750331  58.718289  10.200335  5.166661
  12160.205  12160.200  0.500  1.749010  58.660582  10.203777  5.171394
