# XDI/1.0 BlueSky/1.10.0 BMM/2023-1.0-py310-tiled
# Beamline.name: BMM (06BM) -- Beamline for Materials Measurement (NIST)
# Beamline.xray_source: NSLS-II three-pole wiggler
# Beamline.collimation: paraboloid mirror, 5 nm Rh on 30 nm Pt
# Beamline.focusing: not in use
# Beamline.harmonic_rejection: flat mirror, Pt stripe, pitch = 7.0 mrad relative to beam
# Beamline.software: Bluesky 1.10.0, Ophyd 1.7.0, DataBroker 2.0.0b13, Python 3.10.8, 2023-1.0-py310-tiled
# Detector.I0: 10 cm N2
# Detector.I1: 25 cm N2
# Detector.I2: 25 cm N2
# Element.symbol: Au
# Element.edge: L3
# Element.reference: Au
# Element.reference_material: Au foil
# Facility.name: NSLS-II
# Facility.energy: 3.0
# Facility.current: 400.1
# Facility.mode: top-off
# Facility.GUP: 301027
# Facility.SAF: 310583
# Facility.cycle: 2023-2
# Mono.name: Si(111)
# Mono.d_spacing: 3.1351860
# Mono.encoder_resolution: 0.0000050 deg/ct
# Mono.angle_offset: 16.0754326 deg
# Mono.scan_mode: pseudo channel cut
# Mono.scan_type: step
# Mono.direction: forward in energy
# Sample.name: Au2S
# Sample.prep: powder on tape
# Sample.x: 145.711 mm
# Sample.y: 114.376 mm
# Sample.SDD_position: 205.000 mm
# Scan.experimenters: Bruce Ravel
# Scan.edge_energy: 11918.7
# Scan.start_time: 2023-06-27T17:41:20
# Scan.end_time: 2023-06-27T17:49:46
# Scan.transient_id: 85197
# Scan.uid: 479f9061-9891-4efa-8304-bf5b872cde12
# Scan.plot_hint: ln(I0/It)  --  ln($5/$6)
# Column.1: energy eV
# Column.2: requested_energy eV
# Column.3: measurement_time seconds
# Column.4: xmu 
# Column.5: I0 nA
# Column.6: It nA
# Column.7: Ir nA
# ///////////
# Welcome to BMM
# -----------
# energy  requested_energy  measurement_time  xmu  I0  It  Ir
  11718.714  11718.700  0.500  0.618285  64.339268  34.670370  22.053182
  11728.771  11728.700  0.500  0.615113  64.214220  34.712900  22.104529
  11738.756  11738.700  0.500  0.612017  64.066999  34.740719  22.145154
  11748.788  11748.700  0.500  0.608873  63.851327  34.732803  22.167121
  11758.747  11758.700  0.500  0.605622  63.611754  34.715146  22.176153
  11768.747  11768.700  0.500  0.602662  63.690557  34.861198  22.297747
  11778.770  11778.700  0.500  0.599491  63.342381  34.780750  22.268836
  11788.709  11788.700  0.500  0.596484  63.446320  34.942737  22.396750
  11798.712  11798.700  0.500  0.593498  63.289214  34.960422  22.432553
  11808.739  11808.700  0.500  0.590476  63.125379  34.975481  22.466371
  11818.729  11818.700  0.500  0.587547  62.996705  35.006561  22.507256
  11828.747  11828.700  0.500  0.584651  62.844861  35.023452  22.538899
  11838.765  11838.700  0.500  0.581946  62.756601  35.068991  22.587113
  11848.690  11848.700  0.500  0.579439  62.442835  34.981278  22.554706
  11858.712  11858.700  0.500  0.577115  62.412052  35.045382  22.609982
  11868.732  11868.700  0.500  0.574951  62.368425  35.096748  22.659237
  11878.714  11878.700  0.500  0.573526  62.239683  35.074241  22.653183
  11888.751  11888.700  0.500  0.573338  62.063073  34.981286  22.591919
  11890.682  11890.700  0.500  0.573616  62.052344  34.965516  22.574452
  11892.670  11892.700  0.500  0.573851  62.040175  34.950426  22.563505
  11894.677  11894.700  0.500  0.574361  62.009989  34.915622  22.534018
  11896.666  11896.700  0.500  0.575111  61.977023  34.870917  22.492874
  11898.681  11898.700  0.500  0.576215  61.936163  34.809449  22.446763
  11900.671  11900.700  0.500  0.577465  61.829888  34.706333  22.366190
  11902.669  11902.700  0.500  0.579032  61.240058  34.321415  22.101082
  11904.710  11904.700  0.500  0.581381  61.832697  34.572258  22.238042
  11907.005  11906.700  0.500  0.584807  61.854019  34.465879  22.135634
  11908.825  11908.700  0.500  0.588711  61.816301  34.310656  21.997350
  11908.930  11909.000  0.500  0.589082  61.815667  34.297582  21.984416
  11909.245  11909.300  0.500  0.589941  61.821871  34.271568  21.959485
  11909.548  11909.600  0.500  0.590776  61.823452  34.243830  21.933473
  11909.850  11909.900  0.500  0.591600  61.816265  34.211661  21.902204
  11910.146  11910.200  0.500  0.592695  61.807674  34.169469  21.864867
  11910.455  11910.500  0.500  0.593627  61.792909  34.129482  21.830155
  11910.758  11910.800  0.500  0.594718  61.789773  34.090541  21.793507
  11911.079  11911.100  0.500  0.595918  61.786661  34.047930  21.756206
  11911.357  11911.400  0.500  0.596987  61.780160  34.007989  21.718800
  11911.715  11911.700  0.500  0.598406  61.775976  33.957472  21.675615
  11911.986  11912.000  0.500  0.599572  61.772730  33.916107  21.635706
  11912.264  11912.300  0.500  0.600885  61.763094  33.866327  21.591166
  11912.548  11912.600  0.500  0.602208  61.751058  33.814968  21.544322
  11912.962  11912.900  0.500  0.604326  61.746417  33.740873  21.475147
  11913.129  11913.200  0.500  0.605401  61.719394  33.689861  21.435912
  11913.549  11913.500  0.500  0.607622  61.921251  33.725082  21.430837
  11913.833  11913.800  0.500  0.609738  61.908291  33.646741  21.363134
  11914.130  11914.100  0.500  0.611727  61.905011  33.578106  21.298322
  11914.445  11914.400  0.500  0.614115  61.893423  33.491729  21.220162
  11914.754  11914.700  0.500  0.616451  61.888220  33.410793  21.141912
  11915.032  11915.000  0.500  0.619090  61.871516  33.313742  21.055397
  11915.341  11915.300  0.500  0.621997  61.857228  33.209368  20.960543
  11915.637  11915.600  0.500  0.625122  61.818448  33.085008  20.850358
  11915.940  11915.900  0.500  0.628499  61.779261  32.952542  20.732401
  11916.237  11916.200  0.500  0.632043  61.677837  32.782081  20.586008
  11916.533  11916.500  0.500  0.636192  61.547990  32.577602  20.419179
  11916.830  11916.800  0.500  0.640518  61.406251  32.362275  20.242182
  11917.114  11917.100  0.500  0.645070  61.283100  32.150703  20.063330
  11917.430  11917.400  0.500  0.650417  61.202086  31.936957  19.874023
  11917.739  11917.700  0.500  0.656246  61.185031  31.742492  19.693600
  11918.029  11918.000  0.500  0.662404  61.225949  31.568729  19.525376
  11918.326  11918.300  0.500  0.669228  61.314063  31.399149  19.353136
  11918.635  11918.600  0.500  0.677164  61.415571  31.202536  19.151996
  11918.919  11918.900  0.500  0.685589  61.523468  30.995123  18.941681
  11919.210  11919.200  0.500  0.695084  61.627176  30.753976  18.704492
  11919.519  11919.500  0.500  0.705897  61.714647  30.466410  18.427956
  11919.822  11919.800  0.500  0.718078  61.769326  30.124200  18.108528
  11920.113  11920.100  0.500  0.731412  61.797053  29.738527  17.757035
  11920.410  11920.400  0.500  0.746100  61.798962  29.305826  17.373143
  11920.707  11920.700  0.500  0.763066  61.806929  28.816524  16.944721
  11921.016  11921.000  0.500  0.782143  61.800278  28.268972  16.476358
  11921.294  11921.300  0.500  0.801679  61.799144  27.721566  16.017506
  11921.597  11921.600  0.500  0.824616  61.803935  27.095048  15.505963
  11921.900  11921.900  0.500  0.848765  61.801624  26.447578  14.989502
  11922.203  11922.200  0.500  0.873895  61.805023  25.792643  14.480766
  11922.494  11922.500  0.500  0.900017  61.794119  25.123196  13.979655
  11922.797  11922.800  0.500  0.926551  61.795063  24.465711  13.496646
  11923.107  11923.100  0.500  0.952419  61.785287  23.837177  13.046022
  11923.385  11923.400  0.500  0.975597  61.781030  23.289435  12.658461
  11923.695  11923.700  0.500  0.998655  61.775715  22.756606  12.290622
  11924.010  11924.000  0.500  1.019939  61.767916  22.274547  11.960783
  11924.307  11924.300  0.500  1.036827  61.760888  21.899054  11.704083
  11924.598  11924.600  0.500  1.050990  61.761531  21.591298  11.495366
  11924.901  11924.900  0.500  1.063090  61.759086  21.330784  11.321548
  11925.198  11925.200  0.500  1.072171  61.755930  21.136864  11.184253
  11925.508  11925.500  0.500  1.078770  61.746612  20.994675  11.083579
  11925.799  11925.800  0.500  1.083150  61.747076  20.903074  11.017783
  11926.102  11926.100  0.500  1.085555  61.736886  20.849435  10.974152
  11926.412  11926.400  0.500  1.086515  61.736692  20.829361  10.956366
  11926.709  11926.700  0.500  1.086018  61.727518  20.836619  10.955647
  11927.012  11927.000  0.500  1.084782  61.730867  20.863523  10.964694
  11927.316  11927.300  0.500  1.083161  61.726124  20.895765  10.982431
  11927.613  11927.600  0.500  1.081358  61.715036  20.929710  11.000718
  11927.910  11927.900  0.500  1.079663  61.710935  20.963812  11.017910
  11928.213  11928.200  0.500  1.078342  61.705617  20.989717  11.032879
  11928.517  11928.500  0.500  1.077655  61.711612  21.006199  11.040504
  11928.796  11928.800  0.500  1.077704  61.686595  20.996643  11.033814
  11929.105  11929.100  0.500  1.078599  61.692009  20.979705  11.023166
  11929.409  11929.400  0.500  1.080307  61.684708  20.941416  10.999136
  11929.712  11929.700  0.500  1.082491  61.681211  20.894544  10.968413
  11930.003  11930.000  0.500  1.085324  61.684197  20.836451  10.929519
  11930.313  11930.300  0.500  1.088865  61.671010  20.758355  10.880596
  11930.610  11930.600  0.500  1.092676  61.669747  20.678979  10.824938
  11930.908  11930.900  0.500  1.096702  61.662525  20.593469  10.769239
  11931.199  11931.200  0.500  1.100754  61.656096  20.508068  10.710518
  11931.509  11931.500  0.500  1.105129  61.666180  20.421883  10.650543
  11931.800  11931.800  0.500  1.109315  61.648169  20.330624  10.587023
  11932.097  11932.100  0.500  1.113306  61.637940  20.246286  10.526276
  11932.395  11932.400  0.500  1.117124  61.632374  20.167317  10.470715
  11932.705  11932.700  0.500  1.120463  61.623733  20.097271  10.416772
  11932.990  11933.000  0.500  1.123341  61.613476  20.036185  10.368730
  11933.287  11933.300  0.500  1.125729  61.598784  19.983628  10.325829
  11933.585  11933.600  0.500  1.127713  61.575553  19.936486  10.286744
  11933.895  11933.900  0.500  1.129274  61.508025  19.883568  10.243336
  11934.186  11934.200  0.500  1.130437  61.390951  19.822645  10.203697
  11934.490  11934.500  0.500  1.131104  61.225256  19.755967  10.154855
  11934.794  11934.800  0.500  1.131432  61.066701  19.698349  10.115496
  11935.097  11935.100  0.500  1.131238  60.954896  19.666098  10.088214
  11935.389  11935.400  0.500  1.131164  60.912235  19.653786  10.074380
  11935.693  11935.700  0.500  1.130787  60.915740  19.662328  10.071916
  11936.009  11936.000  0.500  1.130381  60.979920  19.691030  10.081326
  11936.288  11936.300  0.500  1.130226  61.073217  19.724212  10.093762
  11936.592  11936.600  0.500  1.130065  61.172276  19.759392  10.107151
  11936.902  11936.900  0.500  1.130051  61.292743  19.798576  10.122231
  11937.206  11937.200  0.500  1.130376  61.394657  19.825055  10.134663
  11937.497  11937.500  0.500  1.130798  61.459815  19.837733  10.138864
  11937.795  11937.800  0.500  1.131418  61.485957  19.833873  10.134197
  11938.105  11938.100  0.500  1.132229  61.499392  19.822114  10.124409
  11938.409  11938.400  0.500  1.133171  61.504918  19.805235  10.114988
  11938.701  11938.700  0.500  1.134291  61.499002  19.781166  10.097737
  11939.011  11939.000  0.500  1.135619  61.503527  19.756353  10.079261
  11939.315  11939.300  0.500  1.137242  61.496124  19.721939  10.058987
  11939.606  11939.600  0.500  1.138929  61.501162  19.690321  10.038360
  11939.904  11939.900  0.500  1.140734  61.494119  19.652551  10.013865
  11940.208  11940.200  0.500  1.142539  61.496524  19.617891  9.990018
  11940.506  11940.500  0.500  1.144237  61.489663  19.582422  9.965365
  11940.798  11940.800  0.500  1.146097  61.488249  19.545582  9.942908
  11941.108  11941.100  0.500  1.147933  61.484864  19.508647  9.917295
  11941.419  11941.400  0.500  1.149589  61.480204  19.474904  9.892130
  11941.704  11941.700  0.500  1.151129  61.469049  19.441408  9.872553
  11942.008  11942.000  0.500  1.152710  61.481229  19.414524  9.851691
  11942.312  11942.300  0.500  1.154296  61.464487  19.378492  9.827900
  11942.604  11942.600  0.500  1.155818  61.462395  19.348364  9.807659
  11942.902  11942.900  0.500  1.157284  61.453803  19.317305  9.783569
  11943.200  11943.200  0.500  1.158644  61.444942  19.288283  9.761653
  11943.510  11943.500  0.500  1.160081  61.444231  19.260354  9.738309
  11943.703  11943.700  0.500  1.160964  61.439740  19.241955  9.719780
  11944.703  11944.690  0.500  1.165598  61.427955  19.149319  9.617573
  11945.696  11945.690  0.500  1.169995  61.414422  19.061110  9.488718
  11946.709  11946.710  0.500  1.174320  61.401959  18.974980  9.357282
  11947.771  11947.760  0.500  1.178730  61.392471  18.888565  9.243739
  11948.834  11948.820  0.500  1.182982  61.373560  18.802644  9.175586
  11949.915  11949.900  0.500  1.186944  61.355176  18.722686  9.154024
  11951.015  11951.000  0.500  1.190292  61.341300  18.655875  9.170739
  11952.135  11952.120  0.500  1.192789  61.324625  18.604286  9.206084
  11953.279  11953.260  0.500  1.194728  61.307174  18.562967  9.238936
  11954.442  11954.410  0.500  1.196143  61.295360  18.533159  9.252470
  11955.599  11955.590  0.500  1.197502  61.287229  18.505532  9.250893
  11956.781  11956.780  0.500  1.199453  61.262950  18.462145  9.237370
  11957.988  11958.000  0.500  1.201508  61.246776  18.419375  9.230141
  11959.227  11959.230  0.500  1.203895  61.233277  18.371421  9.221535
  11960.479  11960.480  0.500  1.206545  61.211029  18.316130  9.203725
  11961.761  11961.750  0.500  1.209251  61.182905  18.258250  9.169652
  11963.063  11963.040  0.500  1.211881  61.172409  18.207157  9.122785
  11964.359  11964.350  0.500  1.214429  61.148655  18.153784  9.062901
  11965.693  11965.680  0.500  1.217261  61.132086  18.097544  8.994400
  11967.039  11967.030  0.500  1.219744  61.111586  18.046607  8.927568
  11968.410  11968.400  0.500  1.222008  61.097811  18.001733  8.864483
  11969.788  11969.780  0.500  1.223698  61.067752  17.962500  8.815265
  11971.186  11971.190  0.500  1.224933  61.051045  17.935410  8.784512
  11972.621  11972.610  0.500  1.225191  61.028410  17.924145  8.779494
  11974.056  11974.050  0.500  1.224831  61.025815  17.929824  8.799936
  11975.529  11975.510  0.500  1.223469  60.992395  17.944431  8.829592
  11977.002  11976.990  0.500  1.221645  60.978200  17.973023  8.869540
  11978.495  11978.490  0.500  1.219008  60.948932  18.011827  8.910544
  11980.025  11980.010  0.500  1.215396  60.917492  18.067669  8.956632
  11981.537  11981.550  0.500  1.211528  60.897604  18.131782  9.004562
  11983.106  11983.110  0.500  1.207026  60.885220  18.209883  9.058760
  11984.675  11984.680  0.500  1.202123  60.854664  18.290210  9.108773
  11986.288  11986.280  0.500  1.197364  60.833169  18.370952  9.161197
  11987.896  11987.890  0.500  1.192733  60.810777  18.449436  9.217186
  11989.529  11989.530  0.500  1.188230  60.788013  18.525766  9.273993
  11991.181  11991.180  0.500  1.184203  60.766477  18.593937  9.329961
  11992.852  11992.850  0.500  1.180989  60.747031  18.647827  9.373490
  11994.555  11994.540  0.500  1.178420  60.712905  18.685291  9.397761
  11996.265  11996.250  0.500  1.176479  60.696441  18.716507  9.411872
  11997.995  11997.980  0.500  1.175190  60.670541  18.732656  9.414713
  11999.737  11999.730  0.500  1.174615  60.649873  18.737047  9.408742
  12001.486  12001.490  0.500  1.174609  60.628147  18.730447  9.390805
  12003.286  12003.280  0.500  1.174725  60.605319  18.721217  9.367019
  12005.092  12005.080  0.500  1.175287  60.592617  18.706784  9.338830
  12006.925  12006.910  0.500  1.175722  60.558205  18.688031  9.307816
  12008.745  12008.750  0.500  1.176414  60.538179  18.668916  9.285865
  12010.603  12010.610  0.500  1.177222  60.517888  18.647599  9.271463
  12012.494  12012.490  0.500  1.177843  60.487651  18.626700  9.262446
  12014.410  12014.390  0.500  1.178575  60.466935  18.606695  9.261208
  12016.333  12016.310  0.500  1.179271  60.436151  18.584287  9.262256
  12018.257  12018.250  0.500  1.180195  60.415020  18.560637  9.263397
  12020.207  12020.210  0.500  1.180980  60.392428  18.539124  9.262055
  12022.182  12022.180  0.500  1.182149  60.357816  18.506851  9.253322
  12024.202  12024.180  0.500  1.183286  60.334985  18.478845  9.244946
  12026.204  12026.190  0.500  1.184588  60.309334  18.446950  9.231642
  12028.213  12028.220  0.500  1.185762  60.285676  18.418079  9.217478
  12030.298  12030.280  0.500  1.186882  60.259299  18.389408  9.205321
  12032.365  12032.350  0.500  1.187388  60.229015  18.370875  9.197269
  12034.458  12034.440  0.500  1.187526  60.191001  18.356745  9.194441
  12036.564  12036.550  0.500  1.187100  60.168743  18.357771  9.203348
  12038.683  12038.680  0.500  1.185790  60.131758  18.370529  9.218615
  12040.823  12040.820  0.500  1.183933  60.109445  18.397852  9.244945
  12043.013  12042.990  0.500  1.181287  60.062757  18.432279  9.275534
  12045.192  12045.180  0.500  1.178322  59.998992  18.467374  9.304108
  12047.391  12047.380  0.500  1.175608  58.853847  18.164136  9.161179
  12049.609  12049.600  0.500  1.171785  59.032461  18.289047  9.232744
  12051.872  12051.850  0.500  1.169307  59.865959  18.593302  9.388908
  12054.130  12054.110  0.500  1.166674  59.885016  18.648242  9.415171
  12056.402  12056.390  0.500  1.164637  59.871142  18.681952  9.427552
  12058.699  12058.690  0.500  1.162865  59.849932  18.708445  9.434709
  12061.029  12061.010  0.500  1.161379  59.819859  18.726865  9.438037
  12063.367  12063.350  0.500  1.160241  59.783369  18.736746  9.437163
  12065.705  12065.700  0.500  1.159391  59.756016  18.744100  9.436415
  12068.089  12068.080  0.500  1.158633  59.727102  18.749240  9.435307
  12070.480  12070.470  0.500  1.157818  59.691049  18.753186  9.434803
  12072.916  12072.890  0.500  1.157299  59.842512  18.810537  9.462167
  12075.328  12075.320  0.500  1.156878  59.804533  18.806522  9.458712
  12077.773  12077.770  0.500  1.156436  59.772258  18.804681  9.459057
  12080.276  12080.250  0.500  1.156030  59.733775  18.800193  9.459364
  12082.773  12082.740  0.500  1.155805  59.696309  18.792632  9.458652
  12085.253  12085.250  0.500  1.155752  59.663598  18.783337  9.457015
  12087.797  12087.770  0.500  1.155817  59.631837  18.772109  9.452188
  12090.336  12090.320  0.500  1.156109  59.593553  18.754584  9.442876
  12092.914  12092.890  0.500  1.156429  59.388007  18.683926  9.406949
  12095.474  12095.470  0.500  1.156990  59.545915  18.723086  9.428077
  12098.099  12098.080  0.500  1.157507  59.507666  18.701396  9.420035
  12100.738  12100.700  0.500  1.157999  59.469559  18.680219  9.417653
  12103.365  12103.350  0.500  1.158362  59.435267  18.662677  9.424002
  12106.019  12106.010  0.500  1.158502  59.407706  18.651423  9.432256
  12108.700  12108.690  0.500  1.158610  59.371474  18.638027  9.439865
  12111.408  12111.390  0.500  1.158120  59.336417  18.636158  9.448248
  12114.123  12114.110  0.500  1.157440  59.310570  18.640700  9.457736
  12116.871  12116.850  0.500  1.156312  59.266814  18.647969  9.466501
  12119.614  12119.600  0.500  1.154961  59.231495  18.662056  9.477704
  12122.378  12122.380  0.500  1.153481  59.195359  18.678292  9.489322
  12125.187  12125.170  0.500  1.151711  59.147309  18.696199  9.500046
  12128.005  12127.990  0.500  1.149963  59.077307  18.706731  9.504707
  12130.836  12130.820  0.500  1.147999  59.011132  18.722516  9.512082
  12133.676  12133.670  0.500  1.146436  59.051112  18.764511  9.528719
  12136.574  12136.550  0.500  1.144814  59.009211  18.781631  9.533584
  12139.455  12139.440  0.500  1.143193  58.968160  18.799014  9.536865
  12142.350  12142.350  0.500  1.141566  58.928284  18.816897  9.536772
  12145.291  12145.270  0.500  1.140022  58.886736  18.832688  9.536586
  12148.227  12148.220  0.500  1.138772  58.850144  18.844520  9.538933
  12151.190  12151.190  0.500  1.137227  58.804576  18.859052  9.543277
  12154.181  12154.170  0.500  1.136033  58.766629  18.869386  9.551737
  12157.186  12157.180  0.500  1.134674  58.727644  18.882524  9.562652
