# XDI/1.0 BlueSky/1.10.0 BMM/2023-1.0-py310-tiled
# Beamline.name: BMM (06BM) -- Beamline for Materials Measurement (NIST)
# Beamline.xray_source: NSLS-II three-pole wiggler
# Beamline.collimation: paraboloid mirror, 5 nm Rh on 30 nm Pt
# Beamline.focusing: not in use
# Beamline.harmonic_rejection: flat mirror, Pt stripe, pitch = 7.0 mrad relative to beam
# Beamline.software: Bluesky 1.10.0, Ophyd 1.7.0, DataBroker 2.0.0b13, Python 3.10.8, 2023-1.0-py310-tiled
# Detector.I0: 10 cm N2
# Detector.I1: 25 cm N2
# Detector.I2: 25 cm N2
# Element.symbol: Au
# Element.edge: L1
# Element.reference: Au
# Element.reference_material: Au foil
# Facility.name: NSLS-II
# Facility.energy: 3.0
# Facility.current: 400.1
# Facility.mode: top-off
# Facility.GUP: 301027
# Facility.SAF: 310583
# Facility.cycle: 2023-2
# Mono.name: Si(111)
# Mono.d_spacing: 3.1351860
# Mono.encoder_resolution: 0.0000050 deg/ct
# Mono.angle_offset: 16.0754326 deg
# Mono.scan_mode: pseudo channel cut
# Mono.scan_type: step
# Mono.direction: forward in energy
# Sample.name: C4H3AuNa2O4S, gold thiomalate
# Sample.prep: powder in BN pellet
# Sample.x: 145.711 mm
# Sample.y: 114.376 mm
# Sample.SDD_position: 205.000 mm
# Scan.experimenters: Bruce Ravel
# Scan.edge_energy: 14352.8
# Scan.start_time: 2023-06-27T20:11:09
# Scan.end_time: 2023-06-27T20:19:05
# Scan.transient_id: 85288
# Scan.uid: c4ce8052-448e-47de-90bc-c956a638349c
# Scan.plot_hint: ln(I0/It)  --  ln($5/$6)
# Column.1: energy eV
# Column.2: requested_energy eV
# Column.3: measurement_time seconds
# Column.4: xmu 
# Column.5: I0 nA
# Column.6: It nA
# Column.7: Ir nA
# ///////////
# Welcome to BMM
# -----------
# energy  requested_energy  measurement_time  xmu  I0  It  Ir
  14152.730  14152.800  0.500  0.869474  34.521458  14.470424  8.179233
  14162.821  14162.800  0.500  0.866722  34.303024  14.418488  8.158646
  14172.848  14172.800  0.500  0.863605  34.551595  14.568310  8.249321
  14182.871  14182.800  0.500  0.860872  34.432515  14.557830  8.247648
  14192.882  14192.800  0.500  0.858297  34.357441  14.563549  8.258209
  14202.882  14202.800  0.500  0.855788  34.269528  14.562772  8.263640
  14212.877  14212.800  0.500  0.853329  34.201131  14.569493  8.274050
  14222.923  14222.800  0.500  0.851090  34.117624  14.566503  8.280306
  14232.850  14232.800  0.500  0.848653  34.042224  14.569774  8.289724
  14242.852  14242.800  0.500  0.846631  33.954012  14.561426  8.295342
  14252.870  14252.800  0.500  0.844782  33.875669  14.554720  8.303256
  14262.865  14262.800  0.500  0.842409  33.783867  14.549760  8.306440
  14272.884  14272.800  0.500  0.840172  31.963147  13.796449  7.882424
  14282.873  14282.800  0.500  0.837999  33.666592  14.563332  8.324594
  14292.867  14292.800  0.500  0.836014  33.601646  14.564119  8.332484
  14302.866  14302.800  0.500  0.834052  33.502412  14.549630  8.327827
  14312.914  14312.800  0.500  0.832443  33.463783  14.556251  8.335276
  14322.771  14322.800  0.500  0.831259  33.366156  14.530982  8.322632
  14324.726  14324.800  0.500  0.831413  33.370913  14.530812  8.324115
  14326.736  14326.800  0.500  0.831127  33.348749  14.525316  8.319277
  14328.755  14328.800  0.500  0.831299  33.350697  14.523662  8.319336
  14330.766  14330.800  0.500  0.831294  33.318369  14.509660  8.309283
  14332.750  14332.800  0.500  0.831455  33.297143  14.498081  8.303363
  14334.744  14334.800  0.500  0.831861  33.300134  14.493506  8.301513
  14336.747  14336.800  0.500  0.832363  33.282811  14.478699  8.288113
  14338.760  14338.800  0.500  0.833037  33.261745  14.459774  8.276905
  14340.737  14340.800  0.500  0.834106  33.252157  14.440173  8.263807
  14342.751  14342.800  0.500  0.835412  33.238338  14.415320  8.244334
  14343.012  14343.100  0.500  0.835639  33.220459  14.404303  8.236102
  14343.318  14343.400  0.500  0.835723  33.216025  14.401175  8.233814
  14343.632  14343.700  0.500  0.836032  33.207925  14.393208  8.228801
  14343.920  14344.000  0.500  0.836462  33.196484  14.382070  8.224449
  14344.253  14344.300  0.500  0.836873  33.193172  14.374725  8.218071
  14344.550  14344.600  0.500  0.836995  33.185476  14.369637  8.213058
  14344.856  14344.900  0.500  0.837322  33.190235  14.366998  8.210149
  14345.153  14345.200  0.500  0.837535  33.193741  14.365451  8.206996
  14345.449  14345.500  0.500  0.838254  33.192957  14.354788  8.202491
  14345.773  14345.800  0.500  0.838544  33.199920  14.353639  8.199749
  14346.088  14346.100  0.500  0.838880  33.202570  14.349962  8.195328
  14346.349  14346.400  0.500  0.839302  33.195012  14.340645  8.189475
  14346.664  14346.700  0.500  0.839960  33.199187  14.333006  8.183397
  14346.952  14347.000  0.500  0.840332  33.216318  14.335079  8.182612
  14347.258  14347.300  0.500  0.840989  33.196280  14.317021  8.172127
  14347.564  14347.600  0.500  0.841546  33.194119  14.308111  8.165582
  14347.852  14347.900  0.500  0.841964  33.190501  14.300573  8.159048
  14348.167  14348.200  0.500  0.842520  33.187591  14.291377  8.151114
  14348.455  14348.500  0.500  0.843098  33.175817  14.278052  8.142688
  14348.761  14348.800  0.500  0.843973  33.178311  14.266637  8.134204
  14349.076  14349.100  0.500  0.844483  33.179491  14.259858  8.127329
  14349.355  14349.400  0.500  0.845320  33.173263  14.245261  8.115864
  14349.661  14349.700  0.500  0.846083  33.172031  14.233866  8.107397
  14349.967  14350.000  0.500  0.846835  33.172089  14.223187  8.100366
  14350.264  14350.300  0.500  0.847841  33.173532  14.209501  8.089178
  14350.579  14350.600  0.500  0.848773  33.155472  14.188539  8.075348
  14350.867  14350.900  0.500  0.849825  33.157722  14.174585  8.063324
  14351.164  14351.200  0.500  0.850765  33.152207  14.158910  8.050677
  14351.479  14351.500  0.500  0.851937  33.152013  14.142246  8.038491
  14351.776  14351.800  0.500  0.853109  33.151901  14.125627  8.024013
  14352.082  14352.100  0.500  0.854412  33.146858  14.105100  8.008840
  14352.397  14352.400  0.500  0.855958  33.153104  14.085959  7.994080
  14352.668  14352.700  0.500  0.857170  33.146247  14.065992  7.978194
  14352.992  14353.000  0.500  0.858867  33.143524  14.040977  7.960341
  14353.280  14353.300  0.500  0.860334  33.127913  14.013801  7.939446
  14353.595  14353.600  0.500  0.862238  33.132192  13.988942  7.920058
  14353.910  14353.900  0.500  0.864392  33.130836  13.958275  7.898293
  14354.199  14354.200  0.500  0.866030  33.126647  13.933671  7.876873
  14354.496  14354.500  0.500  0.868379  33.131187  13.902883  7.855529
  14354.784  14354.800  0.500  0.870202  33.118478  13.872233  7.830692
  14355.099  14355.100  0.500  0.872836  33.119620  13.836221  7.805087
  14355.406  14355.400  0.500  0.875304  33.118016  13.801449  7.779541
  14355.712  14355.700  0.500  0.877834  33.108957  13.762803  7.751016
  14356.009  14356.000  0.500  0.880421  33.116176  13.730238  7.725480
  14356.298  14356.300  0.500  0.882916  33.098036  13.688529  7.693519
  14356.604  14356.600  0.500  0.886025  33.108786  13.650463  7.665983
  14356.892  14356.900  0.500  0.888528  33.099306  13.612443  7.637507
  14357.190  14357.200  0.500  0.891232  33.090724  13.572162  7.606112
  14357.487  14357.500  0.500  0.894138  33.086898  13.531213  7.577872
  14357.775  14357.800  0.500  0.896740  33.063029  13.486314  7.544149
  14358.091  14358.100  0.500  0.899646  33.054708  13.443799  7.513322
  14358.370  14358.400  0.500  0.902056  33.034571  13.403275  7.484311
  14358.676  14358.700  0.500  0.904881  33.020173  13.359637  7.453815
  14358.965  14359.000  0.500  0.907235  33.004746  13.321999  7.425477
  14359.289  14359.300  0.500  0.909909  32.993162  13.281760  7.395000
  14359.587  14359.600  0.500  0.912266  33.089356  13.289119  7.391718
  14359.884  14359.900  0.500  0.914268  33.091390  13.263360  7.369584
  14360.209  14360.200  0.500  0.916655  33.100422  13.235345  7.347733
  14360.479  14360.500  0.500  0.918532  33.115060  13.216367  7.330107
  14360.804  14360.800  0.500  0.920674  33.127635  13.193097  7.309703
  14361.110  14361.100  0.500  0.922597  33.135385  13.170831  7.289160
  14361.399  14361.400  0.500  0.924270  33.144392  13.152392  7.271398
  14361.705  14361.700  0.500  0.926036  33.153415  13.132760  7.254499
  14361.994  14362.000  0.500  0.927586  33.169907  13.118938  7.239522
  14362.318  14362.300  0.500  0.929433  33.156853  13.089585  7.215430
  14362.598  14362.600  0.500  0.930961  33.160073  13.070863  7.197591
  14362.896  14362.900  0.500  0.932438  33.156502  13.050172  7.178075
  14363.202  14363.200  0.500  0.934031  33.156932  13.029557  7.160938
  14363.500  14363.500  0.500  0.935456  33.149599  13.008130  7.142159
  14363.815  14363.800  0.500  0.936867  33.142973  12.987193  7.124192
  14364.095  14364.100  0.500  0.938237  33.157896  12.975256  7.111138
  14364.420  14364.400  0.500  0.939643  33.145511  12.952181  7.092953
  14364.681  14364.700  0.500  0.940719  33.146253  12.938540  7.078179
  14365.006  14365.000  0.500  0.941898  33.145028  12.922821  7.063156
  14365.277  14365.300  0.500  0.942850  33.126518  12.903312  7.046823
  14365.583  14365.600  0.500  0.943901  33.123595  12.888620  7.031933
  14365.890  14365.900  0.500  0.944811  33.121464  12.876066  7.019374
  14366.161  14366.200  0.500  0.945710  33.116363  12.862524  7.007611
  14366.504  14366.500  0.500  0.946613  33.105827  12.846826  6.993470
  14366.774  14366.800  0.500  0.947442  33.108328  12.837140  6.984338
  14367.108  14367.100  0.500  0.947971  33.086870  12.822041  6.972207
  14367.388  14367.400  0.500  0.948629  33.082448  12.811897  6.963985
  14367.686  14367.700  0.500  0.949158  33.059776  12.796342  6.950466
  14368.001  14368.000  0.500  0.949730  33.053427  12.786574  6.942474
  14368.281  14368.300  0.500  0.950060  33.045649  12.779336  6.937149
  14368.606  14368.600  0.500  0.950533  33.038348  12.770480  6.930277
  14368.904  14368.900  0.500  0.950664  33.042262  12.770318  6.928003
  14369.202  14369.200  0.500  0.951142  33.050213  12.767288  6.924574
  14369.518  14369.500  0.500  0.951049  33.054047  12.769954  6.923017
  14369.807  14369.800  0.500  0.951319  33.054165  12.766549  6.922475
  14370.113  14370.100  0.500  0.951659  33.071730  12.768991  6.924035
  14370.402  14370.400  0.500  0.951484  33.076055  12.772901  6.922958
  14370.718  14370.700  0.500  0.951762  33.072004  12.767783  6.921981
  14371.025  14371.000  0.500  0.951767  33.076647  12.769515  6.922918
  14371.305  14371.300  0.500  0.951822  33.073833  12.767722  6.922123
  14371.612  14371.600  0.500  0.952118  33.074499  12.764207  6.923278
  14371.910  14371.900  0.500  0.952124  33.072913  12.763519  6.922205
  14372.208  14372.200  0.500  0.952048  33.065918  12.761779  6.921701
  14372.524  14372.500  0.500  0.952344  33.070136  12.759639  6.923915
  14372.795  14372.800  0.500  0.952210  33.068779  12.760820  6.923939
  14373.084  14373.100  0.500  0.952319  33.064176  12.757648  6.924325
  14373.382  14373.400  0.500  0.952375  33.066255  12.757745  6.924639
  14373.689  14373.700  0.500  0.952538  33.057316  12.752219  6.924332
  14374.005  14374.000  0.500  0.952694  33.061207  12.751722  6.927250
  14374.276  14374.300  0.500  0.952683  33.048802  12.747086  6.926195
  14374.592  14374.600  0.500  0.952745  33.043111  12.744098  6.923976
  14374.872  14374.900  0.500  0.953045  33.043844  12.740558  6.924832
  14375.207  14375.200  0.500  0.952978  33.043021  12.741093  6.927346
  14375.505  14375.500  0.500  0.953220  33.021576  12.729742  6.923694
  14375.785  14375.800  0.500  0.953430  33.007204  12.721524  6.919576
  14376.092  14376.100  0.500  0.953573  32.996001  12.715393  6.919896
  14376.399  14376.400  0.500  0.953696  32.980095  12.707703  6.916362
  14376.697  14376.700  0.500  0.954045  32.970131  12.699433  6.915753
  14377.032  14377.000  0.500  0.954019  32.960760  12.696154  6.914879
  14377.312  14377.300  0.500  0.954159  32.955303  12.692275  6.915521
  14377.610  14377.600  0.500  0.954307  32.967931  12.695255  6.919680
  14377.800  14377.800  0.500  0.954171  32.961559  12.694528  6.917978
  14378.830  14378.790  0.500  0.954967  33.004409  12.700915  6.930792
  14379.815  14379.790  0.500  0.955392  33.004152  12.695415  6.932247
  14380.828  14380.810  0.500  0.955633  33.001818  12.691460  6.931607
  14381.885  14381.860  0.500  0.956087  32.989567  12.680997  6.927440
  14382.916  14382.920  0.500  0.956340  32.980363  12.674247  6.924138
  14384.011  14384.000  0.500  0.956559  32.960961  12.664025  6.914599
  14385.114  14385.100  0.500  0.956633  32.930853  12.651521  6.904229
  14386.245  14386.220  0.500  0.956586  32.897991  12.639483  6.892145
  14387.385  14387.360  0.500  0.956352  32.898121  12.642497  6.885042
  14388.525  14388.510  0.500  0.956250  32.916590  12.650884  6.883842
  14389.711  14389.690  0.500  0.956047  32.932905  12.659714  6.880409
  14390.897  14390.880  0.500  0.955396  32.922657  12.664022  6.876181
  14392.110  14392.100  0.500  0.954738  32.924798  12.673186  6.875249
  14393.342  14393.330  0.500  0.953896  32.921696  12.682668  6.877670
  14394.601  14394.580  0.500  0.952866  32.901707  12.688024  6.881702
  14395.869  14395.850  0.500  0.951991  32.888825  12.694156  6.889346
  14397.174  14397.140  0.500  0.950619  32.871839  12.705020  6.897140
  14398.470  14398.450  0.500  0.949561  32.866501  12.716402  6.912315
  14399.811  14399.780  0.500  0.948397  32.865850  12.730965  6.928023
  14401.116  14401.130  0.500  0.947232  32.840501  12.735968  6.936488
  14402.504  14402.500  0.500  0.946462  32.844540  12.747348  6.950851
  14403.900  14403.880  0.500  0.945778  32.827790  12.749569  6.956411
  14405.306  14405.290  0.500  0.945299  32.816836  12.751425  6.962962
  14406.740  14406.710  0.500  0.944718  32.802306  12.753178  6.962710
  14408.174  14408.150  0.500  0.944231  32.792497  12.755580  6.964760
  14409.599  14409.610  0.500  0.943981  32.772148  12.750850  6.961585
  14411.087  14411.090  0.500  0.943767  32.685441  12.719833  6.947684
  14412.595  14412.590  0.500  0.943546  32.609861  12.693226  6.931282
  14414.139  14414.110  0.500  0.943388  32.702953  12.731479  6.952421
  14415.665  14415.650  0.500  0.943473  32.726067  12.739395  6.955708
  14417.227  14417.210  0.500  0.943079  32.715568  12.740325  6.954318
  14418.772  14418.780  0.500  0.943090  32.709206  12.737701  6.951971
  14420.372  14420.380  0.500  0.943041  32.685250  12.729001  6.947807
  14421.981  14421.990  0.500  0.943092  32.601548  12.695753  6.927597
  14423.646  14423.630  0.500  0.942998  32.516521  12.663840  6.910631
  14425.301  14425.280  0.500  0.943005  32.650422  12.715895  6.936409
  14426.966  14426.950  0.500  0.943010  32.661876  12.720291  6.938421
  14428.650  14428.640  0.500  0.943235  32.655852  12.715085  6.934048
  14430.352  14430.350  0.500  0.943322  32.630468  12.704097  6.925958
  14432.082  14432.080  0.500  0.943544  32.575812  12.679999  6.914573
  14433.821  14433.830  0.500  0.943773  32.437650  12.623335  6.884693
  14435.588  14435.590  0.500  0.943828  32.564199  12.671883  6.914751
  14437.338  14437.380  0.500  0.943804  32.591381  12.682766  6.922570
  14439.188  14439.180  0.500  0.943713  32.586345  12.681958  6.927060
  14440.993  14441.010  0.500  0.943477  32.567458  12.677600  6.930065
  14442.862  14442.850  0.500  0.942854  32.544233  12.676453  6.934851
  14444.732  14444.710  0.500  0.941913  32.464529  12.657313  6.925691
  14446.602  14446.590  0.500  0.941108  32.390451  12.638605  6.919810
  14448.482  14448.490  0.500  0.939890  32.503389  12.698121  6.954941
  14450.371  14450.410  0.500  0.938648  32.507219  12.715399  6.965728
  14452.316  14452.350  0.500  0.937401  32.495263  12.726583  6.972309
  14454.270  14454.310  0.500  0.936448  32.474701  12.730660  6.976704
  14456.262  14456.280  0.500  0.935219  32.442221  12.733570  6.980263
  14458.336  14458.280  0.500  0.934021  32.428778  12.743554  6.985573
  14460.548  14460.290  0.500  0.933089  32.408203  12.747338  6.987699
  14462.231  14462.320  0.500  0.932118  32.394123  12.754184  6.992332
  14464.352  14464.380  0.500  0.931333  32.372520  12.755677  6.998111
  14466.466  14466.450  0.500  0.930518  32.356273  12.759682  7.001811
  14468.589  14468.540  0.500  0.929694  32.344381  12.765501  7.006029
  14470.648  14470.650  0.500  0.929022  32.335744  12.770672  7.011212
  14472.763  14472.780  0.500  0.928234  32.315693  12.772813  7.013986
  14474.925  14474.920  0.500  0.927640  32.305420  12.776337  7.017729
  14477.087  14477.090  0.500  0.927088  32.275789  12.771669  7.017293
  14479.296  14479.280  0.500  0.926223  32.266874  12.779187  7.019829
  14481.487  14481.480  0.500  0.925729  32.219431  12.766713  7.013099
  14483.724  14483.700  0.500  0.925316  32.220833  12.772533  7.017615
  14485.972  14485.950  0.500  0.924976  32.214814  12.774487  7.019321
  14488.202  14488.210  0.500  0.924380  32.204693  12.778096  7.020480
  14490.487  14490.490  0.500  0.924102  32.201053  12.780197  7.022211
  14492.792  14492.790  0.500  0.923886  32.174988  12.772614  7.019598
  14495.125  14495.110  0.500  0.923529  32.157025  12.770040  7.021654
  14497.458  14497.450  0.500  0.923312  32.142027  12.766850  7.020223
  14499.820  14499.800  0.500  0.923271  32.126076  12.761047  7.020618
  14502.202  14502.180  0.500  0.922857  32.111157  12.760395  7.020778
  14504.574  14504.570  0.500  0.922625  32.092354  12.755885  7.023082
  14506.966  14506.990  0.500  0.922270  32.083199  12.756776  7.023814
  14509.414  14509.420  0.500  0.922131  32.057527  12.748339  7.022513
  14511.863  14511.870  0.500  0.921641  32.041263  12.748119  7.024818
  14514.368  14514.350  0.500  0.921063  32.025480  12.749204  7.027306
  14516.837  14516.840  0.500  0.920336  31.969923  12.736347  7.022725
  14519.381  14519.350  0.500  0.919704  31.995974  12.754778  7.034459
  14521.879  14521.870  0.500  0.918873  31.979466  12.758802  7.039048
  14524.424  14524.420  0.500  0.918038  31.962173  12.762544  7.044210
  14526.989  14526.990  0.500  0.917387  31.950059  12.766022  7.049564
  14529.564  14529.570  0.500  0.916360  31.927555  12.770138  7.053442
  14532.204  14532.180  0.500  0.915494  31.900703  12.770455  7.056986
  14534.818  14534.800  0.500  0.914466  31.893524  12.780714  7.064387
  14537.451  14537.450  0.500  0.913518  31.859128  12.779038  7.064176
  14540.122  14540.110  0.500  0.912663  31.846565  12.784926  7.070515
  14542.775  14542.790  0.500  0.911868  31.828220  12.787722  7.072417
  14545.476  14545.490  0.500  0.910883  31.813144  12.794263  7.076451
  14548.224  14548.210  0.500  0.910030  31.792345  12.796810  7.077112
  14550.982  14550.950  0.500  0.909116  31.726241  12.781873  7.069692
  14553.714  14553.700  0.500  0.908354  31.754633  12.803060  7.082554
  14556.484  14556.480  0.500  0.907307  31.747674  12.813664  7.086987
  14559.282  14559.270  0.500  0.906612  31.708425  12.806729  7.085952
  14562.082  14562.090  0.500  0.905787  31.696996  12.812674  7.089357
  14564.901  14564.920  0.500  0.905001  31.677122  12.814715  7.092715
  14567.768  14567.770  0.500  0.904135  31.657656  12.817932  7.096093
  14570.664  14570.650  0.500  0.903522  31.738523  12.858557  7.120918
  14573.542  14573.540  0.500  0.902830  31.718962  12.859525  7.125161
  14576.412  14576.450  0.500  0.902201  31.699694  12.859799  7.129341
  14579.358  14579.370  0.500  0.901414  31.675652  12.860162  7.131172
  14582.333  14582.320  0.500  0.900953  31.648909  12.855223  7.133465
  14585.300  14585.290  0.500  0.900515  31.630468  12.853367  7.137626
  14588.267  14588.270  0.500  0.899766  31.604171  12.852298  7.139256
  14591.265  14591.280  0.500  0.899331  31.583612  12.849535  7.142197
  14594.282  14594.300  0.500  0.898652  31.570603  12.852960  7.146831
