# XDI/1.0 BlueSky/1.10.0 BMM/2023-1.0-py310-tiled
# Beamline.name: BMM (06BM) -- Beamline for Materials Measurement (NIST)
# Beamline.xray_source: NSLS-II three-pole wiggler
# Beamline.collimation: paraboloid mirror, 5 nm Rh on 30 nm Pt
# Beamline.focusing: not in use
# Beamline.harmonic_rejection: flat mirror, Pt stripe, pitch = 7.0 mrad relative to beam
# Beamline.software: Bluesky 1.10.0, Ophyd 1.7.0, DataBroker 2.0.0b13, Python 3.10.8, 2023-1.0-py310-tiled
# Detector.I0: 10 cm N2
# Detector.I1: 25 cm N2
# Detector.I2: 25 cm N2
# Element.symbol: Au
# Element.edge: L1
# Element.reference: Au
# Element.reference_material: Au foil
# Facility.name: NSLS-II
# Facility.energy: 3.0
# Facility.current: 399.9
# Facility.mode: top-off
# Facility.GUP: 301027
# Facility.SAF: 310583
# Facility.cycle: 2023-2
# Mono.name: Si(111)
# Mono.d_spacing: 3.1351860
# Mono.encoder_resolution: 0.0000050 deg/ct
# Mono.angle_offset: 16.0754326 deg
# Mono.scan_mode: pseudo channel cut
# Mono.scan_type: step
# Mono.direction: forward in energy
# Sample.name: Au2O3, Gold oxide
# Sample.prep: powder on tape
# Sample.x: 145.711 mm
# Sample.y: 114.376 mm
# Sample.SDD_position: 205.000 mm
# Scan.experimenters: Bruce Ravel
# Scan.edge_energy: 14352.8
# Scan.start_time: 2023-06-27T20:44:48
# Scan.end_time: 2023-06-27T20:52:37
# Scan.transient_id: 85308
# Scan.uid: d4ce6a27-e782-4207-bf33-a93cd29eed75
# Scan.plot_hint: ln(I0/It)  --  ln($5/$6)
# Column.1: energy eV
# Column.2: requested_energy eV
# Column.3: measurement_time seconds
# Column.4: xmu 
# Column.5: I0 nA
# Column.6: It nA
# Column.7: Ir nA
# ///////////
# sample courtesy Martin Stennett, University of Sheffield
# -----------
# energy  requested_energy  measurement_time  xmu  I0  It  Ir
  14152.564  14152.800  0.500  1.795380  34.298983  5.695840  3.217571
  14162.821  14162.800  0.500  1.791167  34.053869  5.679011  3.212427
  14172.848  14172.800  0.500  1.788939  34.318249  5.735862  3.246145
  14182.836  14182.800  0.500  1.786777  34.202632  5.728910  3.244695
  14192.847  14192.800  0.500  1.784373  34.116143  5.728180  3.245595
  14202.917  14202.800  0.500  1.781962  34.035198  5.728385  3.249514
  14212.851  14212.800  0.500  1.779000  33.968775  5.734164  3.254856
  14222.834  14222.800  0.500  1.775486  33.881788  5.739611  3.261466
  14232.894  14232.800  0.500  1.771547  33.803591  5.748964  3.270580
  14242.879  14242.800  0.500  1.767765  33.726046  5.757514  3.278528
  14252.932  14252.800  0.500  1.763915  33.654531  5.767466  3.287571
  14262.785  14262.800  0.500  1.760854  33.559381  5.768791  3.292085
  14272.786  14272.800  0.500  1.758540  31.681119  5.458535  3.117330
  14282.819  14282.800  0.500  1.755930  33.439103  5.776491  3.299942
  14292.795  14292.800  0.500  1.754457  33.378574  5.774531  3.301033
  14302.830  14302.800  0.500  1.752785  33.273148  5.765927  3.297804
  14312.825  14312.800  0.500  1.751940  33.234634  5.764121  3.299282
  14322.825  14322.800  0.500  1.751016  33.157867  5.756121  3.295996
  14324.771  14324.800  0.500  1.751080  33.149843  5.754359  3.294727
  14326.772  14326.800  0.500  1.751122  33.126804  5.750123  3.293029
  14328.764  14328.800  0.500  1.751060  33.113407  5.748150  3.290738
  14330.748  14330.800  0.500  1.751419  33.106203  5.744837  3.289426
  14332.741  14332.800  0.500  1.751913  33.076657  5.736874  3.282916
  14334.761  14334.800  0.500  1.752765  33.090018  5.734307  3.282942
  14336.783  14336.800  0.500  1.753527  33.065728  5.725729  3.277390
  14338.760  14338.800  0.500  1.754681  33.052395  5.716824  3.271240
  14340.782  14340.800  0.500  1.756258  33.032845  5.704440  3.262257
  14342.751  14342.800  0.500  1.758322  33.015636  5.689710  3.252581
  14343.030  14343.100  0.500  1.758853  32.999942  5.683986  3.249928
  14343.327  14343.400  0.500  1.759163  33.008739  5.683738  3.249145
  14343.623  14343.700  0.500  1.759440  33.010752  5.682510  3.247827
  14343.947  14344.000  0.500  1.760273  32.978288  5.672198  3.241064
  14344.253  14344.300  0.500  1.760536  32.978718  5.670776  3.239587
  14344.541  14344.600  0.500  1.761417  32.976250  5.665363  3.237377
  14344.847  14344.900  0.500  1.761752  32.970446  5.662467  3.234964
  14345.144  14345.200  0.500  1.762190  32.985516  5.662577  3.233965
  14345.467  14345.500  0.500  1.762869  32.965389  5.655280  3.229500
  14345.755  14345.800  0.500  1.763646  32.977855  5.653022  3.227143
  14346.070  14346.100  0.500  1.764232  32.981125  5.650269  3.225165
  14346.376  14346.400  0.500  1.764920  32.980837  5.646335  3.223213
  14346.655  14346.700  0.500  1.765838  32.976444  5.640405  3.217970
  14346.970  14347.000  0.500  1.766403  32.988731  5.639317  3.218315
  14347.276  14347.300  0.500  1.767446  32.971432  5.630482  3.212652
  14347.564  14347.600  0.500  1.768230  32.970414  5.625897  3.209358
  14347.879  14347.900  0.500  1.769089  32.990357  5.624465  3.208070
  14348.167  14348.200  0.500  1.770167  32.969254  5.614815  3.201392
  14348.446  14348.500  0.500  1.771053  32.975923  5.610974  3.198661
  14348.770  14348.800  0.500  1.772323  32.964131  5.601849  3.193132
  14349.058  14349.100  0.500  1.773420  32.968562  5.596461  3.189148
  14349.355  14349.400  0.500  1.774581  32.959038  5.588355  3.182269
  14349.679  14349.700  0.500  1.776023  32.962627  5.580908  3.177619
  14349.958  14350.000  0.500  1.776998  32.959174  5.574885  3.172548
  14350.255  14350.300  0.500  1.778567  32.950197  5.564630  3.166056
  14350.570  14350.600  0.500  1.780020  32.953608  5.557126  3.160777
  14350.858  14350.900  0.500  1.781507  32.940993  5.546742  3.153244
  14351.182  14351.200  0.500  1.783331  32.937324  5.536017  3.146046
  14351.461  14351.500  0.500  1.785000  32.951564  5.529174  3.141271
  14351.776  14351.800  0.500  1.786996  32.945654  5.517158  3.132811
  14352.100  14352.100  0.500  1.788894  32.928778  5.503877  3.123597
  14352.370  14352.400  0.500  1.791090  32.931553  5.492268  3.116073
  14352.704  14352.700  0.500  1.793436  32.924603  5.478240  3.105009
  14352.983  14353.000  0.500  1.795647  32.929638  5.466980  3.097323
  14353.289  14353.300  0.500  1.798378  32.914049  5.449487  3.085469
  14353.595  14353.600  0.500  1.800999  32.916476  5.435626  3.075796
  14353.883  14353.900  0.500  1.803862  32.917662  5.420279  3.065416
  14354.199  14354.200  0.500  1.806708  32.913128  5.404133  3.054040
  14354.469  14354.500  0.500  1.809810  32.912839  5.387345  3.043143
  14354.802  14354.800  0.500  1.813422  33.033107  5.387536  3.040695
  14355.099  14355.100  0.500  1.816346  33.020831  5.369810  3.027454
  14355.397  14355.400  0.500  1.819941  33.007065  5.348311  3.012454
  14355.694  14355.700  0.500  1.823476  33.007307  5.329479  3.000500
  14355.982  14356.000  0.500  1.827162  32.999298  5.308578  2.985332
  14356.289  14356.300  0.500  1.831188  32.992358  5.286139  2.970226
  14356.577  14356.600  0.500  1.834453  32.991147  5.268713  2.957520
  14356.910  14356.900  0.500  1.838743  32.979972  5.244383  2.940864
  14357.181  14357.200  0.500  1.842458  32.978839  5.224757  2.926601
  14357.496  14357.500  0.500  1.846505  32.972513  5.202657  2.911501
  14357.784  14357.800  0.500  1.850251  32.963965  5.181860  2.897070
  14358.073  14358.100  0.500  1.854162  32.945687  5.158773  2.881552
  14358.379  14358.400  0.500  1.858310  32.925518  5.134270  2.866469
  14358.685  14358.700  0.500  1.862206  32.912158  5.112231  2.849902
  14359.010  14359.000  0.500  1.866548  32.889760  5.086620  2.833104
  14359.289  14359.300  0.500  1.870142  32.881520  5.067103  2.818089
  14359.614  14359.600  0.500  1.874113  32.887935  5.048002  2.806065
  14359.884  14359.900  0.500  1.878102  32.873035  5.025630  2.790887
  14360.209  14360.200  0.500  1.882702  32.894765  5.005872  2.777401
  14360.506  14360.500  0.500  1.886463  32.904873  4.988610  2.764868
  14360.804  14360.800  0.500  1.890739  32.918511  4.969384  2.752682
  14361.110  14361.100  0.500  1.894895  32.926559  4.949985  2.738513
  14361.399  14361.400  0.500  1.898750  32.944603  4.933640  2.727079
  14361.705  14361.700  0.500  1.902896  32.951999  4.914332  2.713703
  14362.003  14362.000  0.500  1.907148  32.936502  4.891180  2.698121
  14362.318  14362.300  0.500  1.911179  32.945838  4.872882  2.685241
  14362.598  14362.600  0.500  1.915186  32.937684  4.852197  2.671120
  14362.923  14362.900  0.500  1.919617  32.934393  4.830261  2.655770
  14363.202  14363.200  0.500  1.923658  32.932258  4.810470  2.643464
  14363.500  14363.500  0.500  1.927380  32.933845  4.792827  2.630602
  14363.788  14363.800  0.500  1.931203  32.936029  4.774856  2.617101
  14364.095  14364.100  0.500  1.935096  32.932344  4.755773  2.604252
  14364.393  14364.400  0.500  1.939132  32.927624  4.735937  2.591295
  14364.681  14364.700  0.500  1.942757  32.919561  4.717648  2.579121
  14364.979  14365.000  0.500  1.946459  32.915916  4.699695  2.566924
  14365.277  14365.300  0.500  1.949650  32.921743  4.685549  2.557266
  14365.583  14365.600  0.500  1.953356  32.915934  4.667393  2.545116
  14365.881  14365.900  0.500  1.956470  32.905218  4.651366  2.534730
  14366.188  14366.200  0.500  1.959671  32.916678  4.638119  2.525898
  14366.486  14366.500  0.500  1.962229  32.889876  4.622500  2.514498
  14366.792  14366.800  0.500  1.964821  32.884764  4.609817  2.507127
  14367.099  14367.100  0.500  1.967341  32.871144  4.596311  2.497612
  14367.388  14367.400  0.500  1.969501  32.864086  4.585409  2.490671
  14367.722  14367.700  0.500  1.971766  32.843399  4.572154  2.481725
  14367.992  14368.000  0.500  1.973425  32.835637  4.563496  2.477394
  14368.308  14368.300  0.500  1.974933  32.821980  4.554724  2.471215
  14368.606  14368.600  0.500  1.976096  32.824956  4.549844  2.467348
  14368.913  14368.900  0.500  1.977178  32.826236  4.545100  2.463879
  14369.211  14369.200  0.500  1.978096  32.833643  4.541955  2.461858
  14369.500  14369.500  0.500  1.978634  32.854024  4.542329  2.461999
  14369.825  14369.800  0.500  1.979373  32.865445  4.540555  2.460630
  14370.113  14370.100  0.500  1.979869  32.853989  4.536717  2.458127
  14370.411  14370.400  0.500  1.979978  32.859535  4.536993  2.457912
  14370.700  14370.700  0.500  1.980090  32.871980  4.538200  2.459764
  14370.998  14371.000  0.500  1.980165  32.869548  4.537523  2.458903
  14371.314  14371.300  0.500  1.979765  32.857980  4.537743  2.458825
  14371.594  14371.600  0.500  1.979467  32.856166  4.538843  2.460688
  14371.883  14371.900  0.500  1.979226  32.852967  4.539497  2.460709
  14372.181  14372.200  0.500  1.978880  32.851079  4.540806  2.462498
  14372.479  14372.500  0.500  1.978103  32.842915  4.543206  2.464004
  14372.795  14372.800  0.500  1.977654  32.847121  4.545831  2.465520
  14373.075  14373.100  0.500  1.976761  32.855702  4.551080  2.468834
  14373.382  14373.400  0.500  1.975958  32.843322  4.553019  2.469522
  14373.671  14373.700  0.500  1.975235  32.833742  4.554983  2.472693
  14373.996  14374.000  0.500  1.973956  32.834636  4.560937  2.475633
  14374.285  14374.300  0.500  1.973065  32.827034  4.563947  2.477792
  14374.583  14374.600  0.500  1.972423  32.833668  4.567800  2.480627
  14374.908  14374.900  0.500  1.971160  32.819170  4.571551  2.483638
  14375.188  14375.200  0.500  1.970300  32.814232  4.574796  2.486492
  14375.523  14375.500  0.500  1.968831  32.802810  4.579929  2.489667
  14375.803  14375.800  0.500  1.967901  32.791538  4.582614  2.491851
  14376.101  14376.100  0.500  1.966716  32.773637  4.585543  2.494056
  14376.408  14376.400  0.500  1.965280  32.767584  4.591284  2.496805
  14376.697  14376.700  0.500  1.964384  32.767399  4.595374  2.501586
  14377.022  14377.000  0.500  1.963298  32.735905  4.595946  2.502570
  14377.312  14377.300  0.500  1.962120  32.744698  4.602600  2.506819
  14377.610  14377.600  0.500  1.961061  32.747409  4.607855  2.511383
  14377.800  14377.800  0.500  1.959997  32.755347  4.613879  2.513658
  14378.830  14378.790  0.500  1.956951  32.771049  4.630172  2.525078
  14379.797  14379.790  0.500  1.954354  32.782746  4.643872  2.533936
  14380.800  14380.810  0.500  1.952571  32.791396  4.653387  2.540648
  14381.876  14381.860  0.500  1.951689  32.774428  4.655084  2.540722
  14382.934  14382.920  0.500  1.952479  32.763666  4.649878  2.539309
  14384.029  14384.000  0.500  1.954176  32.756307  4.640951  2.533348
  14385.123  14385.100  0.500  1.956384  32.725104  4.626307  2.523202
  14386.263  14386.220  0.500  1.960047  32.673985  4.602188  2.507450
  14387.394  14387.360  0.500  1.964119  32.691179  4.585899  2.495801
  14388.525  14388.510  0.500  1.968304  32.710976  4.569512  2.484626
  14389.693  14389.690  0.500  1.972361  32.719158  4.552149  2.472664
  14390.888  14390.880  0.500  1.975976  32.713769  4.534977  2.460945
  14392.128  14392.100  0.500  1.978503  32.699883  4.521610  2.452220
  14393.351  14393.330  0.500  1.979729  32.713057  4.517893  2.449314
  14394.610  14394.580  0.500  1.979557  32.685819  4.514906  2.447882
  14395.878  14395.850  0.500  1.977563  32.673057  4.522151  2.452555
  14397.156  14397.140  0.500  1.974952  32.661840  4.532416  2.459184
  14398.451  14398.450  0.500  1.971297  32.654828  4.548036  2.470973
  14399.793  14399.780  0.500  1.966692  32.658176  4.569495  2.484537
  14401.153  14401.130  0.500  1.962642  32.645487  4.586259  2.498102
  14402.540  14402.500  0.500  1.958961  32.626779  4.600533  2.506231
  14403.900  14403.880  0.500  1.956483  32.603296  4.608627  2.513413
  14405.324  14405.290  0.500  1.954755  32.595854  4.615547  2.517717
  14406.713  14406.710  0.500  1.953971  32.592569  4.618702  2.520037
  14408.164  14408.150  0.500  1.953643  32.580700  4.618533  2.520497
  14409.599  14409.610  0.500  1.953622  32.561578  4.615919  2.518827
  14411.078  14411.090  0.500  1.953551  32.467242  4.602871  2.511377
  14412.613  14412.590  0.500  1.954461  32.408295  4.590336  2.506170
  14414.139  14414.110  0.500  1.954284  32.498880  4.603980  2.512360
  14415.665  14415.650  0.500  1.954913  32.523748  4.604607  2.512325
  14417.227  14417.210  0.500  1.955505  32.513609  4.600448  2.510178
  14418.800  14418.780  0.500  1.955852  32.518966  4.599609  2.508393
  14420.381  14420.380  0.500  1.956676  32.476880  4.589872  2.503433
  14422.000  14421.990  0.500  1.957145  32.384156  4.574624  2.495166
  14423.637  14423.630  0.500  1.957957  32.315686  4.561247  2.486902
  14425.283  14425.280  0.500  1.958918  32.443013  4.574819  2.494355
  14426.957  14426.950  0.500  1.959759  32.450806  4.572070  2.491857
  14428.650  14428.640  0.500  1.960649  32.440844  4.566603  2.488638
  14430.379  14430.350  0.500  1.961007  32.422917  4.562442  2.485638
  14432.091  14432.080  0.500  1.960947  32.359305  4.553768  2.481689
  14433.848  14433.830  0.500  1.960097  32.220985  4.538158  2.472868
  14435.607  14435.590  0.500  1.958988  32.361378  4.562990  2.488105
  14437.374  14437.380  0.500  1.956832  32.393831  4.577420  2.496841
  14439.170  14439.180  0.500  1.954506  32.371544  4.584927  2.503044
  14441.020  14441.010  0.500  1.952087  32.358439  4.594168  2.509602
  14442.871  14442.850  0.500  1.949699  32.339345  4.602436  2.515755
  14444.723  14444.710  0.500  1.947611  32.254793  4.599999  2.516081
  14446.602  14446.590  0.500  1.946272  32.192958  4.597328  2.516028
  14448.482  14448.490  0.500  1.944730  32.313644  4.621688  2.530064
  14450.426  14450.410  0.500  1.944133  32.282771  4.620027  2.530563
  14452.353  14452.350  0.500  1.943089  32.278943  4.624303  2.532391
  14454.334  14454.310  0.500  1.942907  32.260898  4.622561  2.532667
  14456.280  14456.280  0.500  1.942385  32.258972  4.624699  2.533351
  14458.272  14458.280  0.500  1.941985  32.246001  4.624689  2.533440
  14460.283  14460.290  0.500  1.941380  32.206400  4.621804  2.532512
  14462.350  14462.320  0.500  1.940264  32.206458  4.626972  2.535061
  14464.416  14464.380  0.500  1.939780  32.189049  4.626712  2.537787
  14466.438  14466.450  0.500  1.938431  32.175786  4.631047  2.540536
  14468.552  14468.540  0.500  1.937208  32.156832  4.633983  2.542066
  14470.667  14470.650  0.500  1.936166  32.142094  4.636688  2.544052
  14472.782  14472.780  0.500  1.935345  32.125713  4.638131  2.546007
  14474.943  14474.920  0.500  1.934612  32.114232  4.639876  2.546672
  14477.060  14477.090  0.500  1.934345  32.106604  4.640012  2.547614
  14479.287  14479.280  0.500  1.934058  32.079855  4.637476  2.546380
  14481.496  14481.480  0.500  1.934045  32.017695  4.628548  2.541540
  14483.688  14483.700  0.500  1.933944  32.029662  4.630750  2.543165
  14485.953  14485.950  0.500  1.934207  32.029505  4.629505  2.542860
  14488.137  14488.210  0.500  1.934061  32.017439  4.628439  2.542393
  14490.460  14490.490  0.500  1.933497  31.994447  4.627724  2.541739
  14492.746  14492.790  0.500  1.932880  31.985384  4.629268  2.543189
  14495.060  14495.110  0.500  1.932012  31.974619  4.631731  2.544435
  14497.403  14497.450  0.500  1.930907  31.951987  4.633571  2.546868
  14499.774  14499.800  0.500  1.929866  31.937493  4.636293  2.548744
  14502.156  14502.180  0.500  1.928759  31.919448  4.638802  2.551654
  14504.768  14504.570  0.500  1.927180  31.887178  4.641436  2.552659
  14506.911  14506.990  0.500  1.925942  31.882899  4.646565  2.557010
  14509.460  14509.420  0.500  1.924669  31.864945  4.649863  2.559798
  14511.974  14511.870  0.500  1.923246  31.843942  4.653413  2.562623
  14514.387  14514.350  0.500  1.922331  31.816249  4.653624  2.565098
  14516.865  14516.840  0.500  1.920993  31.775224  4.653847  2.564921
  14519.353  14519.350  0.500  1.920183  31.794837  4.660490  2.569613
  14521.916  14521.870  0.500  1.919165  31.771222  4.661774  2.570914
  14524.433  14524.420  0.500  1.918048  31.755669  4.664699  2.573425
  14526.998  14526.990  0.500  1.916954  31.735572  4.666848  2.575614
  14529.582  14529.570  0.500  1.915425  31.721270  4.671885  2.579903
  14532.186  14532.180  0.500  1.913840  31.708588  4.677423  2.583334
  14534.836  14534.800  0.500  1.912711  31.807547  4.697323  2.594355
  14537.488  14537.450  0.500  1.911604  31.775721  4.697819  2.595483
  14540.150  14540.110  0.500  1.911358  31.761010  4.696799  2.595518
  14542.831  14542.790  0.500  1.911161  31.746911  4.695639  2.594021
  14545.467  14545.490  0.500  1.911167  31.725377  4.692428  2.593625
  14548.196  14548.210  0.500  1.911442  31.697245  4.686976  2.590930
  14550.973  14550.950  0.500  1.911518  31.653671  4.680180  2.588466
  14553.723  14553.700  0.500  1.911258  31.664875  4.683052  2.588786
  14556.502  14556.480  0.500  1.910768  31.647814  4.682825  2.588327
  14559.291  14559.270  0.500  1.910539  31.624284  4.680415  2.588488
  14562.119  14562.090  0.500  1.909233  31.602471  4.683298  2.589811
  14564.920  14564.920  0.500  1.909029  31.587719  4.682066  2.590273
  14567.759  14567.770  0.500  1.908040  31.568820  4.683894  2.591859
  14570.673  14570.650  0.500  1.906305  31.558967  4.690566  2.596015
  14573.570  14573.540  0.500  1.905262  31.531122  4.691313  2.598256
  14576.468  14576.450  0.500  1.903327  31.512752  4.697663  2.602425
  14579.367  14579.370  0.500  1.901369  31.486999  4.703023  2.606628
  14582.314  14582.320  0.500  1.899659  31.471383  4.708737  2.611889
  14585.300  14585.290  0.500  1.897594  31.442242  4.714100  2.616853
  14588.295  14588.270  0.500  1.895604  31.422722  4.720560  2.621338
  14591.311  14591.280  0.500  1.893663  31.398210  4.726040  2.625332
  14594.319  14594.300  0.500  1.892032  31.379823  4.730986  2.629200
  14597.356  14597.350  0.500  1.890289  31.360784  4.736362  2.633307
  14600.403  14600.410  0.500  1.889195  31.343820  4.738981  2.636243
  14603.489  14603.490  0.500  1.887837  31.322452  4.742186  2.637845
  14606.595  14606.590  0.500  1.887384  31.294834  4.740153  2.638479
