# XDI/1.0 BlueSky/1.10.0 BMM/2023-1.0-py310-tiled
# Beamline.name: BMM (06BM) -- Beamline for Materials Measurement (NIST)
# Beamline.xray_source: NSLS-II three-pole wiggler
# Beamline.collimation: paraboloid mirror, 5 nm Rh on 30 nm Pt
# Beamline.focusing: not in use
# Beamline.harmonic_rejection: flat mirror, Pt stripe, pitch = 7.0 mrad relative to beam
# Beamline.software: Bluesky 1.10.0, Ophyd 1.7.0, DataBroker 2.0.0b13, Python 3.10.8, 2023-1.0-py310-tiled
# Detector.I0: 10 cm N2
# Detector.I1: 25 cm N2
# Detector.I2: 25 cm N2
# Element.symbol: Au
# Element.edge: L1
# Element.reference: Au
# Element.reference_material: Au foil
# Facility.name: NSLS-II
# Facility.energy: 3.0
# Facility.current: 400.0
# Facility.mode: top-off
# Facility.GUP: 301027
# Facility.SAF: 310583
# Facility.cycle: 2023-2
# Mono.name: Si(111)
# Mono.d_spacing: 3.1351860
# Mono.encoder_resolution: 0.0000050 deg/ct
# Mono.angle_offset: 16.0754326 deg
# Mono.scan_mode: pseudo channel cut
# Mono.scan_type: step
# Mono.direction: forward in energy
# Sample.name: Au2S
# Sample.prep: powder on tape
# Sample.x: 145.711 mm
# Sample.y: 114.376 mm
# Sample.SDD_position: 205.000 mm
# Scan.experimenters: Bruce Ravel
# Scan.edge_energy: 14352.8
# Scan.start_time: 2023-06-27T19:54:41
# Scan.end_time: 2023-06-27T20:02:03
# Scan.transient_id: 85278
# Scan.uid: c473002f-bf3f-4d91-9b39-b417a42211b0
# Scan.plot_hint: ln(I0/It)  --  ln($5/$6)
# Column.1: energy eV
# Column.2: requested_energy eV
# Column.3: measurement_time seconds
# Column.4: xmu 
# Column.5: I0 nA
# Column.6: It nA
# Column.7: Ir nA
# ///////////
# Welcome to BMM
# -----------
# energy  requested_energy  measurement_time  xmu  I0  It  Ir
  14152.730  14152.800  0.500  0.815223  34.502315  15.268677  8.631737
  14162.795  14162.800  0.500  0.812363  34.249126  15.200042  8.602802
  14172.786  14172.800  0.500  0.809754  34.496292  15.349728  8.695350
  14182.845  14182.800  0.500  0.806744  34.389779  15.348470  8.698980
  14192.838  14192.800  0.500  0.804195  34.294868  15.345175  8.703987
  14202.837  14202.800  0.500  0.801603  34.219136  15.351019  8.713761
  14212.842  14212.800  0.500  0.799079  34.135653  15.352270  8.721966
  14222.825  14222.800  0.500  0.796698  34.064725  15.356898  8.734094
  14232.779  14232.800  0.500  0.794586  33.990338  15.355762  8.742396
  14242.790  14242.800  0.500  0.792226  33.909210  15.355300  8.752024
  14252.728  14252.800  0.500  0.790074  33.820973  15.348339  8.758015
  14262.848  14262.800  0.500  0.787864  33.872900  15.405912  8.799219
  14272.831  14272.800  0.500  0.784738  31.922587  14.564339  8.325385
  14282.828  14282.800  0.500  0.783498  33.782818  15.432163  8.825359
  14292.840  14292.800  0.500  0.781492  33.708805  15.429275  8.828487
  14302.821  14302.800  0.500  0.779338  33.594896  15.410296  8.822748
  14312.825  14312.800  0.500  0.777685  33.555690  15.417784  8.830972
  14322.825  14322.800  0.500  0.776628  33.481003  15.399736  8.823038
  14324.726  14324.800  0.500  0.776428  33.471294  15.398348  8.822210
  14326.745  14326.800  0.500  0.776413  33.445964  15.386918  8.815880
  14328.737  14328.800  0.500  0.776374  33.434296  15.382151  8.812931
  14330.730  14330.800  0.500  0.776623  33.420899  15.372160  8.808407
  14332.732  14332.800  0.500  0.776784  33.394052  15.357339  8.798158
  14334.744  14334.800  0.500  0.777339  33.397126  15.350238  8.793624
  14336.756  14336.800  0.500  0.777651  33.383308  15.339096  8.785332
  14338.751  14338.800  0.500  0.778251  33.363148  15.320633  8.773419
  14340.746  14340.800  0.500  0.779162  33.343932  15.297867  8.756894
  14342.715  14342.800  0.500  0.780377  33.315286  15.266171  8.734137
  14343.012  14343.100  0.500  0.780726  33.320440  15.263198  8.731985
  14343.309  14343.400  0.500  0.780887  33.317051  15.259200  8.728314
  14343.623  14343.700  0.500  0.781094  33.300530  15.248472  8.722505
  14343.920  14344.000  0.500  0.781469  33.296786  15.241047  8.717261
  14344.217  14344.300  0.500  0.781602  33.304190  15.242406  8.715511
  14344.541  14344.600  0.500  0.781986  33.291165  15.230591  8.708999
  14344.847  14344.900  0.500  0.782282  33.289057  15.225123  8.704613
  14345.153  14345.200  0.500  0.782696  33.287654  15.218171  8.700345
  14345.449  14345.500  0.500  0.783088  33.285598  15.211279  8.693251
  14345.737  14345.800  0.500  0.783434  33.286550  15.206438  8.688393
  14346.052  14346.100  0.500  0.783843  33.290135  15.201864  8.685576
  14346.349  14346.400  0.500  0.784304  33.291721  15.195586  8.681477
  14346.646  14346.700  0.500  0.784686  33.293663  15.190657  8.674962
  14346.934  14347.000  0.500  0.785178  33.297698  15.185035  8.672599
  14347.258  14347.300  0.500  0.785798  33.300599  15.176950  8.666235
  14347.573  14347.600  0.500  0.786184  33.292109  15.167224  8.658789
  14347.879  14347.900  0.500  0.786845  33.289145  15.155840  8.648957
  14348.176  14348.200  0.500  0.787495  33.286729  15.144902  8.642209
  14348.473  14348.500  0.500  0.787890  33.289695  15.140265  8.635830
  14348.779  14348.800  0.500  0.788655  33.280218  15.124386  8.625643
  14349.076  14349.100  0.500  0.789258  33.277471  15.114011  8.615627
  14349.382  14349.400  0.500  0.790086  33.282182  15.103648  8.607698
  14349.670  14349.700  0.500  0.790802  33.266917  15.085910  8.596934
  14349.976  14350.000  0.500  0.791678  33.273899  15.075874  8.589764
  14350.291  14350.300  0.500  0.792470  33.269528  15.061960  8.577531
  14350.588  14350.600  0.500  0.793356  33.256574  15.042757  8.562385
  14350.885  14350.900  0.500  0.794238  33.261283  15.031624  8.553180
  14351.173  14351.200  0.500  0.795461  33.259174  15.012295  8.539385
  14351.479  14351.500  0.500  0.796418  33.242596  14.990456  8.524544
  14351.794  14351.800  0.500  0.797635  33.247785  14.974568  8.510505
  14352.091  14352.100  0.500  0.798768  33.256592  14.961572  8.498735
  14352.379  14352.400  0.500  0.800022  33.247735  14.938846  8.481368
  14352.677  14352.700  0.500  0.801553  33.239793  14.912427  8.462702
  14352.983  14353.000  0.500  0.802943  33.233185  14.888745  8.443606
  14353.298  14353.300  0.500  0.804807  33.234277  14.861518  8.424302
  14353.595  14353.600  0.500  0.806311  33.228437  14.836573  8.403787
  14353.883  14353.900  0.500  0.807811  33.229194  14.814676  8.384427
  14354.181  14354.200  0.500  0.809974  33.210898  14.774524  8.358562
  14354.478  14354.500  0.500  0.811854  33.208764  14.745818  8.335480
  14354.784  14354.800  0.500  0.813958  33.219559  14.719607  8.313281
  14355.072  14355.100  0.500  0.816223  33.216698  14.685045  8.288970
  14355.388  14355.400  0.500  0.818421  33.223275  14.655699  8.265326
  14355.703  14355.700  0.500  0.820963  33.225650  14.619547  8.236201
  14355.982  14356.000  0.500  0.823468  33.211599  14.576794  8.206431
  14356.271  14356.300  0.500  0.825918  33.202005  14.536928  8.174616
  14356.568  14356.600  0.500  0.828701  33.198923  14.495188  8.143168
  14356.883  14356.900  0.500  0.831428  33.201150  14.456681  8.114266
  14357.172  14357.200  0.500  0.834086  33.187818  14.412517  8.085428
  14357.469  14357.500  0.500  0.836729  33.188672  14.374841  8.053963
  14357.766  14357.800  0.500  0.839627  33.173616  14.326736  8.020655
  14358.091  14358.100  0.500  0.842555  33.152506  14.275771  7.982330
  14358.370  14358.400  0.500  0.845277  33.135869  14.229816  7.949193
  14358.676  14358.700  0.500  0.847645  33.117788  14.188409  7.919035
  14358.992  14359.000  0.500  0.850328  33.098277  14.142056  7.885294
  14359.289  14359.300  0.500  0.853033  33.093153  14.101674  7.856876
  14359.587  14359.600  0.500  0.855323  33.067654  14.058578  7.822451
  14359.875  14359.900  0.500  0.857615  33.073858  14.029025  7.798830
  14360.191  14360.200  0.500  0.859964  33.171829  14.037567  7.798974
  14360.497  14360.500  0.500  0.862191  33.212741  14.023608  7.780557
  14360.795  14360.800  0.500  0.864342  33.231628  14.001443  7.762256
  14361.083  14361.100  0.500  0.866418  33.236104  13.974278  7.738451
  14361.390  14361.400  0.500  0.868608  33.245383  13.947606  7.715831
  14361.705  14361.700  0.500  0.870557  33.251225  13.922897  7.694877
  14362.003  14362.000  0.500  0.872421  33.254512  13.898347  7.673503
  14362.291  14362.300  0.500  0.874249  33.255826  13.873510  7.653591
  14362.598  14362.600  0.500  0.876043  33.257422  13.849308  7.632344
  14362.905  14362.900  0.500  0.877792  33.249705  13.821900  7.609370
  14363.202  14363.200  0.500  0.879654  33.243514  13.793616  7.587056
  14363.500  14363.500  0.500  0.881115  33.242150  13.772912  7.565920
  14363.815  14363.800  0.500  0.882705  33.245936  13.752588  7.547694
  14364.104  14364.100  0.500  0.884151  33.240411  13.730439  7.528418
  14364.402  14364.400  0.500  0.885643  33.246843  13.712623  7.514186
  14364.690  14364.700  0.500  0.886819  33.234545  13.691435  7.494697
  14364.997  14365.000  0.500  0.887944  33.233636  13.675670  7.477176
  14365.322  14365.300  0.500  0.889172  33.226846  13.656094  7.459008
  14365.601  14365.600  0.500  0.890272  33.222392  13.639254  7.445110
  14365.899  14365.900  0.500  0.891240  33.222224  13.625997  7.431731
  14366.197  14366.200  0.500  0.892211  33.224896  13.613866  7.419546
  14366.513  14366.500  0.500  0.893231  33.207044  13.592682  7.403947
  14366.810  14366.800  0.500  0.893792  33.194648  13.579983  7.392194
  14367.090  14367.100  0.500  0.894572  33.199548  13.571391  7.383482
  14367.406  14367.400  0.500  0.895370  33.173607  13.549976  7.366935
  14367.713  14367.700  0.500  0.895859  33.178940  13.545528  7.362241
  14367.992  14368.000  0.500  0.896162  33.142477  13.526535  7.346798
  14368.290  14368.300  0.500  0.896571  33.133577  13.517376  7.340323
  14368.579  14368.600  0.500  0.897068  33.143372  13.514654  7.338240
  14368.895  14368.900  0.500  0.897315  33.136344  13.508448  7.330504
  14369.193  14369.200  0.500  0.897671  33.139026  13.504733  7.330183
  14369.473  14369.500  0.500  0.897870  33.149467  13.506299  7.327510
  14369.789  14369.800  0.500  0.897937  33.153781  13.507157  7.326059
  14370.095  14370.100  0.500  0.898040  33.161060  13.508732  7.328072
  14370.393  14370.400  0.500  0.898334  33.164210  13.506045  7.326088
  14370.673  14370.700  0.500  0.898458  33.175017  13.508764  7.327676
  14370.980  14371.000  0.500  0.898470  33.168707  13.506032  7.324334
  14371.287  14371.300  0.500  0.898532  33.175891  13.508120  7.326255
  14371.576  14371.600  0.500  0.898705  33.171506  13.504001  7.325093
  14371.874  14371.900  0.500  0.899044  33.173855  13.500388  7.324466
  14372.190  14372.200  0.500  0.899110  33.164057  13.495507  7.323155
  14372.497  14372.500  0.500  0.899198  33.166703  13.495397  7.325050
  14372.795  14372.800  0.500  0.899248  33.172453  13.497055  7.327047
  14373.093  14373.100  0.500  0.899165  33.154965  13.491065  7.324422
  14373.391  14373.400  0.500  0.899166  33.157089  13.491917  7.325445
  14373.698  14373.700  0.500  0.899358  33.163676  13.492008  7.327554
  14373.987  14374.000  0.500  0.899429  33.147198  13.484339  7.324763
  14374.294  14374.300  0.500  0.899523  33.147775  13.483311  7.326630
  14374.601  14374.600  0.500  0.899647  33.137671  13.477529  7.326890
  14374.917  14374.900  0.500  0.899791  33.132864  13.473630  7.325612
  14375.207  14375.200  0.500  0.899976  33.132938  13.471167  7.328639
  14375.505  14375.500  0.500  0.900024  33.124938  13.467266  7.327516
  14375.803  14375.800  0.500  0.900059  33.096405  13.455205  7.322112
  14376.101  14376.100  0.500  0.900395  33.087823  13.447198  7.320824
  14376.399  14376.400  0.500  0.900467  33.075207  13.441099  7.319678
  14376.697  14376.700  0.500  0.900527  33.070268  13.438289  7.320567
  14377.022  14377.000  0.500  0.900679  33.049509  13.427810  7.318754
  14377.330  14377.300  0.500  0.900577  33.054139  13.431065  7.320287
  14377.601  14377.600  0.500  0.900749  33.058020  13.430330  7.322866
  14377.800  14377.800  0.500  0.900995  33.053519  13.425200  7.323187
  14378.803  14378.790  0.500  0.901235  33.076951  13.431488  7.331718
  14379.806  14379.790  0.500  0.901702  33.088034  13.429711  7.336472
  14380.828  14380.810  0.500  0.902034  33.097728  13.429193  7.338790
  14381.876  14381.860  0.500  0.902297  33.080210  13.418551  7.335264
  14382.925  14382.920  0.500  0.902593  33.070913  13.410806  7.330215
  14384.011  14384.000  0.500  0.902779  33.053966  13.401446  7.321745
  14385.105  14385.100  0.500  0.903044  33.019708  13.384013  7.306641
  14386.245  14386.220  0.500  0.903183  32.982731  13.367162  7.291904
  14387.385  14387.360  0.500  0.903043  32.986207  13.370444  7.284264
  14388.534  14388.510  0.500  0.903003  33.007786  13.379729  7.283476
  14389.702  14389.690  0.500  0.902894  33.015863  13.384459  7.276672
  14390.906  14390.880  0.500  0.902387  33.010180  13.388936  7.273042
  14392.110  14392.100  0.500  0.901946  33.001855  13.391474  7.270645
  14393.342  14393.330  0.500  0.901162  32.992785  13.398285  7.269843
  14394.583  14394.580  0.500  0.900292  32.985712  13.407072  7.274780
  14395.851  14395.850  0.500  0.899214  32.974947  13.417158  7.282575
  14397.146  14397.140  0.500  0.897928  32.972094  13.433256  7.296107
  14398.451  14398.450  0.500  0.896694  32.961418  13.445484  7.310563
  14399.811  14399.780  0.500  0.895339  32.948235  13.458333  7.326785
  14401.144  14401.130  0.500  0.894152  32.941538  13.471584  7.341271
  14402.522  14402.500  0.500  0.892959  32.928284  13.482235  7.353198
  14403.909  14403.880  0.500  0.891937  32.904362  13.486215  7.361147
  14405.315  14405.290  0.500  0.891450  32.913351  13.496479  7.370780
  14406.731  14406.710  0.500  0.890780  32.887596  13.494954  7.372023
  14408.146  14408.150  0.500  0.890432  32.876044  13.494901  7.372045
  14409.608  14409.610  0.500  0.890054  32.866076  13.495913  7.371915
  14411.096  14411.090  0.500  0.889987  32.766188  13.455793  7.350302
  14412.604  14412.590  0.500  0.889702  32.702562  13.433496  7.339041
  14414.139  14414.110  0.500  0.889556  32.789952  13.471367  7.358651
  14415.683  14415.650  0.500  0.889516  32.810817  13.480470  7.362819
  14417.227  14417.210  0.500  0.889509  32.807401  13.479159  7.361992
  14418.827  14418.780  0.500  0.889388  32.794676  13.475570  7.359230
  14420.381  14420.380  0.500  0.889563  32.777845  13.466289  7.352956
  14421.991  14421.990  0.500  0.889464  32.693935  13.433146  7.332713
  14423.655  14423.630  0.500  0.889349  32.600525  13.396316  7.314457
  14425.283  14425.280  0.500  0.889380  32.738804  13.452710  7.344129
  14426.966  14426.950  0.500  0.889354  32.758037  13.460968  7.345020
  14428.668  14428.640  0.500  0.889236  32.731732  13.451750  7.337919
  14430.370  14430.350  0.500  0.889548  32.715242  13.440782  7.332330
  14432.100  14432.080  0.500  0.889471  32.662946  13.420331  7.320565
  14433.830  14433.830  0.500  0.889601  32.521164  13.360327  7.290037
  14435.597  14435.590  0.500  0.889599  32.638525  13.408571  7.318581
  14437.383  14437.380  0.500  0.889702  32.672594  13.421191  7.330357
  14439.206  14439.180  0.500  0.889560  32.673581  13.423499  7.336309
  14441.029  14441.010  0.500  0.889330  32.646932  13.415640  7.337794
  14442.889  14442.850  0.500  0.888914  32.625902  13.412577  7.339684
  14444.732  14444.710  0.500  0.888394  32.561303  13.392972  7.332689
  14446.593  14446.590  0.500  0.887400  32.472529  13.369751  7.324647
  14448.491  14448.490  0.500  0.886387  32.588470  13.431080  7.359234
  14450.426  14450.410  0.500  0.885292  32.587742  13.445490  7.369806
  14452.353  14452.350  0.500  0.884055  32.565088  13.452775  7.374666
  14454.325  14454.310  0.500  0.882840  32.553457  13.464330  7.380698
  14456.308  14456.280  0.500  0.881830  32.533122  13.469511  7.385273
  14458.291  14458.280  0.500  0.880656  32.520436  13.480078  7.392547
  14460.302  14460.290  0.500  0.879601  32.492477  13.482700  7.395395
  14462.322  14462.320  0.500  0.878745  32.489816  13.493150  7.402147
  14464.380  14464.380  0.500  0.877822  32.476965  13.500267  7.409117
  14466.475  14466.450  0.500  0.876881  32.459608  13.505756  7.413552
  14468.580  14468.540  0.500  0.876185  32.450889  13.511518  7.420176
  14470.676  14470.650  0.500  0.875344  32.431566  13.514838  7.421868
  14472.809  14472.780  0.500  0.874668  32.417039  13.517922  7.425939
  14474.934  14474.920  0.500  0.873932  32.399857  13.520704  7.428651
  14477.105  14477.090  0.500  0.873263  32.382094  13.522335  7.430312
  14479.287  14479.280  0.500  0.872748  32.374241  13.526020  7.433494
  14481.496  14481.480  0.500  0.872387  32.307139  13.502852  7.421992
  14483.706  14483.700  0.500  0.871535  32.314394  13.517406  7.428452
  14485.972  14485.950  0.500  0.871213  32.312839  13.521098  7.431686
  14488.229  14488.210  0.500  0.870668  32.300028  13.523116  7.432644
  14490.505  14490.490  0.500  0.870189  32.283525  13.522674  7.432503
  14492.819  14492.790  0.500  0.869901  32.269368  13.520639  7.433186
  14495.143  14495.110  0.500  0.869504  32.248014  13.517052  7.433608
  14497.486  14497.450  0.500  0.869193  32.236844  13.516583  7.436058
  14499.802  14499.800  0.500  0.868796  32.227391  13.517986  7.439316
  14502.174  14502.180  0.500  0.868555  32.205860  13.512201  7.437438
  14504.565  14504.570  0.500  0.868344  32.191682  13.509111  7.437691
  14507.003  14506.990  0.500  0.868152  32.172038  13.503457  7.438683
  14509.433  14509.420  0.500  0.867693  32.158472  13.503960  7.442059
  14511.891  14511.870  0.500  0.867147  32.134679  13.501333  7.442251
  14514.359  14514.350  0.500  0.866734  32.115270  13.498753  7.444183
  14516.837  14516.840  0.500  0.865982  32.060708  13.485967  7.439393
  14519.371  14519.350  0.500  0.865310  32.083188  13.504492  7.452987
  14521.907  14521.870  0.500  0.864538  32.072959  13.510614  7.456857
  14524.461  14524.420  0.500  0.863762  32.055188  13.513601  7.461031
  14526.998  14526.990  0.500  0.862808  32.043628  13.521621  7.468635
  14529.564  14529.570  0.500  0.862043  32.029481  13.526002  7.474899
  14532.195  14532.180  0.500  0.861165  31.993713  13.522765  7.477118
  14534.827  14534.800  0.500  0.860218  31.977074  13.528532  7.481597
  14537.488  14537.450  0.500  0.859350  31.956045  13.531376  7.485136
  14540.113  14540.110  0.500  0.858604  31.945240  13.536905  7.489519
  14542.775  14542.790  0.500  0.857747  31.926326  13.540489  7.492517
  14545.495  14545.490  0.500  0.856846  31.910289  13.545878  7.494773
  14548.243  14548.210  0.500  0.855948  31.882340  13.546171  7.493882
  14550.982  14550.950  0.500  0.855035  31.818470  13.531386  7.487524
  14553.695  14553.700  0.500  0.854157  31.842233  13.553393  7.499499
  14556.484  14556.480  0.500  0.853300  31.822103  13.556427  7.501151
  14559.310  14559.270  0.500  0.852435  31.804298  13.560566  7.503709
  14562.110  14562.090  0.500  0.851642  31.797896  13.568602  7.511534
  14564.948  14564.920  0.500  0.850914  31.774112  13.568323  7.512915
  14567.777  14567.770  0.500  0.850119  31.750177  13.568883  7.513615
  14570.664  14570.650  0.500  0.849489  31.723925  13.566205  7.515943
  14573.570  14573.540  0.500  0.848631  31.706880  13.570559  7.522199
  14576.468  14576.450  0.500  0.848043  31.692266  13.572279  7.526690
  14579.386  14579.370  0.500  0.847350  31.670103  13.572200  7.528416
  14582.314  14582.320  0.500  0.846778  31.641583  13.567727  7.532644
  14585.300  14585.290  0.500  0.846032  31.622104  13.569493  7.535747
  14588.286  14588.270  0.500  0.845464  31.597027  13.566432  7.541357
  14591.311  14591.280  0.500  0.844592  31.573606  13.568215  7.543895
  14594.291  14594.300  0.500  0.844087  31.561112  13.569690  7.549487
  14597.384  14597.350  0.500  0.843308  31.527567  13.565828  7.549352
