# XDI/1.0 BlueSky/1.10.0 BMM/2023-1.0-py310-tiled
# Beamline.name: BMM (06BM) -- Beamline for Materials Measurement (NIST)
# Beamline.xray_source: NSLS-II three-pole wiggler
# Beamline.collimation: paraboloid mirror, 5 nm Rh on 30 nm Pt
# Beamline.focusing: not in use
# Beamline.harmonic_rejection: flat mirror, Pt stripe, pitch = 7.0 mrad relative to beam
# Beamline.software: Bluesky 1.10.0, Ophyd 1.7.0, DataBroker 2.0.0b13, Python 3.10.8, 2023-1.0-py310-tiled
# Detector.I0: 10 cm N2
# Detector.I1: 25 cm N2
# Detector.I2: 25 cm N2
# Element.symbol: Au
# Element.edge: L3
# Element.reference: Au
# Element.reference_material: Au foil
# Facility.name: NSLS-II
# Facility.energy: 3.0
# Facility.current: 399.9
# Facility.mode: top-off
# Facility.GUP: 301027
# Facility.SAF: 310583
# Facility.cycle: 2023-2
# Mono.name: Si(111)
# Mono.d_spacing: 3.1351860
# Mono.encoder_resolution: 0.0000050 deg/ct
# Mono.angle_offset: 16.0754326 deg
# Mono.scan_mode: pseudo channel cut
# Mono.scan_type: step
# Mono.direction: forward in energy
# Sample.name: C4H3AuNa2O4S, gold thiomalate
# Sample.prep: powder in BN pellet
# Sample.x: 145.711 mm
# Sample.y: 114.376 mm
# Sample.SDD_position: 205.000 mm
# Scan.experimenters: Bruce Ravel
# Scan.edge_energy: 11918.7
# Scan.start_time: 2023-06-27T17:58:55
# Scan.end_time: 2023-06-27T18:06:44
# Scan.transient_id: 85207
# Scan.uid: 70e42fbc-7773-44d1-b20a-9d1a595e210e
# Scan.plot_hint: ln(I0/It)  --  ln($5/$6)
# Column.1: energy eV
# Column.2: requested_energy eV
# Column.3: measurement_time seconds
# Column.4: xmu 
# Column.5: I0 nA
# Column.6: It nA
# Column.7: Ir nA
# ///////////
# Welcome to BMM
# -----------
# energy  requested_energy  measurement_time  xmu  I0  It  Ir
  11718.678  11718.700  0.500  0.657696  64.530194  33.429448  21.264547
  11728.723  11728.700  0.500  0.654526  64.395846  33.465785  21.313808
  11738.708  11738.700  0.500  0.651309  64.255285  33.500311  21.361173
  11748.734  11748.700  0.500  0.648174  64.036207  33.490919  21.377596
  11758.735  11758.700  0.500  0.645046  63.798064  33.470912  21.389683
  11768.765  11768.700  0.500  0.641834  63.855749  33.608955  21.500316
  11778.770  11778.700  0.500  0.638846  63.527150  33.536069  21.477341
  11788.739  11788.700  0.500  0.635642  63.593129  33.678615  21.588613
  11798.730  11798.700  0.500  0.632648  63.450034  33.703598  21.630157
  11808.782  11808.700  0.500  0.629613  63.289241  33.720374  21.660275
  11818.692  11818.700  0.500  0.626769  63.156894  33.745685  21.701161
  11828.717  11828.700  0.500  0.623814  63.010401  33.767078  21.731875
  11838.735  11838.700  0.500  0.621091  62.924936  33.813208  21.783449
  11848.727  11848.700  0.500  0.618398  62.596925  33.727672  21.749524
  11858.730  11858.700  0.500  0.615972  62.547420  33.782832  21.801762
  11868.732  11868.700  0.500  0.613994  62.517081  33.833300  21.844902
  11878.727  11878.700  0.500  0.612573  62.384633  33.809645  21.838450
  11888.732  11888.700  0.500  0.612452  62.220956  33.725019  21.781567
  11890.676  11890.700  0.500  0.612691  62.200840  33.706055  21.764748
  11892.670  11892.700  0.500  0.613220  62.179127  33.676481  21.746393
  11894.671  11894.700  0.500  0.613586  62.146136  33.646282  21.719822
  11896.666  11896.700  0.500  0.614299  62.121008  33.608712  21.685259
  11898.687  11898.700  0.500  0.615332  62.085101  33.554613  21.641611
  11900.659  11900.700  0.500  0.616562  61.971615  33.452080  21.563137
  11902.663  11902.700  0.500  0.618206  61.386617  33.081874  21.303804
  11904.673  11904.700  0.500  0.620639  61.961208  33.310384  21.434087
  11906.684  11906.700  0.500  0.623732  61.999832  33.228212  21.351247
  11908.683  11908.700  0.500  0.627836  61.980571  33.081842  21.212790
  11908.936  11909.000  0.500  0.628574  61.983026  33.058765  21.193221
  11909.245  11909.300  0.500  0.629362  61.971824  33.026744  21.163089
  11909.541  11909.600  0.500  0.630155  61.968356  32.998737  21.137520
  11909.844  11909.900  0.500  0.630987  61.952064  32.962612  21.105143
  11910.159  11910.200  0.500  0.632026  61.952300  32.928510  21.075678
  11910.443  11910.500  0.500  0.632921  61.944057  32.894683  21.043344
  11910.758  11910.800  0.500  0.634046  61.945635  32.858538  21.010770
  11911.060  11911.100  0.500  0.635055  61.933658  32.819029  20.973801
  11911.350  11911.400  0.500  0.636308  62.118240  32.875644  21.001098
  11911.671  11911.700  0.500  0.637561  62.116082  32.833311  20.958551
  11911.968  11912.000  0.500  0.638748  62.107670  32.789928  20.919150
  11912.270  11912.300  0.500  0.640200  62.100897  32.738793  20.874427
  11912.585  11912.600  0.500  0.641513  62.088758  32.689422  20.828203
  11912.876  11912.900  0.500  0.643060  62.090774  32.639967  20.782998
  11913.172  11913.200  0.500  0.644590  62.087670  32.588419  20.732789
  11913.487  11913.500  0.500  0.646425  62.081987  32.525722  20.672842
  11913.784  11913.800  0.500  0.648367  62.066575  32.454544  20.610108
  11914.086  11914.100  0.500  0.650454  62.066287  32.386724  20.549970
  11914.389  11914.400  0.500  0.652566  62.055663  32.312886  20.479621
  11914.673  11914.700  0.500  0.654817  62.043795  32.234039  20.407423
  11915.001  11915.000  0.500  0.657411  62.032126  32.144487  20.319897
  11915.297  11915.300  0.500  0.660167  62.017782  32.048617  20.234300
  11915.594  11915.600  0.500  0.663171  61.991615  31.938997  20.135939
  11915.891  11915.900  0.500  0.666433  61.931730  31.804252  20.018798
  11916.181  11916.200  0.500  0.669626  61.849283  31.660633  19.892801
  11916.484  11916.500  0.500  0.673620  61.713266  31.465097  19.729086
  11916.793  11916.800  0.500  0.677679  61.586700  31.273366  19.570547
  11917.083  11917.100  0.500  0.682053  61.456043  31.070808  19.397120
  11917.386  11917.400  0.500  0.686841  61.365490  30.876862  19.224980
  11917.664  11917.700  0.500  0.691916  61.334034  30.704812  19.065247
  11917.986  11918.000  0.500  0.698162  61.394195  30.543544  18.902314
  11918.276  11918.300  0.500  0.704315  61.456088  30.386802  18.739751
  11918.592  11918.600  0.500  0.711541  61.559549  30.218806  18.562568
  11918.876  11918.900  0.500  0.719158  61.669368  30.042999  18.376996
  11919.191  11919.200  0.500  0.728307  61.775782  29.820763  18.146326
  11919.482  11919.500  0.500  0.738049  61.865309  29.574437  17.900317
  11919.791  11919.800  0.500  0.749223  61.925228  29.274152  17.608297
  11920.076  11920.100  0.500  0.761098  61.946798  28.938657  17.294597
  11920.391  11920.400  0.500  0.775779  61.957197  28.521700  16.912571
  11920.707  11920.700  0.500  0.791757  61.960257  28.070968  16.509183
  11920.997  11921.000  0.500  0.809002  61.975403  27.597800  16.093918
  11921.300  11921.300  0.500  0.828659  61.964935  27.056019  15.631726
  11921.610  11921.600  0.500  0.851091  61.959983  26.453750  15.135509
  11921.888  11921.900  0.500  0.873815  61.944880  25.853096  14.654963
  11922.203  11922.200  0.500  0.900275  61.948442  25.179432  14.135292
  11922.500  11922.500  0.500  0.926534  61.947057  24.526290  13.645830
  11922.804  11922.800  0.500  0.954876  61.942414  23.839161  13.147883
  11923.094  11923.100  0.500  0.981151  61.935080  23.218182  12.711666
  11923.391  11923.400  0.500  1.007691  61.941256  22.612341  12.294158
  11923.695  11923.700  0.500  1.032425  61.931459  22.056414  11.914631
  11923.992  11924.000  0.500  1.054811  61.930411  21.567781  11.589400
  11924.282  11924.300  0.500  1.073961  61.925543  21.157014  11.313260
  11924.573  11924.600  0.500  1.089641  61.922463  20.826825  11.094730
  11924.883  11924.900  0.500  1.102980  61.916101  20.548761  10.909510
  11925.186  11925.200  0.500  1.112585  61.906644  20.349213  10.772619
  11925.502  11925.500  0.500  1.119608  61.901805  20.205232  10.672999
  11925.786  11925.800  0.500  1.123746  61.907101  20.123512  10.611572
  11926.102  11926.100  0.500  1.126447  61.899534  20.066784  10.568416
  11926.387  11926.400  0.500  1.127367  61.890314  20.045343  10.547426
  11926.709  11926.700  0.500  1.127705  61.892656  20.039329  10.539591
  11927.000  11927.000  0.500  1.127625  61.874025  20.034902  10.536857
  11927.303  11927.300  0.500  1.127509  61.871893  20.036532  10.534540
  11927.607  11927.600  0.500  1.127591  61.868540  20.033794  10.533075
  11927.898  11927.900  0.500  1.128134  61.871343  20.023835  10.531045
  11928.213  11928.200  0.500  1.129238  61.858445  19.997561  10.516928
  11928.492  11928.500  0.500  1.130704  61.857520  19.967979  10.499404
  11928.814  11928.800  0.500  1.133042  61.852829  19.919829  10.473857
  11929.099  11929.100  0.500  1.135715  61.839946  19.862524  10.439902
  11929.396  11929.400  0.500  1.138998  61.835555  19.796006  10.402125
  11929.694  11929.700  0.500  1.142538  61.833206  19.725316  10.358989
  11929.991  11930.000  0.500  1.146343  61.832231  19.650092  10.311300
  11930.288  11930.300  0.500  1.150381  61.825833  19.568870  10.258837
  11930.586  11930.600  0.500  1.154698  61.819746  19.482666  10.203394
  11930.889  11930.900  0.500  1.158721  61.814657  19.402850  10.151508
  11931.180  11931.200  0.500  1.162463  61.811436  19.329358  10.098838
  11931.490  11931.500  0.500  1.166298  61.802369  19.252548  10.046080
  11931.788  11931.800  0.500  1.169699  61.787975  19.182718  9.993540
  11932.097  11932.100  0.500  1.172777  61.779403  19.121113  9.945146
  11932.389  11932.400  0.500  1.175312  61.771646  19.070299  9.904531
  11932.711  11932.700  0.500  1.177535  61.766576  19.026395  9.864320
  11933.002  11933.000  0.500  1.179293  61.756192  18.989791  9.829737
  11933.306  11933.300  0.500  1.180910  61.747323  18.956387  9.797181
  11933.610  11933.600  0.500  1.181781  61.704862  18.926862  9.768029
  11933.901  11933.900  0.500  1.182768  61.631885  18.885812  9.734494
  11934.217  11934.200  0.500  1.183377  61.511211  18.837373  9.698055
  11934.502  11934.500  0.500  1.183823  61.361457  18.783124  9.659105
  11934.806  11934.800  0.500  1.184199  61.206427  18.728620  9.620917
  11935.110  11935.100  0.500  1.184385  61.108892  18.695312  9.593346
  11935.407  11935.400  0.500  1.184448  61.054321  18.677438  9.577502
  11935.699  11935.700  0.500  1.184563  61.068902  18.679747  9.572827
  11936.003  11936.000  0.500  1.184697  61.136625  18.697954  9.577481
  11936.288  11936.300  0.500  1.184668  61.223639  18.725109  9.585940
  11936.598  11936.600  0.500  1.184781  61.331881  18.756102  9.598320
  11936.877  11936.900  0.500  1.184961  61.450679  18.789050  9.611121
  11937.200  11937.200  0.500  1.185222  61.551663  18.815000  9.621091
  11937.485  11937.500  0.500  1.185428  61.607580  18.828230  9.627549
  11937.801  11937.800  0.500  1.185717  61.655433  18.837408  9.629744
  11938.093  11938.100  0.500  1.185998  61.651499  18.830901  9.625419
  11938.415  11938.400  0.500  1.186395  61.658277  18.825494  9.616371
  11938.694  11938.700  0.500  1.186841  61.656870  18.816679  9.608527
  11939.011  11939.000  0.500  1.187714  61.671875  18.804826  9.600493
  11939.302  11939.300  0.500  1.188253  61.656099  18.789892  9.589260
  11939.613  11939.600  0.500  1.189143  61.670843  18.777666  9.575861
  11939.898  11939.900  0.500  1.189996  61.655963  18.757129  9.562386
  11940.208  11940.200  0.500  1.191009  61.656982  18.738456  9.544912
  11940.494  11940.500  0.500  1.192152  61.646951  18.713989  9.528011
  11940.810  11940.800  0.500  1.193158  61.640846  18.693323  9.510077
  11941.108  11941.100  0.500  1.194382  61.638738  18.669825  9.492809
  11941.406  11941.400  0.500  1.195671  61.636693  18.645147  9.476308
  11941.698  11941.700  0.500  1.196915  61.639397  18.622790  9.461256
  11942.002  11942.000  0.500  1.198192  61.622325  18.593875  9.441253
  11942.300  11942.300  0.500  1.199592  61.620899  18.567435  9.420821
  11942.598  11942.600  0.500  1.201108  61.618955  18.538717  9.401744
  11942.890  11942.900  0.500  1.202427  61.617941  18.513974  9.382713
  11943.206  11943.200  0.500  1.203855  61.615838  18.486931  9.360430
  11943.492  11943.500  0.500  1.205261  61.608302  18.458705  9.335661
  11943.691  11943.700  0.500  1.206243  61.611091  18.441419  9.320107
  11944.690  11944.690  0.500  1.211242  61.591138  18.343520  9.214596
  11945.709  11945.690  0.500  1.216207  61.570831  18.246644  9.087780
  11946.746  11946.710  0.500  1.221132  61.561449  18.154239  8.954496
  11947.777  11947.760  0.500  1.225754  61.545916  18.065963  8.845459
  11948.846  11948.820  0.500  1.229857  61.527871  17.986708  8.781833
  11949.909  11949.900  0.500  1.233515  61.511558  17.916293  8.763302
  11951.009  11951.000  0.500  1.237375  61.493577  17.842048  8.773769
  11952.128  11952.120  0.500  1.241037  61.481257  17.773265  8.800168
  11953.279  11953.260  0.500  1.244179  61.466624  17.713285  8.817994
  11954.429  11954.410  0.500  1.247217  61.456762  17.656734  8.818403
  11955.599  11955.590  0.500  1.250080  61.426187  17.597489  8.802080
  11956.781  11956.780  0.500  1.252752  61.414934  17.547314  8.783739
  11958.007  11958.000  0.500  1.255338  61.397308  17.496979  8.772841
  11959.240  11959.230  0.500  1.257671  61.381839  17.451810  8.763029
  11960.503  11960.480  0.500  1.259924  61.362549  17.407054  8.748600
  11961.768  11961.750  0.500  1.261903  61.338926  17.365951  8.723219
  11963.026  11963.040  0.500  1.264013  61.327441  17.326108  8.686010
  11964.347  11964.350  0.500  1.265688  61.306597  17.291238  8.635471
  11965.686  11965.680  0.500  1.267282  61.297921  17.261252  8.584691
  11967.058  11967.030  0.500  1.268333  61.266867  17.234382  8.528108
  11968.417  11968.400  0.500  1.269055  61.245790  17.216024  8.482735
  11969.795  11969.780  0.500  1.269685  61.227305  17.199975  8.445319
  11971.198  11971.190  0.500  1.270011  61.203865  17.187788  8.420097
  11972.608  11972.610  0.500  1.270181  61.184994  17.179566  8.417393
  11974.068  11974.050  0.500  1.269868  61.162041  17.178504  8.434133
  11975.529  11975.510  0.500  1.269022  61.146053  17.188544  8.461613
  11976.984  11976.990  0.500  1.267410  61.122624  17.209688  8.496021
  11978.495  11978.490  0.500  1.265270  61.104741  17.241504  8.533894
  11980.025  11980.010  0.500  1.262077  61.079488  17.289488  8.576076
  11981.556  11981.550  0.500  1.258113  61.058943  17.352330  8.621387
  11983.106  11983.110  0.500  1.253849  61.030648  17.418395  8.667559
  11984.656  11984.680  0.500  1.249243  61.008747  17.492534  8.715784
  11986.276  11986.280  0.500  1.244240  60.986022  17.573723  8.766979
  11987.890  11987.890  0.500  1.239634  60.971242  17.650572  8.820645
  11989.510  11989.530  0.500  1.235282  60.946162  17.720272  8.875227
  11991.143  11991.180  0.500  1.231542  60.922762  17.779826  8.925213
  11992.840  11992.850  0.500  1.228361  60.891058  17.827202  8.964753
  11994.518  11994.540  0.500  1.225991  60.870658  17.863517  8.989324
  11996.240  11996.250  0.500  1.224151  60.846664  17.889358  8.999740
  11997.957  11997.980  0.500  1.223119  60.824891  17.901429  9.002813
  11999.718  11999.730  0.500  1.222407  60.802853  17.907682  8.996679
  12001.611  12001.490  0.500  1.222134  60.776058  17.904674  8.980433
  12003.223  12003.280  0.500  1.222128  60.733215  17.892163  8.955276
  12005.343  12005.080  0.500  1.222654  60.714527  17.877253  8.924381
  12007.019  12006.910  0.500  1.223252  60.683944  17.857560  8.897497
  12008.789  12008.750  0.500  1.223976  60.661690  17.838095  8.875135
  12010.629  12010.610  0.500  1.224835  60.638023  17.815831  8.860397
  12012.525  12012.490  0.500  1.225642  60.606818  17.792292  8.851923
  12014.429  12014.390  0.500  1.226842  60.592344  17.766710  8.847507
  12016.333  12016.310  0.500  1.228063  60.558558  17.735129  8.844206
  12018.257  12018.250  0.500  1.229475  60.534263  17.703008  8.839212
  12020.213  12020.210  0.500  1.230746  60.507840  17.672803  8.832796
  12022.194  12022.180  0.500  1.232286  60.487364  17.639644  8.824632
  12024.202  12024.180  0.500  1.233588  60.454216  17.607027  8.812861
  12026.216  12026.190  0.500  1.235116  60.425406  17.571766  8.798793
  12028.232  12028.220  0.500  1.236356  60.398155  17.542074  8.785558
  12030.285  12030.280  0.500  1.237181  60.371918  17.519992  8.774902
  12032.352  12032.350  0.500  1.237634  60.549537  17.563581  8.798524
  12034.451  12034.440  0.500  1.237447  60.514161  17.556607  8.799223
  12036.576  12036.550  0.500  1.236539  60.486165  17.564427  8.808501
  12038.715  12038.680  0.500  1.234837  60.456233  17.585646  8.828090
  12040.835  12040.820  0.500  1.232527  60.430544  17.618813  8.858222
  12042.982  12042.990  0.500  1.229504  60.378635  17.656989  8.888586
  12045.186  12045.180  0.500  1.226169  60.315353  17.697407  8.921904
  12047.397  12047.380  0.500  1.222671  59.147682  17.415594  8.788136
  12049.622  12049.600  0.500  1.219114  59.377357  17.545523  8.859642
  12051.866  12051.850  0.500  1.216302  60.190995  17.836037  9.011602
  12054.118  12054.110  0.500  1.213861  60.209747  17.885193  9.034244
  12056.389  12056.390  0.500  1.211685  60.182790  17.916123  9.046033
  12058.706  12058.690  0.500  1.209924  60.155885  17.939681  9.051473
  12061.029  12061.010  0.500  1.208712  60.126508  17.952677  9.052329
  12063.373  12063.350  0.500  1.207599  60.099975  17.964723  9.051490
  12065.712  12065.700  0.500  1.206855  60.070525  17.969288  9.049975
  12068.083  12068.080  0.500  1.206109  60.033568  17.971632  9.047507
  12070.461  12070.470  0.500  1.205500  60.003217  17.973489  9.047412
  12072.903  12072.890  0.500  1.205072  59.963977  17.969430  9.044368
  12075.347  12075.320  0.500  1.204712  59.937987  17.968115  9.042248
  12077.779  12077.770  0.500  1.204191  59.906501  17.968023  9.041824
  12080.238  12080.250  0.500  1.203934  59.860162  17.958746  9.039704
  12082.748  12082.740  0.500  1.203849  59.832038  17.951842  9.038099
  12085.278  12085.250  0.500  1.203951  59.796030  17.939204  9.037430
  12087.791  12087.770  0.500  1.204228  59.762438  17.924164  9.028907
  12090.329  12090.320  0.500  1.204657  59.722220  17.904417  9.020416
  12092.895  12092.890  0.500  1.205160  59.517693  17.834120  8.982637
  12095.474  12095.470  0.500  1.206008  59.667291  17.863792  8.999658
  12098.099  12098.080  0.500  1.206632  59.636317  17.843382  8.991872
  12100.725  12100.700  0.500  1.207359  59.599799  17.819501  8.988385
  12103.333  12103.350  0.500  1.208109  59.562356  17.794953  8.989638
  12105.994  12106.010  0.500  1.208505  59.532474  17.778988  8.996369
  12108.700  12108.690  0.500  1.208541  59.491995  17.766249  9.002677
  12111.395  12111.390  0.500  1.208163  59.456959  17.762503  9.010685
  12114.104  12114.110  0.500  1.207377  59.425280  17.766991  9.018177
  12116.839  12116.850  0.500  1.206177  59.382160  17.775416  9.026185
  12119.614  12119.600  0.500  1.204770  59.352806  17.791646  9.039180
  12122.391  12122.380  0.500  1.203270  59.311920  17.806092  9.051197
  12125.155  12125.170  0.500  1.201271  59.270836  17.829359  9.062583
  12127.998  12127.990  0.500  1.199334  59.206186  17.844446  9.071204
  12130.824  12130.820  0.500  1.197409  59.132516  17.856585  9.076455
  12133.676  12133.670  0.500  1.195506  59.175979  17.903735  9.098568
  12136.555  12136.550  0.500  1.193578  59.133161  17.925310  9.104218
  12139.455  12139.440  0.500  1.191666  59.095850  17.948286  9.107295
  12142.362  12142.350  0.500  1.189939  59.056532  17.967350  9.111397
  12145.271  12145.270  0.500  1.188303  59.015090  17.984135  9.113153
  12148.233  12148.220  0.500  1.186678  58.971518  18.000083  9.115454
  12151.216  12151.190  0.500  1.185154  58.931013  18.015151  9.121600
  12154.174  12154.170  0.500  1.183822  58.893342  18.027643  9.129340
  12157.179  12157.180  0.500  1.182564  58.845774  18.035758  9.141166
