# XDI/1.0 BlueSky/1.10.0 BMM/2023-1.0-py310-tiled
# Beamline.name: BMM (06BM) -- Beamline for Materials Measurement (NIST)
# Beamline.xray_source: NSLS-II three-pole wiggler
# Beamline.collimation: paraboloid mirror, 5 nm Rh on 30 nm Pt
# Beamline.focusing: not in use
# Beamline.harmonic_rejection: flat mirror, Pt stripe, pitch = 7.0 mrad relative to beam
# Beamline.software: Bluesky 1.10.0, Ophyd 1.7.0, DataBroker 2.0.0b13, Python 3.10.8, 2023-1.0-py310-tiled
# Detector.I0: 10 cm N2
# Detector.I1: 25 cm N2
# Detector.I2: 25 cm N2
# Element.symbol: Au
# Element.edge: L1
# Element.reference: Au
# Element.reference_material: Au foil
# Facility.name: NSLS-II
# Facility.energy: 3.0
# Facility.current: 399.1
# Facility.mode: top-off
# Facility.GUP: 301027
# Facility.SAF: 310583
# Facility.cycle: 2023-2
# Mono.name: Si(111)
# Mono.d_spacing: 3.1351860
# Mono.encoder_resolution: 0.0000050 deg/ct
# Mono.angle_offset: 16.0754326 deg
# Mono.scan_mode: pseudo channel cut
# Mono.scan_type: step
# Mono.direction: forward in energy
# Sample.name: KAu(SCN)4, gold potassium thocyanate
# Sample.prep: powder in BN pellet
# Sample.x: 145.711 mm
# Sample.y: 114.376 mm
# Sample.SDD_position: 205.000 mm
# Scan.experimenters: Bruce Ravel
# Scan.edge_energy: 14352.8
# Scan.start_time: 2023-06-27T20:02:36
# Scan.end_time: 2023-06-27T20:10:37
# Scan.transient_id: 85283
# Scan.uid: e065face-919d-4a45-a7b7-5ae4953fe51c
# Scan.plot_hint: ln(I0/It)  --  ln($5/$6)
# Column.1: energy eV
# Column.2: requested_energy eV
# Column.3: measurement_time seconds
# Column.4: xmu 
# Column.5: I0 nA
# Column.6: It nA
# Column.7: Ir nA
# ///////////
# Welcome to BMM
# -----------
# energy  requested_energy  measurement_time  xmu  I0  It  Ir
  14152.852  14152.800  0.500  1.340899  34.565650  9.042736  5.110273
  14162.891  14162.800  0.500  1.337095  34.335722  9.016814  5.101927
  14172.892  14172.800  0.500  1.334001  34.565340  9.105247  5.154970
  14182.906  14182.800  0.500  1.331086  34.474011  9.107694  5.159085
  14192.926  14192.800  0.500  1.328415  34.366226  9.103501  5.161482
  14202.873  14202.800  0.500  1.325686  34.283301  9.106355  5.167599
  14212.913  14212.800  0.500  1.322898  34.221692  9.115369  5.176279
  14222.852  14222.800  0.500  1.320370  34.127924  9.113399  5.181528
  14232.850  14232.800  0.500  1.317340  34.055680  9.121708  5.190557
  14242.852  14242.800  0.500  1.314493  33.976058  9.126321  5.199375
  14252.896  14252.800  0.500  1.311516  33.890032  9.130359  5.207227
  14262.785  14262.800  0.500  1.308616  33.909334  9.162086  5.230927
  14272.786  14272.800  0.500  1.306396  31.891711  8.636095  4.935999
  14282.802  14282.800  0.500  1.302891  33.805189  9.186389  5.251762
  14292.822  14292.800  0.500  1.300292  33.726201  9.188780  5.254499
  14302.812  14302.800  0.500  1.297875  33.626202  9.183705  5.255044
  14312.834  14312.800  0.500  1.295981  33.577842  9.187879  5.260180
  14322.843  14322.800  0.500  1.294385  33.498072  9.180698  5.258172
  14324.771  14324.800  0.500  1.294225  33.501587  9.183126  5.259773
  14326.736  14326.800  0.500  1.294152  33.462460  9.173074  5.254323
  14328.755  14328.800  0.500  1.294087  33.457696  9.172363  5.254312
  14330.766  14330.800  0.500  1.293925  33.441229  9.169329  5.251128
  14332.768  14332.800  0.500  1.294373  33.423759  9.160434  5.248202
  14334.761  14334.800  0.500  1.294385  33.425837  9.160895  5.246577
  14336.765  14336.800  0.500  1.294798  33.399578  9.149918  5.239067
  14338.751  14338.800  0.500  1.295107  33.387642  9.143830  5.232304
  14340.764  14340.800  0.500  1.296091  33.371183  9.130333  5.224790
  14342.760  14342.800  0.500  1.297184  33.352051  9.115124  5.212979
  14343.039  14343.100  0.500  1.297388  33.345004  9.111340  5.210558
  14343.336  14343.400  0.500  1.297578  33.341029  9.108520  5.208049
  14343.632  14343.700  0.500  1.297837  33.328856  9.102843  5.204583
  14343.947  14344.000  0.500  1.298141  33.320001  9.097655  5.202414
  14344.235  14344.300  0.500  1.298185  33.317251  9.096505  5.199026
  14344.550  14344.600  0.500  1.298542  33.307488  9.090598  5.196347
  14344.856  14344.900  0.500  1.298719  33.317762  9.091792  5.196212
  14345.153  14345.200  0.500  1.299198  33.312673  9.086044  5.192221
  14345.449  14345.500  0.500  1.299460  33.310347  9.083031  5.189974
  14345.755  14345.800  0.500  1.299893  33.316227  9.080701  5.188108
  14346.079  14346.100  0.500  1.300245  33.318998  9.078265  5.186200
  14346.358  14346.400  0.500  1.300463  33.314674  9.075102  5.182494
  14346.664  14346.700  0.500  1.300927  33.317783  9.071741  5.179626
  14346.979  14347.000  0.500  1.301379  33.324205  9.069389  5.178250
  14347.276  14347.300  0.500  1.301646  33.312526  9.063787  5.172619
  14347.564  14347.600  0.500  1.302145  33.317430  9.060607  5.170269
  14347.879  14347.900  0.500  1.302589  33.312676  9.055292  5.165957
  14348.167  14348.200  0.500  1.303210  33.320694  9.051849  5.162785
  14348.446  14348.500  0.500  1.303617  33.307701  9.044633  5.158294
  14348.761  14348.800  0.500  1.304369  33.302811  9.036506  5.152272
  14349.076  14349.100  0.500  1.305072  33.309119  9.031867  5.148633
  14349.364  14349.400  0.500  1.305470  33.313175  9.029375  5.145572
  14349.661  14349.700  0.500  1.305974  33.306487  9.023008  5.140216
  14349.967  14350.000  0.500  1.306839  33.285966  9.009659  5.130970
  14350.246  14350.300  0.500  1.307635  33.291675  9.004035  5.126272
  14350.561  14350.600  0.500  1.308434  33.284080  8.994785  5.118929
  14350.867  14350.900  0.500  1.309224  33.281119  8.986885  5.112841
  14351.164  14351.200  0.500  1.310146  33.283124  8.979142  5.106790
  14351.452  14351.500  0.500  1.311021  33.282264  8.971054  5.100545
  14351.767  14351.800  0.500  1.311974  33.281624  8.962342  5.092185
  14352.073  14352.100  0.500  1.312910  33.283878  8.954566  5.085083
  14352.379  14352.400  0.500  1.314166  33.272135  8.940166  5.074775
  14352.686  14352.700  0.500  1.315325  33.276467  8.930971  5.066750
  14352.983  14353.000  0.500  1.316524  33.266517  8.917601  5.056708
  14353.280  14353.300  0.500  1.317799  33.259813  8.904444  5.046490
  14353.586  14353.600  0.500  1.319432  33.262985  8.890763  5.034894
  14353.874  14353.900  0.500  1.320841  33.256670  8.876565  5.022977
  14354.190  14354.200  0.500  1.322376  33.245869  8.860073  5.011415
  14354.505  14354.500  0.500  1.324312  33.259418  8.846537  4.999413
  14354.793  14354.800  0.500  1.325731  33.251061  8.831768  4.985431
  14355.099  14355.100  0.500  1.327715  33.248572  8.813608  4.972478
  14355.406  14355.400  0.500  1.329878  33.243336  8.793175  4.957488
  14355.685  14355.700  0.500  1.331728  33.252596  8.779373  4.945936
  14356.000  14356.000  0.500  1.334203  33.235181  8.753084  4.927229
  14356.316  14356.300  0.500  1.336271  33.237015  8.735482  4.912719
  14356.604  14356.600  0.500  1.338528  33.228154  8.713466  4.895409
  14356.901  14356.900  0.500  1.340949  33.220951  8.690507  4.876576
  14357.190  14357.200  0.500  1.343376  33.230648  8.671972  4.862097
  14357.487  14357.500  0.500  1.345814  33.214472  8.646645  4.843795
  14357.802  14357.800  0.500  1.348671  33.202109  8.618770  4.822783
  14358.082  14358.100  0.500  1.351109  33.183306  8.592911  4.803914
  14358.388  14358.400  0.500  1.353743  33.157801  8.563722  4.782625
  14358.676  14358.700  0.500  1.356278  33.141112  8.537746  4.763749
  14358.956  14359.000  0.500  1.359016  33.129006  8.511288  4.744121
  14359.298  14359.300  0.500  1.362027  33.119860  8.483358  4.724571
  14359.578  14359.600  0.500  1.364480  33.115023  8.461332  4.708236
  14359.893  14359.900  0.500  1.367369  33.109921  8.435630  4.689103
  14360.173  14360.200  0.500  1.370151  33.116242  8.413796  4.672595
  14360.479  14360.500  0.500  1.373026  33.128689  8.392796  4.655099
  14360.804  14360.800  0.500  1.375979  33.138628  8.370556  4.638900
  14361.083  14361.100  0.500  1.378596  33.154328  8.352636  4.624322
  14361.399  14361.400  0.500  1.381366  33.163416  8.331818  4.607884
  14361.687  14361.700  0.500  1.383852  33.176977  8.314531  4.595237
  14361.994  14362.000  0.500  1.386592  33.169838  8.289990  4.576372
  14362.309  14362.300  0.500  1.389253  33.172713  8.268680  4.559332
  14362.580  14362.600  0.500  1.391591  33.175052  8.249950  4.544377
  14362.905  14362.900  0.500  1.394171  33.176945  8.229162  4.527893
  14363.202  14363.200  0.500  1.396481  33.169191  8.208252  4.512444
  14363.518  14363.500  0.500  1.398757  33.176969  8.191519  4.499799
  14363.815  14363.800  0.500  1.401059  33.173228  8.171755  4.484015
  14364.104  14364.100  0.500  1.403037  33.172467  8.155420  4.469406
  14364.411  14364.400  0.500  1.405253  33.165449  8.135651  4.456944
  14364.708  14364.700  0.500  1.406923  33.153710  8.119201  4.442262
  14365.006  14365.000  0.500  1.408849  33.156136  8.104168  4.427835
  14365.313  14365.300  0.500  1.410738  33.148595  8.087033  4.417258
  14365.601  14365.600  0.500  1.412244  33.150671  8.075375  4.405695
  14365.908  14365.900  0.500  1.414070  33.147358  8.059831  4.394700
  14366.179  14366.200  0.500  1.415510  33.143709  8.047351  4.385213
  14366.504  14366.500  0.500  1.417001  33.119219  8.029424  4.372100
  14366.783  14366.800  0.500  1.418470  33.116293  8.016926  4.362662
  14367.081  14367.100  0.500  1.419677  33.105705  8.004696  4.352464
  14367.388  14367.400  0.500  1.420884  33.091162  7.991531  4.343916
  14367.677  14367.700  0.500  1.421869  33.082661  7.981614  4.335152
  14367.992  14368.000  0.500  1.423120  33.068812  7.968299  4.327348
  14368.281  14368.300  0.500  1.423824  33.059712  7.960500  4.320650
  14368.597  14368.600  0.500  1.424889  33.059291  7.951921  4.314394
  14368.895  14368.900  0.500  1.425786  33.064513  7.946048  4.310832
  14369.175  14369.200  0.500  1.426424  33.066671  7.941495  4.307880
  14369.500  14369.500  0.500  1.427235  33.076320  7.937376  4.304397
  14369.779  14369.800  0.500  1.427399  33.076261  7.936056  4.300899
  14370.095  14370.100  0.500  1.428207  33.087500  7.932346  4.299934
  14370.420  14370.400  0.500  1.428510  33.087251  7.929881  4.297563
  14370.691  14370.700  0.500  1.428962  33.089925  7.926940  4.296273
  14371.007  14371.000  0.500  1.429417  33.103499  7.926581  4.297112
  14371.323  14371.300  0.500  1.429708  33.097387  7.922817  4.293977
  14371.603  14371.600  0.500  1.429911  33.094022  7.920400  4.295023
  14371.919  14371.900  0.500  1.430154  33.090583  7.917650  4.292620
  14372.208  14372.200  0.500  1.430583  33.093948  7.915063  4.292361
  14372.515  14372.500  0.500  1.430686  33.097214  7.915024  4.293571
  14372.813  14372.800  0.500  1.430783  33.086068  7.911597  4.292044
  14373.093  14373.100  0.500  1.430905  33.082627  7.909809  4.291262
  14373.409  14373.400  0.500  1.430926  33.075712  7.907984  4.291062
  14373.698  14373.700  0.500  1.431344  33.076212  7.904803  4.291289
  14374.014  14374.000  0.500  1.431346  33.071333  7.903618  4.291553
  14374.312  14374.300  0.500  1.431331  33.068070  7.902960  4.292308
  14374.601  14374.600  0.500  1.431462  33.064221  7.901005  4.291104
  14374.899  14374.900  0.500  1.431582  33.062864  7.899734  4.292745
  14375.198  14375.200  0.500  1.431645  33.048586  7.895826  4.292744
  14375.478  14375.500  0.500  1.431645  33.041734  7.894187  4.291727
  14375.803  14375.800  0.500  1.431488  33.026982  7.891898  4.292219
  14376.092  14376.100  0.500  1.431387  33.013335  7.889433  4.291617
  14376.372  14376.400  0.500  1.431615  32.998228  7.884024  4.290149
  14376.688  14376.700  0.500  1.431400  32.993651  7.884628  4.291332
  14376.968  14377.000  0.500  1.431365  32.985331  7.882920  4.292182
  14377.294  14377.300  0.500  1.431177  32.989581  7.885415  4.295226
  14377.592  14377.600  0.500  1.431204  32.982503  7.883512  4.295773
  14377.782  14377.800  0.500  1.431431  32.988692  7.883198  4.296608
  14378.812  14378.790  0.500  1.431225  33.009328  7.889756  4.304721
  14379.806  14379.790  0.500  1.431013  33.023365  7.894786  4.309940
  14380.846  14380.810  0.500  1.430709  33.013083  7.894728  4.310843
  14381.885  14381.860  0.500  1.430666  33.008832  7.894050  4.312172
  14382.943  14382.920  0.500  1.430761  32.999142  7.890981  4.310074
  14383.992  14384.000  0.500  1.430914  32.988201  7.887155  4.307421
  14385.114  14385.100  0.500  1.431129  32.954195  7.877336  4.299214
  14386.227  14386.220  0.500  1.431245  32.917978  7.867762  4.290402
  14387.367  14387.360  0.500  1.431566  32.923186  7.866484  4.285167
  14388.525  14388.510  0.500  1.431760  32.950142  7.871399  4.282450
  14389.702  14389.690  0.500  1.431865  32.957358  7.872293  4.278584
  14390.906  14390.880  0.500  1.431894  32.953708  7.871191  4.273684
  14392.092  14392.100  0.500  1.431282  32.931002  7.870587  4.269541
  14393.333  14393.330  0.500  1.430659  32.921716  7.873271  4.270435
  14394.574  14394.580  0.500  1.429414  32.923009  7.883391  4.275254
  14395.887  14395.850  0.500  1.427723  32.900035  7.891216  4.280195
  14397.165  14397.140  0.500  1.425924  32.898074  7.904961  4.291304
  14398.479  14398.450  0.500  1.423972  32.878882  7.915786  4.300421
  14399.793  14399.780  0.500  1.421833  32.876943  7.932264  4.314044
  14401.153  14401.130  0.500  1.419907  32.864840  7.944634  4.327098
  14402.477  14402.500  0.500  1.418501  32.851437  7.952567  4.336263
  14403.873  14403.880  0.500  1.417098  32.838297  7.960548  4.342148
  14405.270  14405.290  0.500  1.416444  32.828576  7.963398  4.345702
  14406.685  14406.710  0.500  1.415936  32.816039  7.964394  4.348473
  14408.137  14408.150  0.500  1.415593  32.820579  7.968234  4.350880
  14409.599  14409.610  0.500  1.415552  32.789844  7.961099  4.345882
  14411.069  14411.090  0.500  1.415583  32.706209  7.940547  4.336218
  14412.540  14412.590  0.500  1.415470  32.624560  7.921615  4.324626
  14414.084  14414.110  0.500  1.415755  32.715816  7.941510  4.336761
  14415.637  14415.650  0.500  1.416049  32.741500  7.945409  4.338829
  14417.200  14417.210  0.500  1.415940  32.736953  7.945169  4.336844
  14418.763  14418.780  0.500  1.416105  32.733564  7.943042  4.336381
  14420.363  14420.380  0.500  1.416065  32.706451  7.936778  4.331060
  14422.091  14421.990  0.500  1.416302  32.609783  7.911441  4.316189
  14423.846  14423.630  0.500  1.416661  32.530902  7.889475  4.303566
  14425.183  14425.280  0.500  1.416891  32.771445  7.945982  4.334343
  14426.930  14426.950  0.500  1.417255  32.774234  7.943766  4.331079
  14428.668  14428.640  0.500  1.418026  32.752606  7.932408  4.325318
  14430.397  14430.350  0.500  1.418391  32.736849  7.925694  4.320271
  14432.082  14432.080  0.500  1.418812  32.695552  7.912367  4.313638
  14433.812  14433.830  0.500  1.419096  32.555794  7.876308  4.294160
  14435.561  14435.590  0.500  1.419044  32.668990  7.904106  4.311160
  14437.374  14437.380  0.500  1.418685  32.707954  7.916375  4.320708
  14439.170  14439.180  0.500  1.418034  32.694370  7.918238  4.325030
  14441.029  14441.010  0.500  1.416952  32.673652  7.921788  4.329261
  14442.853  14442.850  0.500  1.415677  32.661625  7.928973  4.336037
  14444.723  14444.710  0.500  1.413925  32.592899  7.926169  4.338617
  14446.593  14446.590  0.500  1.412343  32.492775  7.914326  4.333283
  14448.500  14448.490  0.500  1.410405  32.615933  7.959734  4.358263
  14450.426  14450.410  0.500  1.408741  32.606949  7.970795  4.364587
  14452.353  14452.350  0.500  1.407587  32.595615  7.977224  4.371716
  14454.298  14454.310  0.500  1.406019  32.571000  7.983714  4.374661
  14456.271  14456.280  0.500  1.404598  32.563695  7.993273  4.380169
  14458.300  14458.280  0.500  1.403499  32.544943  7.997448  4.382639
  14460.311  14460.290  0.500  1.402480  32.525259  8.000768  4.385138
  14462.350  14462.320  0.500  1.401467  32.513833  8.006059  4.389869
  14464.389  14464.380  0.500  1.400272  32.502332  8.012796  4.393621
  14466.457  14466.450  0.500  1.399574  32.484482  8.013989  4.397007
  14468.552  14468.540  0.500  1.398636  32.466626  8.017098  4.399298
  14470.630  14470.650  0.500  1.397668  32.454404  8.021840  4.403334
  14472.773  14472.780  0.500  1.396790  32.435261  8.024156  4.406910
  14474.916  14474.920  0.500  1.396313  32.428876  8.026402  4.408304
  14477.087  14477.090  0.500  1.395613  32.406021  8.026362  4.408769
  14479.305  14479.280  0.500  1.395191  32.385749  8.024722  4.408046
  14481.496  14481.480  0.500  1.394793  32.333232  8.014905  4.401723
  14483.715  14483.700  0.500  1.394764  32.345157  8.018088  4.405469
  14485.944  14485.950  0.500  1.394528  32.337602  8.018109  4.405955
  14488.202  14488.210  0.500  1.394397  32.328676  8.016949  4.405494
  14490.496  14490.490  0.500  1.394211  32.314486  8.014917  4.403440
  14492.801  14492.790  0.500  1.394264  32.294630  8.009566  4.401521
  14495.115  14495.110  0.500  1.394208  32.276433  8.005504  4.401250
  14497.468  14497.450  0.500  1.394159  32.260844  8.002032  4.400186
  14499.830  14499.800  0.500  1.394015  32.247144  7.999785  4.399751
  14502.174  14502.180  0.500  1.393593  32.231395  7.999254  4.401489
  14504.584  14504.570  0.500  1.393266  32.211328  7.996886  4.401094
  14506.976  14506.990  0.500  1.392822  32.198418  7.997228  4.403330
  14509.442  14509.420  0.500  1.391910  32.181598  8.000349  4.407194
  14511.872  14511.870  0.500  1.391004  32.169488  8.004585  4.411364
  14514.368  14514.350  0.500  1.389816  32.142962  8.007493  4.414629
  14516.855  14516.840  0.500  1.388644  32.089600  8.003574  4.412127
  14519.362  14519.350  0.500  1.387442  32.117487  8.020160  4.423337
  14521.860  14521.870  0.500  1.386406  32.095746  8.023039  4.427534
  14524.406  14524.420  0.500  1.385250  32.089589  8.030778  4.432588
  14526.998  14526.990  0.500  1.383754  32.052842  8.033593  4.434057
  14529.573  14529.570  0.500  1.382726  32.039669  8.038549  4.439198
  14532.186  14532.180  0.500  1.381413  32.022447  8.044783  4.444351
  14534.818  14534.800  0.500  1.380129  31.994861  8.048185  4.447387
  14537.451  14537.450  0.500  1.379112  31.978864  8.052341  4.451806
  14540.094  14540.110  0.500  1.378182  31.965333  8.056428  4.454008
  14542.775  14542.790  0.500  1.377140  31.948665  8.060619  4.457522
  14545.485  14545.490  0.500  1.376468  31.935504  8.062717  4.459364
  14548.224  14548.210  0.500  1.375406  31.906566  8.063968  4.457891
  14550.945  14550.950  0.500  1.374673  31.845687  8.054480  4.453916
  14553.686  14553.700  0.500  1.373980  31.875046  8.067496  4.461492
  14556.484  14556.480  0.500  1.373323  31.852138  8.067002  4.462084
  14559.273  14559.270  0.500  1.372128  31.827891  8.070496  4.464168
  14562.110  14562.090  0.500  1.371837  31.809637  8.068219  4.465171
  14564.910  14564.920  0.500  1.370968  31.789257  8.070059  4.465616
  14567.768  14567.770  0.500  1.370076  31.770890  8.072593  4.468085
  14570.664  14570.650  0.500  1.369472  31.753723  8.073106  4.470961
  14573.551  14573.540  0.500  1.368675  31.738274  8.075606  4.473493
  14576.468  14576.450  0.500  1.367961  31.708908  8.073900  4.474354
  14579.404  14579.370  0.500  1.367106  31.690757  8.076180  4.476741
  14582.305  14582.320  0.500  1.366433  31.664284  8.074866  4.479469
  14585.300  14585.290  0.500  1.365684  31.645230  8.076053  4.483969
  14588.286  14588.270  0.500  1.364654  31.621458  8.078305  4.488433
  14591.293  14591.280  0.500  1.363703  31.603588  8.081423  4.490935
  14594.300  14594.300  0.500  1.362655  31.576793  8.083039  4.493819
  14597.356  14597.350  0.500  1.361704  31.562274  8.087008  4.497702
  14600.412  14600.410  0.500  1.360834  31.540075  8.088350  4.500840
  14603.527  14603.490  0.500  1.359820  31.516228  8.090433  4.502462
  14606.605  14606.590  0.500  1.358749  31.496749  8.094099  4.506278
