# XDI/1.0 BlueSky/1.10.0 BMM/2023-1.0-py310-tiled
# Beamline.name: BMM (06BM) -- Beamline for Materials Measurement (NIST)
# Beamline.xray_source: NSLS-II three-pole wiggler
# Beamline.collimation: paraboloid mirror, 5 nm Rh on 30 nm Pt
# Beamline.focusing: not in use
# Beamline.harmonic_rejection: flat mirror, Pt stripe, pitch = 7.0 mrad relative to beam
# Beamline.software: Bluesky 1.10.0, Ophyd 1.7.0, DataBroker 2.0.0b13, Python 3.10.8, 2023-1.0-py310-tiled
# Detector.I0: 10 cm N2
# Detector.I1: 25 cm N2
# Detector.I2: 25 cm N2
# Element.symbol: Au
# Element.edge: L1
# Element.reference: Au
# Element.reference_material: Au foil
# Facility.name: NSLS-II
# Facility.energy: 3.0
# Facility.current: 399.3
# Facility.mode: top-off
# Facility.GUP: 301027
# Facility.SAF: 310583
# Facility.cycle: 2023-2
# Mono.name: Si(111)
# Mono.d_spacing: 3.1351860
# Mono.encoder_resolution: 0.0000050 deg/ct
# Mono.angle_offset: 16.0754326 deg
# Mono.scan_mode: pseudo channel cut
# Mono.scan_type: step
# Mono.direction: forward in energy
# Sample.name: Au foil
# Sample.prep: reference foil
# Sample.x: 109.138 mm
# Sample.y: 153.150 mm
# Sample.SDD_position: 205.000 mm
# Scan.experimenters: Bruce Ravel
# Scan.edge_energy: 14352.8
# Scan.start_time: 2023-05-28T21:16:02
# Scan.end_time: 2023-05-28T21:23:30
# Scan.transient_id: 79022
# Scan.uid: 98e7ac45-160f-475e-a7c4-6604776e5a9e
# Scan.plot_hint: ln(It/Ir)  --  ln($6/$7)
# Column.1: energy eV
# Column.2: requested_energy eV
# Column.3: measurement_time seconds
# Column.4: xmu 
# Column.5: I0 nA
# Column.6: It nA
# Column.7: Ir nA
# ///////////
# Welcome to BMM
# -----------
# energy  requested_energy  measurement_time  xmu  I0  It  Ir
  14152.730  14152.800  0.500  0.594283  33.799154  60.563495  33.428526
  14162.795  14162.800  0.500  0.593173  33.505284  60.054764  33.184531
  14172.786  14172.800  0.500  0.592425  33.813551  60.610589  33.516722
  14182.810  14182.800  0.500  0.591612  33.698970  60.419461  33.438199
  14192.838  14192.800  0.500  0.590809  33.599404  60.248665  33.370483
  14202.820  14202.800  0.500  0.589934  33.512560  60.103952  33.319458
  14212.771  14212.800  0.500  0.589140  33.480650  60.053735  33.318073
  14222.870  14222.800  0.500  0.588132  33.480632  60.072407  33.362033
  14232.912  14232.800  0.500  0.586899  33.522686  60.150730  33.446748
  14242.746  14242.800  0.500  0.585737  33.466878  60.066110  33.438514
  14252.790  14252.800  0.500  0.584701  33.383124  59.933144  33.399095
  14262.785  14262.800  0.500  0.583552  33.303550  59.792962  33.359275
  14272.778  14272.800  0.500  0.582660  32.442710  58.258417  32.532138
  14282.802  14282.800  0.500  0.582146  33.187503  59.613713  33.306066
  14292.768  14292.800  0.500  0.581576  33.124855  59.506924  33.265375
  14302.767  14302.800  0.500  0.580927  33.059290  59.391641  33.222464
  14312.798  14312.800  0.500  0.580315  32.966260  59.234895  33.155076
  14322.816  14322.800  0.500  0.580004  32.921443  59.165615  33.126591
  14324.744  14324.800  0.500  0.579909  32.900392  59.131585  33.110676
  14326.727  14326.800  0.500  0.579972  32.859566  59.060705  33.068922
  14328.728  14328.800  0.500  0.579880  32.865119  59.069242  33.076739
  14330.739  14330.800  0.500  0.579997  32.822697  58.997618  33.032773
  14332.732  14332.800  0.500  0.580003  32.826340  58.999860  33.033810
  14334.735  14334.800  0.500  0.580161  32.828480  59.017850  33.038690
  14336.747  14336.800  0.500  0.580226  32.799917  58.961125  33.004761
  14338.751  14338.800  0.500  0.580583  32.786722  58.938805  32.980518
  14340.746  14340.800  0.500  0.581034  32.757143  58.889756  32.938214
  14342.751  14342.800  0.500  0.581450  32.731643  58.840587  32.897029
  14343.030  14343.100  0.500  0.581609  32.751927  58.880990  32.914363
  14343.327  14343.400  0.500  0.581701  32.737686  58.856151  32.897457
  14343.614  14343.700  0.500  0.581907  32.737019  58.854281  32.889623
  14343.929  14344.000  0.500  0.581914  32.720440  58.825554  32.873358
  14344.226  14344.300  0.500  0.582013  32.717823  58.825661  32.870169
  14344.559  14344.600  0.500  0.582170  32.700862  58.794632  32.847649
  14344.838  14344.900  0.500  0.582301  32.709876  58.813019  32.853641
  14345.126  14345.200  0.500  0.582402  32.705069  58.798554  32.842237
  14345.431  14345.500  0.500  0.582635  32.720221  58.831115  32.852758
  14345.746  14345.800  0.500  0.582834  32.709497  58.806124  32.832264
  14346.043  14346.100  0.500  0.582959  32.719520  58.825826  32.839163
  14346.322  14346.400  0.500  0.583162  32.719102  58.826102  32.832662
  14346.628  14346.700  0.500  0.583411  32.709234  58.809114  32.815016
  14346.952  14347.000  0.500  0.583480  32.709577  58.809024  32.812674
  14347.258  14347.300  0.500  0.583825  32.702222  58.797954  32.795188
  14347.564  14347.600  0.500  0.584013  32.711954  58.815063  32.798560
  14347.843  14347.900  0.500  0.584270  32.699595  58.798086  32.780667
  14348.149  14348.200  0.500  0.584410  32.692171  58.781184  32.766679
  14348.446  14348.500  0.500  0.584775  32.701823  58.804420  32.767658
  14348.770  14348.800  0.500  0.585057  32.694622  58.783326  32.746670
  14349.049  14349.100  0.500  0.585300  32.687444  58.777693  32.735572
  14349.364  14349.400  0.500  0.585611  32.699547  58.798871  32.737195
  14349.661  14349.700  0.500  0.586000  32.678000  58.763805  32.704954
  14349.994  14350.000  0.500  0.586353  32.663491  58.730313  32.674773
  14350.282  14350.300  0.500  0.586704  32.669224  58.744451  32.671174
  14350.561  14350.600  0.500  0.587151  32.666596  58.737261  32.652570
  14350.867  14350.900  0.500  0.587441  32.666426  58.738105  32.643574
  14351.200  14351.200  0.500  0.588111  32.652808  58.719530  32.611379
  14351.488  14351.500  0.500  0.588586  32.656485  58.717913  32.594986
  14351.785  14351.800  0.500  0.588947  32.666437  58.732823  32.591508
  14352.091  14352.100  0.500  0.589391  32.659430  58.719332  32.569558
  14352.397  14352.400  0.500  0.590040  32.662127  58.727751  32.553081
  14352.713  14352.700  0.500  0.590672  32.649300  58.708969  32.522107
  14353.001  14353.000  0.500  0.591323  32.638192  58.694129  32.492740
  14353.280  14353.300  0.500  0.591781  32.647765  58.700246  32.481239
  14353.604  14353.600  0.500  0.592596  32.636178  58.679320  32.443218
  14353.901  14353.900  0.500  0.593364  32.639024  58.685866  32.421912
  14354.208  14354.200  0.500  0.594217  32.625107  58.673286  32.387323
  14354.496  14354.500  0.500  0.595014  32.619674  58.662498  32.355594
  14354.793  14354.800  0.500  0.595830  32.630780  58.677632  32.337531
  14355.099  14355.100  0.500  0.596667  32.634250  58.684265  32.314133
  14355.415  14355.400  0.500  0.597620  32.619355  58.659368  32.269640
  14355.694  14355.700  0.500  0.598454  32.620013  58.662100  32.244254
  14356.000  14356.000  0.500  0.599281  32.618750  58.651855  32.211959
  14356.298  14356.300  0.500  0.600307  32.613726  58.651076  32.178516
  14356.604  14356.600  0.500  0.601169  32.616728  58.652883  32.151769
  14356.883  14356.900  0.500  0.602110  32.595009  58.610723  32.098461
  14357.190  14357.200  0.500  0.603220  32.581530  58.595660  32.054604
  14357.496  14357.500  0.500  0.604125  32.561804  58.555009  32.003373
  14357.802  14357.800  0.500  0.605135  32.535413  58.510888  31.946995
  14358.100  14358.100  0.500  0.606031  32.509299  58.467661  31.894802
  14358.379  14358.400  0.500  0.606893  32.524092  58.488935  31.878918
  14358.685  14358.700  0.500  0.607945  32.502801  58.451960  31.825263
  14359.001  14359.000  0.500  0.608876  32.517753  58.472969  31.807084
  14359.289  14359.300  0.500  0.609640  32.497912  58.437623  31.763552
  14359.569  14359.600  0.500  0.610624  32.513449  58.470390  31.750127
  14359.875  14359.900  0.500  0.611595  32.517119  58.481409  31.725268
  14360.209  14360.200  0.500  0.612602  32.526386  58.492822  31.699525
  14360.488  14360.500  0.500  0.613592  32.545403  58.527870  31.687158
  14360.786  14360.800  0.500  0.614544  32.543556  58.530452  31.658379
  14361.074  14361.100  0.500  0.615426  32.551063  58.540460  31.635876
  14361.390  14361.400  0.500  0.616412  32.567505  58.563663  31.617245
  14361.678  14361.700  0.500  0.617400  32.541257  58.523772  31.564488
  14361.967  14362.000  0.500  0.618271  32.541135  58.516185  31.532930
  14362.264  14362.300  0.500  0.619280  32.545872  58.531086  31.509142
  14362.598  14362.600  0.500  0.620326  32.542535  58.526181  31.473581
  14362.896  14362.900  0.500  0.621342  32.542917  58.526662  31.441879
  14363.193  14363.200  0.500  0.622226  32.549472  58.539036  31.420733
  14363.491  14363.500  0.500  0.623102  32.525438  58.500804  31.372699
  14363.797  14363.800  0.500  0.624028  32.528629  58.502334  31.344487
  14364.104  14364.100  0.500  0.624924  32.542409  58.532775  31.332706
  14364.384  14364.400  0.500  0.625827  32.511571  58.473928  31.272962
  14364.690  14364.700  0.500  0.626633  32.532473  58.504628  31.264186
  14365.006  14365.000  0.500  0.627560  32.515326  58.488945  31.226832
  14365.322  14365.300  0.500  0.628355  32.507618  58.472689  31.193355
  14365.619  14365.600  0.500  0.628926  32.500016  58.462850  31.170305
  14365.908  14365.900  0.500  0.629633  32.503326  58.457045  31.145175
  14366.215  14366.200  0.500  0.630227  32.492606  58.437413  31.116221
  14366.513  14366.500  0.500  0.630749  32.473828  58.402325  31.081317
  14366.792  14366.800  0.500  0.631181  32.457032  58.373649  31.052631
  14367.099  14367.100  0.500  0.631697  32.449475  58.363131  31.031017
  14367.415  14367.400  0.500  0.632145  32.444901  58.352386  31.011424
  14367.713  14367.700  0.500  0.632474  32.436299  58.337916  30.993514
  14368.011  14368.000  0.500  0.632757  32.440034  58.342422  30.987133
  14368.317  14368.300  0.500  0.632822  32.433376  58.334609  30.980984
  14368.606  14368.600  0.500  0.633092  32.449087  58.367154  30.989885
  14368.922  14368.900  0.500  0.633093  32.461527  58.383630  30.998603
  14369.211  14369.200  0.500  0.633217  32.464355  58.394163  31.000364
  14369.491  14369.500  0.500  0.633376  32.474247  58.414878  31.006418
  14369.807  14369.800  0.500  0.633364  32.463249  58.392132  30.994738
  14370.123  14370.100  0.500  0.633310  32.468466  58.404151  31.002769
  14370.402  14370.400  0.500  0.633198  32.482357  58.424081  31.016846
  14370.691  14370.700  0.500  0.633210  32.493808  58.455494  31.033130
  14371.007  14371.000  0.500  0.633115  32.451980  58.373284  30.992454
  14371.314  14371.300  0.500  0.633002  32.468649  58.397630  31.008861
  14371.585  14371.600  0.500  0.632873  32.464625  58.392966  31.010389
  14371.883  14371.900  0.500  0.632679  32.454789  58.379314  31.009165
  14372.190  14372.200  0.500  0.632548  32.444352  58.363847  31.004995
  14372.515  14372.500  0.500  0.632306  32.444113  58.360606  31.010798
  14372.795  14372.800  0.500  0.632030  32.454109  58.376202  31.027639
  14373.075  14373.100  0.500  0.631888  32.436349  58.343777  31.014806
  14373.382  14373.400  0.500  0.631575  32.434836  58.339267  31.022108
  14373.689  14373.700  0.500  0.631267  32.423070  58.326410  31.024823
  14373.969  14374.000  0.500  0.631031  32.425046  58.326639  31.032268
  14374.276  14374.300  0.500  0.630794  32.412127  58.303727  31.027446
  14374.601  14374.600  0.500  0.630535  32.404304  58.288675  31.027478
  14374.908  14374.900  0.500  0.630180  32.401656  58.280467  31.034124
  14375.188  14375.200  0.500  0.629960  32.388399  58.264177  31.032264
  14375.459  14375.500  0.500  0.629585  32.377965  58.243928  31.033124
  14375.776  14375.800  0.500  0.629294  32.360897  58.207365  31.022651
  14376.092  14376.100  0.500  0.628875  32.343517  58.176750  31.019343
  14376.381  14376.400  0.500  0.628630  32.335511  58.170923  31.023820
  14376.688  14376.700  0.500  0.628348  32.340299  58.183037  31.039039
  14376.986  14377.000  0.500  0.627977  32.346139  58.189904  31.054238
  14377.312  14377.300  0.500  0.627640  32.348943  58.190210  31.064846
  14377.592  14377.600  0.500  0.627475  32.358242  58.206098  31.078455
  14377.782  14377.800  0.500  0.627259  32.368242  58.224982  31.095250
  14378.812  14378.790  0.500  0.626568  32.378738  58.247428  31.128741
  14379.833  14379.790  0.500  0.626022  32.380529  58.250259  31.147277
  14380.837  14380.810  0.500  0.625781  32.385719  58.265875  31.163114
  14381.894  14381.860  0.500  0.625632  32.371235  58.234257  31.150845
  14382.952  14382.920  0.500  0.626008  32.354932  58.208557  31.125394
  14384.029  14384.000  0.500  0.626552  32.322050  58.146232  31.075167
  14385.105  14385.100  0.500  0.627423  32.291495  58.097561  31.022133
  14386.218  14386.220  0.500  0.628276  32.272364  58.061046  30.976206
  14387.349  14387.360  0.500  0.629300  32.298288  58.108571  30.969835
  14388.507  14388.510  0.500  0.630467  32.312896  58.135030  30.947787
  14389.702  14389.690  0.500  0.631556  32.321590  58.158728  30.926691
  14390.870  14390.880  0.500  0.632341  32.309812  58.135395  30.890031
  14392.119  14392.100  0.500  0.632744  32.288343  58.103426  30.860613
  14393.360  14393.330  0.500  0.632786  32.279943  58.084838  30.849433
  14394.610  14394.580  0.500  0.632575  32.284414  58.096002  30.861895
  14395.887  14395.850  0.500  0.631987  32.278738  58.084316  30.873809
  14397.183  14397.140  0.500  0.631262  32.256777  58.047462  30.876615
  14398.488  14398.450  0.500  0.630060  32.246217  58.028452  30.903638
  14399.784  14399.780  0.500  0.629031  32.253345  58.042645  30.943012
  14401.125  14401.130  0.500  0.627989  32.324450  58.172157  31.044378
  14402.486  14402.500  0.500  0.627198  32.304568  58.137977  31.050699
  14403.873  14403.880  0.500  0.626715  32.307793  58.146291  31.070134
  14405.315  14405.290  0.500  0.626284  32.291555  58.120017  31.069480
  14406.740  14406.710  0.500  0.626045  32.291745  58.108722  31.070870
  14408.201  14408.150  0.500  0.626150  32.283559  58.106309  31.066322
  14409.617  14409.610  0.500  0.626085  32.246181  58.039907  31.032822
  14411.105  14411.090  0.500  0.626024  32.109505  57.795652  30.904112
  14412.604  14412.590  0.500  0.626013  32.151187  57.877220  30.948079
  14414.111  14414.110  0.500  0.626231  32.212041  57.986287  30.999634
  14415.646  14415.650  0.500  0.626226  32.234875  58.029141  31.022697
  14417.218  14417.210  0.500  0.626358  32.200399  57.965432  30.984563
  14418.818  14418.780  0.500  0.626467  32.189543  57.946122  30.970869
  14420.399  14420.380  0.500  0.626659  32.159270  57.891898  30.935930
  14422.027  14421.990  0.500  0.626741  32.034369  57.670072  30.814857
  14423.664  14423.630  0.500  0.626831  32.101637  57.794611  30.878644
  14425.301  14425.280  0.500  0.627051  32.178635  57.931710  30.945088
  14426.948  14426.950  0.500  0.627158  32.146742  57.880154  30.914222
  14428.641  14428.640  0.500  0.627281  32.129117  57.841895  30.890002
  14430.343  14430.350  0.500  0.627306  32.113615  57.818791  30.876884
  14432.136  14432.080  0.500  0.627221  32.009371  57.630151  30.778773
  14433.858  14433.830  0.500  0.626822  31.982826  57.586690  30.767822
  14435.616  14435.590  0.500  0.626423  32.094061  57.786762  30.887029
  14437.401  14437.380  0.500  0.625899  32.073140  57.752124  30.884699
  14439.170  14439.180  0.500  0.625250  32.071323  57.760323  30.909157
  14441.002  14441.010  0.500  0.624527  32.052923  57.723641  30.911851
  14442.844  14442.850  0.500  0.623911  32.030335  57.678226  30.906559
  14444.741  14444.710  0.500  0.623480  31.877189  57.403309  30.772502
  14446.602  14446.590  0.500  0.623092  31.971939  57.580603  30.879544
  14448.509  14448.490  0.500  0.622676  32.006104  57.637942  30.923151
  14450.426  14450.410  0.500  0.622534  31.991242  57.617767  30.916707
  14452.334  14452.350  0.500  0.622362  31.968197  57.581497  30.902568
  14454.316  14454.310  0.500  0.622155  31.962215  57.564503  30.899833
  14456.299  14456.280  0.500  0.622079  31.940775  57.531719  30.884587
  14458.272  14458.280  0.500  0.622005  31.921092  57.503075  30.871495
  14460.302  14460.290  0.500  0.621663  31.911728  57.482966  30.871269
  14462.359  14462.320  0.500  0.621325  31.904968  57.461399  30.870121
  14464.398  14464.380  0.500  0.621177  31.881657  57.432325  30.859052
  14466.447  14466.450  0.500  0.620802  31.863256  57.401599  30.854102
  14468.552  14468.540  0.500  0.620620  31.861772  57.402239  30.860079
  14470.685  14470.650  0.500  0.620297  31.861816  57.401560  30.869675
  14472.818  14472.780  0.500  0.620061  31.816688  57.327704  30.837225
  14474.943  14474.920  0.500  0.619949  31.804688  57.306524  30.829308
  14477.096  14477.090  0.500  0.619718  31.801152  57.298023  30.831860
  14479.268  14479.280  0.500  0.619775  31.771548  57.247868  30.803100
  14481.478  14481.480  0.500  0.619679  31.714249  57.149137  30.752927
  14483.715  14483.700  0.500  0.619568  31.743632  57.204473  30.786125
  14485.999  14485.950  0.500  0.619582  31.759539  57.236277  30.802823
  14488.238  14488.210  0.500  0.619509  31.716817  57.157816  30.762837
  14490.487  14490.490  0.500  0.619288  31.703344  57.137523  30.758717
  14492.783  14492.790  0.500  0.619037  31.687846  57.110686  30.751991
  14495.097  14495.110  0.500  0.618927  31.662361  57.071897  30.734473
  14497.477  14497.450  0.500  0.618487  31.651264  57.044295  30.733139
  14499.830  14499.800  0.500  0.618256  31.633419  57.019100  30.726651
  14502.211  14502.180  0.500  0.617848  31.619453  57.001291  30.729577
  14504.565  14504.570  0.500  0.617472  31.600571  56.961828  30.719846
  14506.976  14506.990  0.500  0.617127  31.596855  56.965122  30.732223
  14509.433  14509.420  0.500  0.616574  31.573501  56.921333  30.725598
  14511.891  14511.870  0.500  0.616391  31.547859  56.876324  30.706938
  14514.377  14514.350  0.500  0.615931  31.518330  56.829827  30.695928
  14516.865  14516.840  0.500  0.615662  31.507983  56.815044  30.696210
  14519.344  14519.350  0.500  0.615354  31.507761  56.806048  30.700807
  14521.907  14521.870  0.500  0.615044  31.486476  56.777485  30.694890
  14524.461  14524.420  0.500  0.614835  31.464475  56.736890  30.679332
  14527.007  14526.990  0.500  0.614380  31.450496  56.709882  30.678702
  14529.582  14529.570  0.500  0.614008  31.425081  56.674117  30.670764
  14532.176  14532.180  0.500  0.613488  31.427409  56.672229  30.685679
  14534.827  14534.800  0.500  0.613110  31.387279  56.605706  30.661252
  14537.488  14537.450  0.500  0.612951  31.379786  56.595566  30.660636
  14540.150  14540.110  0.500  0.612719  31.357319  56.551979  30.644137
  14542.812  14542.790  0.500  0.612630  31.353293  56.551917  30.646821
  14545.495  14545.490  0.500  0.612739  31.321536  56.496972  30.613701
  14548.215  14548.210  0.500  0.612660  31.279701  56.425219  30.577255
  14550.982  14550.950  0.500  0.612599  31.257927  56.383696  30.556614
  14553.732  14553.700  0.500  0.612536  31.272652  56.413641  30.574769
  14556.493  14556.480  0.500  0.612416  31.246966  56.373672  30.556754
  14559.254  14559.270  0.500  0.612163  31.229566  56.341145  30.546858
  14562.110  14562.090  0.500  0.611983  31.208440  56.310187  30.535565
  14564.938  14564.920  0.500  0.611711  31.184310  56.262962  30.518261
  14567.805  14567.770  0.500  0.611284  31.167867  56.239356  30.518502
  14570.654  14570.650  0.500  0.610958  31.153024  56.208868  30.511897
  14573.533  14573.540  0.500  0.610534  31.122882  56.164675  30.500822
  14576.496  14576.450  0.500  0.610005  31.108016  56.144810  30.506182
  14579.395  14579.370  0.500  0.609441  31.101089  56.128552  30.514560
  14582.333  14582.320  0.500  0.608992  31.060093  56.062436  30.492300
  14585.281  14585.290  0.500  0.608413  31.041941  56.022766  30.488360
