# XDI/1.0 BlueSky/1.10.0 BMM/2023-1.0-py310-tiled
# Beamline.name: BMM (06BM) -- Beamline for Materials Measurement (NIST)
# Beamline.xray_source: NSLS-II three-pole wiggler
# Beamline.collimation: paraboloid mirror, 5 nm Rh on 30 nm Pt
# Beamline.focusing: not in use
# Beamline.harmonic_rejection: flat mirror, Si stripe, pitch = 7.0 mrad relative to beam
# Beamline.software: Bluesky 1.10.0, Ophyd 1.7.0, DataBroker 2.0.0b13, Python 3.10.8, 2023-1.0-py310-tiled
# Detector.I0: 10 cm N2
# Detector.I1: 25 cm N2
# Detector.I2: 25 cm N2
# Detector.fluorescence: SII Vortex ME4 (4-element silicon drift)
# Detector.deadtime_correction: Xspress3
# Element.symbol: Ce
# Element.edge: L3
# Element.reference: Ce
# Element.reference_material: CeO2
# Facility.name: NSLS-II
# Facility.energy: 3.0
# Facility.current: 400.6
# Facility.mode: top-off
# Facility.GUP: 123456
# Facility.SAF: 301027
# Facility.cycle: 2023-2
# Mono.name: Si(111)
# Mono.d_spacing: 3.1351860
# Mono.encoder_resolution: 0.0000050 deg/ct
# Mono.angle_offset: 16.0754326 deg
# Mono.scan_mode: pseudo channel cut
# Mono.scan_type: step
# Mono.direction: forward in energy
# Sample.name: Ce0.67TiO3
# Sample.prep: Powder in PEG pellet
# Sample.x: 142.329 mm
# Sample.y: 114.126 mm
# Sample.SDD_position: 45.000 mm
# Scan.experimenters: Bruce Ravel
# Scan.edge_energy: 5723.4
# Scan.start_time: 2023-05-06T10:47:23
# Scan.end_time: 2023-05-06T10:53:06
# Scan.transient_id: 74737
# Scan.uid: 3d018239-c5a4-4d74-8871-dddef20aeb52
# Scan.plot_hint: (Ce1+Ce2+Ce3+Ce4)/I0  --  ($8+$9+$10+$11)/$5
# Column.1: energy eV
# Column.2: requested_energy eV
# Column.3: measurement_time seconds
# Column.4: xmu 
# Column.5: I0 nA
# Column.6: It nA
# Column.7: Ir nA
# Column.8: Ce1 
# Column.9: Ce2 
# Column.10: Ce3 
# Column.11: Ce4 
# ///////////
# sample courtesy Martin Stennett, University of Sheffield
# -----------
# energy  requested_energy  measurement_time  xmu  I0  It  Ir  Ce1  Ce2  Ce3  Ce4
  5523.403  5523.400  0.500  148.163899  109.049819  1.198621  0.088680  4029.682907  4139.489078  3983.548708  4004.525728
  5533.410  5533.400  0.500  152.130910  109.412538  1.234993  0.092623  4066.265335  4363.569467  4121.616193  4093.577874
  5543.411  5543.400  0.500  151.616974  109.781473  1.269952  0.096755  4112.923713  4369.614463  4049.600406  4112.596103
  5553.415  5553.400  0.500  151.532887  110.133306  1.307283  0.100829  4125.953152  4369.614463  4215.688282  3977.561893
  5563.413  5563.400  0.500  152.098318  110.491520  1.344737  0.105253  4203.681559  4373.620208  4130.652162  4097.620306
  5573.407  5573.400  0.500  154.041421  110.768756  1.383915  0.109643  4244.906359  4450.689148  4279.749887  4087.631174
  5583.411  5583.400  0.500  154.800279  110.996121  1.421176  0.114266  4258.046632  4514.743933  4244.755848  4164.684099
  5593.407  5593.400  0.500  156.868100  111.209401  1.459199  0.118574  4259.865230  4671.823062  4264.772124  4248.747090
  5603.408  5603.400  0.500  157.164605  111.388714  1.499097  0.123529  4228.957850  4484.747145  4409.846077  4382.812079
  5613.403  5613.400  0.500  158.015321  111.562770  1.537419  0.128537  4374.202291  4544.792807  4409.846077  4299.785813
  5623.559  5623.400  0.500  159.146520  111.672019  1.577251  0.133566  4445.650043  4594.840463  4438.914287  4292.808350
  5633.385  5633.400  0.500  160.297468  111.833559  1.619419  0.138857  4470.001556  4608.853566  4340.876566  4506.904736
  5643.388  5643.400  0.500  162.079374  112.004231  1.660933  0.144259  4471.821308  4621.862957  4628.005667  4431.885772
  5653.391  5653.400  0.500  164.196049  112.092493  1.702386  0.149539  4596.349516  4678.884304  4527.957894  4601.952729
  5663.396  5663.400  0.500  164.417081  112.158492  1.743135  0.155511  4624.822076  4770.969695  4520.010054  4524.969951
  5673.397  5673.400  0.500  170.437520  112.238145  1.785661  0.160949  4745.379853  4968.069946  4759.109243  4657.031985
  5683.398  5683.400  0.500  173.462534  112.277223  1.826088  0.166871  4745.379853  5192.198247  4905.240352  4633.073190
  5693.395  5693.400  0.500  177.829451  112.270741  1.865083  0.172312  4933.372467  5221.227245  4938.269017  4872.175432
  5695.393  5695.400  0.500  180.546707  112.273444  1.872624  0.173623  4961.834117  5280.240802  5066.310497  4962.215263
  5697.392  5697.400  0.500  184.910836  112.301540  1.879800  0.174436  5173.847533  5332.271548  5205.382119  5054.270384
  5699.389  5699.400  0.500  185.680755  112.280415  1.886645  0.175798  5049.218208  5435.343312  5152.383757  5211.366879
  5701.389  5701.400  0.500  190.691159  112.280449  1.892558  0.176634  5390.757768  5531.371161  5270.411747  5218.348394
  5703.404  5703.400  0.500  193.105932  112.282169  1.898073  0.177455  5339.005790  5550.383612  5441.536443  5351.427012
  5705.389  5705.400  0.500  198.194573  112.257041  1.901369  0.178179  5530.203700  5875.546756  5426.522254  5416.463550
  5707.390  5707.400  0.500  204.452578  112.291229  1.904566  0.178877  5713.331251  5974.652148  5644.652712  5625.595094
  5709.397  5709.400  0.500  211.846004  112.306298  1.905029  0.179322  5713.331251  6370.825461  5871.770896  5835.712884
  5711.403  5711.400  0.500  224.173436  112.314970  1.902629  0.179503  6066.211851  6669.974809  6256.949690  6184.896395
  5713.401  5713.400  0.500  240.313470  112.293748  1.893367  0.178969  6730.284265  7168.228212  6635.162991  6452.024879
  5713.892  5713.900  0.500  245.677998  112.305219  1.890665  0.178707  6798.088793  7168.228212  6825.330087  6799.274369
  5714.389  5714.400  0.500  250.747412  112.300178  1.887707  0.178456  6939.919696  7103.265016  7150.466377  6965.328043
  5714.890  5714.900  0.500  259.219295  112.340589  1.882819  0.178177  7137.450770  7629.478279  7259.521603  7094.397694
  5715.389  5715.400  0.500  267.232505  112.367827  1.875697  0.177421  7620.612045  7801.589511  7379.646662  7226.487512
  5715.888  5715.900  0.500  273.688879  112.361172  1.868313  0.176747  7564.880413  8014.717426  7595.736923  7576.668443
  5716.390  5716.400  0.500  287.675074  112.346216  1.855682  0.175644  7919.318335  8510.975690  7987.030666  7901.881415
  5716.889  5716.900  0.500  301.441903  112.345068  1.843053  0.174636  8395.065788  8744.102733  8393.199968  8333.142625
  5717.389  5717.400  0.500  318.560683  112.376465  1.827618  0.173055  8726.340720  9374.483816  8893.483662  8804.415206
  5717.890  5717.900  0.500  332.987874  112.341655  1.806453  0.171027  9247.223953  9766.740287  9311.824003  9082.620569
  5718.389  5718.400  0.500  355.831835  112.388196  1.786163  0.169124  9864.118241  10409.062968  9934.126023  9783.990827
  5718.892  5718.900  0.500  374.753730  112.378735  1.762389  0.166728  10544.080116  10409.062968  10737.710598  10423.496585
  5719.393  5719.400  0.500  404.763396  112.359198  1.738489  0.164430  11285.121682  11676.850102  11517.139228  10999.779575
  5719.894  5719.900  0.500  431.777448  112.359584  1.713623  0.161884  11820.545143  12723.631875  12069.647678  11900.509894
  5720.392  5720.400  0.500  462.662139  112.350048  1.680755  0.158701  12876.059672  13497.006634  12796.060885  12810.986170
  5720.893  5720.900  0.500  502.783135  112.351684  1.639561  0.154675  13944.833210  14689.903535  14045.037997  13808.757090
  5721.393  5721.400  0.500  549.088498  112.363529  1.589015  0.149937  15313.702819  15872.836011  15342.083688  15168.898858
  5721.896  5721.900  0.500  612.861391  112.351071  1.523686  0.143721  17154.624288  17818.282040  17008.482781  16874.244381
  5722.393  5722.400  0.500  691.629136  112.343988  1.445626  0.136376  19379.029913  19879.985146  19263.281820  19178.078386
  5722.893  5722.900  0.500  741.513478  112.355918  1.354088  0.127534  22036.342533  19879.985146  22219.021210  19178.078386
  5723.395  5723.400  0.500  912.287510  112.358219  1.244117  0.117170  25283.428886  26521.842570  25672.145121  25025.583648
  5723.894  5723.900  0.500  1043.097416  112.333324  1.131889  0.106217  29257.882978  30248.981935  29216.257736  28451.477367
  5724.398  5724.400  0.500  1177.123794  112.336999  1.016962  0.095082  32444.886927  34315.370504  33122.444202  32351.852434
  5724.895  5724.900  0.500  1241.275858  112.329510  0.917336  0.085168  32444.886927  34315.370504  36585.143186  36086.508518
  5725.394  5725.400  0.500  1419.425006  112.316153  0.840285  0.077477  39189.144495  40988.881538  40220.907312  39025.422467
  5725.894  5725.900  0.500  1491.311320  112.317512  0.787885  0.072168  41181.807480  43340.419115  42093.755826  40884.395013
  5726.399  5726.400  0.500  1522.244290  112.330433  0.763789  0.069261  42599.002023  44053.212866  42597.632944  41744.512547
  5726.895  5726.900  0.500  1521.202188  112.328566  0.764666  0.068851  42199.299605  44251.598543  42797.014245  41626.548368
  5727.395  5727.400  0.500  1477.171507  112.301264  0.788462  0.070577  40774.381340  43030.656127  41327.295919  40755.894373
  5727.900  5727.900  0.500  1419.222661  112.301741  0.829627  0.073960  39117.636522  41194.176737  40058.804655  39010.557595
  5728.398  5728.400  0.500  1339.675445  112.302303  0.882306  0.078405  37055.140517  38791.796666  37777.433903  36824.266648
  5728.898  5728.900  0.500  1259.068269  112.315036  0.941506  0.083452  34856.127269  36673.245079  35240.300626  34642.625278
  5729.394  5729.400  0.500  1183.083290  112.315494  0.999472  0.088236  32589.096704  34592.693452  33284.877611  32411.916639
  5729.900  5729.900  0.500  1149.380278  112.304857  1.058413  0.093299  32589.096704  34592.693452  31211.359751  30687.838377
  5730.401  5730.400  0.500  1042.124156  112.302100  1.114258  0.097877  28714.184246  30311.775222  29153.113425  28853.658335
  5730.898  5730.900  0.500  983.396758  112.301218  1.166045  0.102290  27364.913304  28687.938117  27453.211108  26930.591384
  5731.398  5731.400  0.500  928.280802  112.280821  1.217743  0.106645  25704.205807  26858.227336  26099.633883  25566.063751
  5731.901  5731.900  0.500  878.874231  112.264461  1.265137  0.111046  24211.666223  25579.963993  24556.922221  24317.789655
  5732.402  5732.400  0.500  829.318629  112.247328  1.310226  0.115293  23132.014785  24344.849714  23089.724722  22522.210979
  5732.905  5732.900  0.500  790.354907  112.253354  1.351332  0.119429  21812.213403  23049.650358  22192.823181  21665.301846
  5733.400  5733.400  0.500  758.710874  112.280415  1.384156  0.122839  21112.023686  22097.817213  21135.916453  20842.614433
  5733.899  5733.900  0.500  734.692037  112.251404  1.410505  0.125573  20368.829993  21467.170109  20301.184640  20333.027914
  5734.405  5734.400  0.500  713.605174  112.235715  1.430487  0.127788  19986.147827  20518.460348  19939.884191  19647.494366
  5734.905  5734.900  0.500  710.802902  112.235627  1.441268  0.129024  19596.613360  20688.605050  19946.793409  19545.397679
  5735.404  5735.400  0.500  709.034685  112.239552  1.446283  0.129313  19631.188908  20543.424149  19795.718288  19611.404246
  5735.902  5735.900  0.500  714.598754  112.232118  1.446303  0.129010  19892.951956  20783.734714  20072.866742  19451.378404
  5736.399  5736.400  0.500  717.459642  112.212141  1.441604  0.128357  19980.618617  20782.630644  19965.823084  19778.610381
  5736.902  5736.900  0.500  722.961831  112.187160  1.435355  0.127694  20338.700069  20884.775217  20086.923459  19796.635731
  5737.400  5737.400  0.500  734.542604  112.201353  1.429570  0.127021  20204.065137  21497.304682  20807.485367  19907.818679
  5737.905  5737.900  0.500  741.151034  112.154562  1.423318  0.126472  20372.651965  21774.444631  20616.288780  20360.084444
  5738.404  5738.400  0.500  747.817927  112.151060  1.418941  0.126160  20767.147619  21649.386357  20890.701726  20561.337661
  5738.903  5738.900  0.500  752.627561  112.159301  1.415828  0.125921  20670.236802  21825.482146  21179.966107  20738.496131
  5739.401  5739.400  0.500  758.508985  112.152551  1.413571  0.125996  21157.393354  21965.847270  21153.962182  20791.515041
  5739.905  5739.900  0.500  756.732043  112.168509  1.411568  0.126169  20804.921696  21991.893379  21205.977958  20878.711609
  5740.403  5740.400  0.500  763.087292  112.162271  1.410889  0.126678  21267.782540  21997.838290  21361.238906  20962.743736
  5740.904  5740.900  0.500  768.429652  112.180810  1.410839  0.127202  21166.870149  22558.192487  21353.140622  21124.857416
  5741.402  5741.400  0.500  766.551640  112.173795  1.410851  0.127779  21319.057780  22190.059067  21384.042404  21093.847093
  5741.903  5741.900  0.500  766.767425  112.157771  1.411712  0.128439  21270.996507  22074.875715  21541.206464  21111.846770
  5742.400  5742.400  0.500  771.862044  112.149149  1.413293  0.129246  21300.939286  22415.230309  21517.376874  21330.124846
  5742.904  5742.900  0.500  768.189965  112.144269  1.415274  0.130007  20935.595172  22295.088824  21556.323676  21361.094088
  5743.403  5743.400  0.500  770.384822  112.110769  1.417624  0.130701  21322.936871  22206.106429  21651.463216  21187.928452
  5743.899  5743.900  0.500  767.201690  112.108628  1.420026  0.131230  21207.650484  22448.242849  21461.246550  20892.789278
  5744.400  5744.400  0.500  767.749869  112.115096  1.422678  0.131850  21400.146883  22302.110545  21222.122299  21151.970385
  5744.900  5744.900  0.500  767.094415  112.122157  1.425279  0.132335  21202.067808  22193.015999  21632.382328  20980.814330
  5745.397  5745.400  0.500  769.019833  112.103148  1.427625  0.132778  21195.383754  22218.889583  21667.443014  21127.827672
  5745.904  5745.900  0.500  766.124603  112.472029  1.434718  0.133867  21444.423338  22186.105371  21406.122728  21130.936947
  5746.405  5746.400  0.500  764.479486  112.478160  1.435906  0.134048  21465.278362  22186.105371  21406.122728  20929.739888
  5746.901  5746.900  0.500  766.742290  112.464895  1.436393  0.134406  21415.571517  22456.187258  21332.022643  21027.810051
  5747.397  5747.400  0.500  770.675906  112.435184  1.436308  0.134380  21384.305695  22689.512780  21518.349550  21058.918930
  5747.904  5747.900  0.500  770.698256  112.411996  1.435868  0.134567  21615.461170  22329.123170  21684.372441  21006.772602
  5748.402  5748.400  0.500  779.579990  112.401879  1.434220  0.134614  21690.198726  22474.223936  21815.490979  21646.341822
  5749.394  5749.390  0.500  784.118660  112.382180  1.429820  0.134400  21670.476416  22889.548024  21736.466744  21824.473484
  5750.401  5750.390  0.500  793.529703  112.360668  1.422915  0.133943  21829.173987  22956.673906  22306.927278  22068.752449
  5751.417  5751.410  0.500  808.729921  112.402646  1.415306  0.133376  22559.993189  23483.119607  22549.260253  22311.009772
  5752.475  5752.460  0.500  818.397642  112.283449  1.403013  0.132486  22851.076284  23569.318879  23111.906235  22360.208337
  5753.515  5753.520  0.500  834.252115  112.345974  1.394594  0.131802  23016.381278  24325.814212  23281.945265  23100.725283
  5754.596  5754.600  0.500  846.796390  112.328733  1.387126  0.131135  23598.948215  24518.194881  23673.386762  23329.035839
  5755.693  5755.700  0.500  853.694972  112.309056  1.381698  0.130608  23657.510568  24707.228943  23890.616566  23622.320705
  5756.819  5756.820  0.500  858.072926  112.291848  1.379218  0.130558  23657.510568  25046.897263  24026.725650  23623.461463
  5757.961  5757.960  0.500  861.837228  112.270670  1.380585  0.130756  24046.248847  25177.808075  23913.628386  23621.357834
  5759.114  5759.110  0.500  865.591692  112.258023  1.385386  0.131283  24108.209059  25107.865581  24248.069474  23705.467640
  5760.298  5760.290  0.500  854.525257  112.241582  1.394834  0.132283  23787.958671  24721.457074  23785.516707  23618.333893
  5761.486  5761.480  0.500  850.067360  112.212750  1.407425  0.133424  23481.247901  24874.535347  23515.375564  23517.236932
  5762.705  5762.700  0.500  839.017075  112.217784  1.419850  0.134785  23348.096406  24053.915875  23498.497164  23252.127137
  5763.935  5763.930  0.500  828.189770  112.140932  1.432027  0.135860  23104.844831  24024.784884  23272.990333  22471.353031
  5765.186  5765.180  0.500  821.321238  112.167930  1.445353  0.137276  22793.862482  24005.786205  22990.950590  22335.304192
  5766.458  5766.450  0.500  814.278405  112.157052  1.457149  0.138355  22766.211677  23590.429910  22799.500282  22170.923843
  5767.747  5767.740  0.500  804.877494  112.163837  1.468764  0.139363  22484.269553  23446.105153  22364.980104  21982.793360
  5769.058  5769.050  0.500  798.585845  112.161004  1.479307  0.140690  22024.183226  23036.905454  22545.329738  21963.771774
  5770.391  5770.380  0.500  794.037803  112.142713  1.489083  0.141890  21787.008336  23203.030923  22355.062882  21700.450911
  5771.736  5771.730  0.500  794.377569  112.108401  1.496783  0.142790  21972.915190  22997.825548  22301.022009  21784.636047
  5773.108  5773.100  0.500  787.921563  112.092426  1.505370  0.143737  21851.681004  22875.827540  22148.078453  21444.452528
  5774.485  5774.480  0.500  786.877742  112.089892  1.513857  0.144959  21696.859248  23014.781243  21872.859367  21616.540946
  5775.901  5775.890  0.500  789.041172  112.067977  1.521042  0.145987  21696.859248  23014.781243  21959.892141  21754.715473
  5777.318  5777.310  0.500  789.479590  112.060011  1.527275  0.146828  21789.560596  22913.939889  21914.913687  21850.677686
  5778.756  5778.750  0.500  789.962059  112.036890  1.533551  0.148048  22028.586465  22688.670494  22145.039844  21642.595806
  5780.218  5780.210  0.500  780.495883  112.016434  1.539224  0.148748  21803.756801  22589.591182  21683.678806  21351.338530
  5781.699  5781.690  0.500  787.296285  111.998302  1.545172  0.149771  21803.756801  22751.674830  22070.938755  21549.476977
  5783.194  5783.190  0.500  787.907383  111.984952  1.551204  0.150725  21896.469584  22981.907789  21894.908831  21460.484256
  5784.718  5784.710  0.500  782.258306  111.980755  1.556102  0.151719  21642.975188  22839.856756  21929.794976  21185.248707
  5786.257  5786.250  0.500  786.371551  111.948549  1.558739  0.152237  21642.975188  22823.700175  22018.957518  21547.521452
  5787.815  5787.810  0.500  787.690611  111.921644  1.558313  0.152530  21530.179684  23003.908258  22211.128040  21414.411938
  5789.386  5789.380  0.500  801.050020  111.891558  1.555249  0.152497  22105.317145  23369.296958  22323.328913  21832.791756
  5790.990  5790.980  0.500  813.048334  111.843361  1.550379  0.152281  22412.717032  23382.352853  22662.631592  22476.356450
  5792.594  5792.590  0.500  813.128543  111.832328  1.545040  0.152086  22412.717032  23382.352853  22662.631592  22476.356450
  5794.237  5794.230  0.500  839.443086  111.812586  1.538465  0.151508  23315.008945  24375.176586  23322.318670  22847.798153
  5795.890  5795.880  0.500  853.231410  111.785058  1.534016  0.151618  23518.025527  24759.593260  23818.645110  23282.259210
  5797.556  5797.550  0.500  855.755882  111.826761  1.532584  0.151720  23390.231419  24779.659365  24327.298581  23199.219198
  5799.246  5799.240  0.500  859.467076  111.778196  1.533328  0.152215  23829.448231  24997.867311  23851.924178  23390.439430
  5800.962  5800.950  0.500  856.220509  111.739848  1.538413  0.153115  24001.216751  24774.674595  23792.876928  23105.181180
  5802.687  5802.680  0.500  857.613066  111.712094  1.547236  0.154264  23642.029538  24894.539932  23922.924319  23346.257794
  5804.438  5804.430  0.500  851.256013  111.671777  1.559316  0.155772  23221.917600  24600.446629  23891.707516  23347.199498
  5806.197  5806.190  0.500  842.031655  111.642642  1.573295  0.157415  23221.917600  24411.215760  23178.366289  23195.139221
  5807.984  5807.980  0.500  841.188617  111.621740  1.586586  0.158820  23074.385583  24677.404305  23085.174671  23057.972301
  5809.789  5809.780  0.500  832.172184  111.582345  1.598838  0.160065  22952.675150  24007.011476  23409.463920  22486.573118
