# XDI/1.0 BlueSky/1.10.0 BMM/2023-1.0-py310-tiled
# Beamline.name: BMM (06BM) -- Beamline for Materials Measurement (NIST)
# Beamline.xray_source: NSLS-II three-pole wiggler
# Beamline.collimation: paraboloid mirror, 5 nm Rh on 30 nm Pt
# Beamline.focusing: not in use
# Beamline.harmonic_rejection: flat mirror, Pt stripe, pitch = 7.0 mrad relative to beam
# Beamline.software: Bluesky 1.10.0, Ophyd 1.7.0, DataBroker 2.0.0b13, Python 3.10.8, 2023-1.0-py310-tiled
# Detector.I0: 10 cm N2
# Detector.I1: 25 cm N2
# Detector.I2: 25 cm N2
# Element.symbol: Pt
# Element.edge: L3
# Element.reference: Pt
# Element.reference_material: Pt foil
# Facility.name: NSLS-II
# Facility.energy: 3.0
# Facility.current: 399.9
# Facility.mode: top-off
# Facility.GUP: 301027
# Facility.SAF: 310583
# Facility.cycle: 2023-2
# Mono.name: Si(111)
# Mono.d_spacing: 3.1351860
# Mono.encoder_resolution: 0.0000050 deg/ct
# Mono.angle_offset: 16.0754326 deg
# Mono.scan_mode: pseudo channel cut
# Mono.scan_type: step
# Mono.direction: forward in energy
# Sample.name: Pt(NH3)4Cl2.xH2O
# Sample.prep: powder on tape
# Sample.x: 119.711 mm
# Sample.y: 114.376 mm
# Sample.SDD_position: 205.000 mm
# Scan.experimenters: Bruce Ravel
# Scan.edge_energy: 11563.8
# Scan.start_time: 2023-06-27T17:22:11
# Scan.end_time: 2023-06-27T17:30:07
# Scan.transient_id: 85185
# Scan.uid: 25df2c66-ec7b-4417-9144-2e7879e5814c
# Scan.plot_hint: ln(I0/It)  --  ln($5/$6)
# Column.1: energy eV
# Column.2: requested_energy eV
# Column.3: measurement_time seconds
# Column.4: xmu 
# Column.5: I0 nA
# Column.6: It nA
# Column.7: Ir nA
# ///////////
# sample courtesy Simon Bare and Shelly Kelly
# -----------
# energy  requested_energy  measurement_time  xmu  I0  It  Ir
  11363.784  11363.800  0.500  0.180242  71.906545  60.046849  24.991368
  11373.833  11373.800  0.500  0.178075  71.427883  59.776566  24.933280
  11383.850  11383.800  0.500  0.176049  71.361497  59.842094  25.014951
  11393.823  11393.800  0.500  0.173938  69.799538  58.655946  24.569922
  11403.836  11403.800  0.500  0.171689  71.052228  59.843077  25.116569
  11413.872  11413.800  0.500  0.169686  70.810018  59.758657  25.135575
  11423.842  11423.800  0.500  0.167740  70.724762  59.803025  25.207776
  11433.863  11433.800  0.500  0.165729  70.519511  59.749502  25.237876
  11443.834  11443.800  0.500  0.163827  70.355237  59.723767  25.278694
  11453.897  11453.800  0.500  0.161860  70.182140  59.694156  25.317182
  11463.800  11463.800  0.500  0.159996  69.988819  59.640774  25.345156
  11473.830  11473.800  0.500  0.158191  69.762257  59.555094  25.357094
  11483.843  11483.800  0.500  0.156421  69.745383  59.646211  25.436009
  11493.834  11493.800  0.500  0.154935  69.529953  59.550370  25.433524
  11503.842  11503.800  0.500  0.153597  69.340016  59.467220  25.422266
  11513.822  11513.800  0.500  0.152733  69.167038  59.370112  25.391617
  11523.843  11523.800  0.500  0.152706  68.985941  59.216265  25.305249
  11533.858  11533.800  0.500  0.154458  68.794419  58.948543  25.107840
  11535.762  11535.800  0.500  0.155353  68.730855  58.841374  25.035342
  11537.752  11537.800  0.500  0.156320  68.675296  58.737002  24.955526
  11539.750  11539.800  0.500  0.157415  68.631663  58.635408  24.861058
  11541.753  11541.800  0.500  0.158872  68.576725  58.503212  24.746531
  11543.764  11543.800  0.500  0.160864  68.525583  58.343195  24.602390
  11545.757  11545.800  0.500  0.163542  68.465576  58.136236  24.422313
  11547.757  11547.800  0.500  0.166698  68.388925  57.888154  24.189333
  11549.770  11549.800  0.500  0.171181  68.340794  57.588664  23.900980
  11551.771  11551.800  0.500  0.177399  68.287574  57.187119  23.513524
  11553.768  11553.800  0.500  0.185633  68.211778  56.655208  22.988578
  11554.046  11554.100  0.500  0.187076  68.191092  56.556379  22.893123
  11554.348  11554.400  0.500  0.188741  68.179301  56.452507  22.791101
  11554.644  11554.700  0.500  0.190474  68.149884  56.330434  22.679993
  11554.952  11555.000  0.500  0.192360  68.121094  56.200560  22.557937
  11555.242  11555.300  0.500  0.194320  68.116034  56.086377  22.438226
  11555.550  11555.600  0.500  0.196464  68.093165  55.947454  22.302815
  11555.869  11555.900  0.500  0.198909  68.076120  55.796849  22.157272
  11556.160  11556.200  0.500  0.201146  68.056293  55.655968  22.012537
  11556.456  11556.500  0.500  0.203937  68.136937  55.566613  21.882455
  11556.758  11556.800  0.500  0.206744  68.226844  55.483993  21.744840
  11557.071  11557.100  0.500  0.209642  68.214209  55.313163  21.566301
  11557.379  11557.400  0.500  0.213010  68.186851  55.105071  21.365412
  11557.670  11557.700  0.500  0.216322  68.142744  54.887339  21.158532
  11557.983  11558.000  0.500  0.220169  68.125948  54.663120  20.932364
  11558.291  11558.300  0.500  0.224183  68.124657  54.443118  20.702351
  11558.582  11558.600  0.500  0.228248  68.081193  54.187637  20.450806
  11558.884  11558.900  0.500  0.233006  68.048612  53.904616  20.173920
  11559.180  11559.200  0.500  0.237817  68.013414  53.618179  19.891010
  11559.482  11559.500  0.500  0.243359  68.008106  53.317697  19.579781
  11559.790  11559.800  0.500  0.249403  67.972813  52.968900  19.235619
  11560.081  11560.100  0.500  0.255931  67.940699  52.599354  18.870368
  11560.395  11560.400  0.500  0.263388  67.900847  52.177995  18.456855
  11560.685  11560.700  0.500  0.271039  67.865602  51.753406  18.036640
  11560.987  11561.000  0.500  0.280088  67.818527  51.251645  17.550004
  11561.272  11561.300  0.500  0.289456  67.776014  50.741939  17.057760
  11561.598  11561.600  0.500  0.300577  67.727516  50.144836  16.482351
  11561.871  11561.900  0.500  0.312109  67.652457  49.514930  15.897522
  11562.173  11562.200  0.500  0.325527  67.609129  48.823702  15.252651
  11562.475  11562.500  0.500  0.340508  67.539198  48.048005  14.556505
  11562.783  11562.800  0.500  0.357769  67.457494  47.168598  13.786289
  11563.074  11563.100  0.500  0.376506  67.385256  46.243479  13.005013
  11563.376  11563.400  0.500  0.397744  67.292709  45.209547  12.177133
  11563.679  11563.700  0.500  0.421369  67.202479  44.094757  11.328318
  11563.981  11564.000  0.500  0.448192  67.105800  42.865998  10.452912
  11564.289  11564.300  0.500  0.478133  67.002592  41.537549  9.579274
  11564.592  11564.600  0.500  0.511072  66.892957  40.125899  8.733037
  11564.894  11564.900  0.500  0.547982  66.797745  38.616779  7.912910
  11565.202  11565.200  0.500  0.589625  66.699798  36.987403  7.127146
  11565.505  11565.500  0.500  0.634775  66.611759  35.307891  6.411940
  11565.796  11565.800  0.500  0.685074  66.544127  33.541765  5.752634
  11566.098  11566.100  0.500  0.737733  66.482400  31.791667  5.184633
  11566.407  11566.400  0.500  0.795854  66.436873  29.976021  4.675921
  11566.692  11566.700  0.500  0.851391  66.416949  28.348139  4.278864
  11567.012  11567.000  0.500  0.909003  66.419614  26.762174  3.941945
  11567.285  11567.300  0.500  0.957638  66.413119  25.489240  3.709261
  11567.611  11567.600  0.500  1.002409  66.430764  24.379723  3.536787
  11567.890  11567.900  0.500  1.033873  66.446853  23.630289  3.444226
  11568.181  11568.200  0.500  1.055321  66.498108  23.146700  3.411918
  11568.484  11568.500  0.500  1.063434  66.526156  22.969369  3.438562
  11568.786  11568.800  0.500  1.059465  66.555982  23.071057  3.516514
  11569.083  11569.100  0.500  1.045676  66.604684  23.408495  3.636773
  11569.374  11569.400  0.500  1.025169  66.642861  23.907179  3.782807
  11569.700  11569.700  0.500  0.997777  66.647907  24.572949  3.966075
  11569.985  11570.000  0.500  0.970807  66.682529  25.257827  4.144371
  11570.288  11570.300  0.500  0.941879  66.716405  26.012364  4.338543
  11570.591  11570.600  0.500  0.914511  66.741435  26.744131  4.526788
  11570.899  11570.900  0.500  0.888138  66.746480  27.460917  4.711276
  11571.196  11571.200  0.500  0.863445  66.773506  28.158845  4.891910
  11571.493  11571.500  0.500  0.842062  66.784443  28.772149  5.052574
  11571.808  11571.800  0.500  0.821812  66.791965  29.364054  5.212037
  11572.105  11572.100  0.500  0.804997  66.807618  29.868978  5.347746
  11572.407  11572.400  0.500  0.789452  66.816632  30.340999  5.480425
  11572.699  11572.700  0.500  0.776631  66.804202  30.726787  5.592628
  11573.002  11573.000  0.500  0.765046  66.832554  31.098021  5.703534
  11573.304  11573.300  0.500  0.756146  66.819032  31.369673  5.792132
  11573.601  11573.600  0.500  0.748300  66.831446  31.622649  5.878263
  11573.898  11573.900  0.500  0.741548  66.829364  31.835905  5.954437
  11574.196  11574.200  0.500  0.735870  66.834638  32.019718  6.023032
  11574.487  11574.500  0.500  0.730901  66.844290  32.183840  6.088324
  11574.778  11574.800  0.500  0.726077  66.841941  32.338363  6.143148
  11575.099  11575.100  0.500  0.721213  66.833645  32.492000  6.198018
  11575.390  11575.400  0.500  0.716573  66.825734  32.639236  6.245667
  11575.693  11575.700  0.500  0.711398  66.837955  32.814598  6.294969
  11575.996  11576.000  0.500  0.706566  66.827657  32.968445  6.334936
  11576.299  11576.300  0.500  0.701131  66.821455  33.145060  6.374673
  11576.596  11576.600  0.500  0.695965  66.812809  33.312403  6.407364
  11576.911  11576.900  0.500  0.690720  66.802667  33.482504  6.437111
  11577.208  11577.200  0.500  0.685778  66.798730  33.646410  6.462019
  11577.511  11577.500  0.500  0.681048  66.786607  33.799784  6.478587
  11577.803  11577.800  0.500  0.676909  66.773999  33.933586  6.490532
  11578.112  11578.100  0.500  0.673174  66.774966  34.061054  6.494913
  11578.397  11578.400  0.500  0.670305  66.761626  34.152093  6.491606
  11578.718  11578.700  0.500  0.667957  66.755700  34.229311  6.481438
  11579.004  11579.000  0.500  0.666434  66.747951  34.277532  6.466926
  11579.301  11579.300  0.500  0.665372  66.736976  34.308284  6.447905
  11579.604  11579.600  0.500  0.664818  66.728138  34.322775  6.426413
  11579.907  11579.900  0.500  0.664860  66.712678  34.313376  6.400843
  11580.199  11580.200  0.500  0.665237  66.712267  34.300222  6.378123
  11580.496  11580.500  0.500  0.665808  66.704212  34.276511  6.357093
  11580.794  11580.800  0.500  0.666559  66.693425  34.245226  6.336761
  11581.091  11581.100  0.500  0.667357  66.689627  34.215955  6.323220
  11581.394  11581.400  0.500  0.668151  66.667405  34.177402  6.311366
  11581.686  11581.700  0.500  0.668952  66.668145  34.150425  6.309833
  11581.995  11582.000  0.500  0.669458  66.668400  34.133284  6.312669
  11582.299  11582.300  0.500  0.669864  66.670275  34.120401  6.321868
  11582.584  11582.600  0.500  0.669941  66.675728  34.120570  6.338476
  11582.900  11582.900  0.500  0.669861  66.681905  34.126430  6.361871
  11583.197  11583.200  0.500  0.669606  66.664384  34.126170  6.388163
  11583.506  11583.500  0.500  0.668998  66.686268  34.158128  6.424683
  11583.798  11583.800  0.500  0.668240  66.683066  34.182411  6.457017
  11584.107  11584.100  0.500  0.667125  66.691664  34.224963  6.498526
  11584.399  11584.400  0.500  0.665981  66.683717  34.260032  6.533633
  11584.714  11584.700  0.500  0.664799  66.688039  34.302789  6.571076
  11585.012  11585.000  0.500  0.663364  66.686830  34.351436  6.603505
  11585.304  11585.300  0.500  0.661692  66.685690  34.408311  6.635753
  11585.596  11585.600  0.500  0.660293  66.685448  34.456366  6.662276
  11585.917  11585.900  0.500  0.658634  66.679006  34.510240  6.684552
  11586.203  11586.200  0.500  0.657018  66.659642  34.556033  6.703252
  11586.506  11586.500  0.500  0.655494  66.675281  34.616826  6.720165
  11586.798  11586.800  0.500  0.653973  66.661066  34.662134  6.732545
  11587.090  11587.100  0.500  0.652636  66.662640  34.709320  6.743142
  11587.405  11587.400  0.500  0.651295  66.655736  34.752321  6.751671
  11587.686  11587.700  0.500  0.650165  66.656611  34.792055  6.759201
  11587.989  11588.000  0.500  0.649121  66.648379  34.824103  6.762365
  11588.293  11588.300  0.500  0.648304  66.641557  34.848983  6.764047
  11588.597  11588.600  0.500  0.647636  66.627877  34.865127  6.760379
  11588.778  11588.800  0.500  0.647475  66.621863  34.867591  6.756873
  11589.811  11589.790  0.500  0.648518  66.605458  34.822666  6.708571
  11590.805  11590.790  0.500  0.653390  66.571346  34.635690  6.600416
  11591.833  11591.810  0.500  0.661173  66.535498  34.348660  6.436065
  11592.885  11592.860  0.500  0.670293  66.492544  34.014836  6.243216
  11593.931  11593.920  0.500  0.678740  66.461459  33.712941  6.072501
  11595.007  11595.000  0.500  0.685796  66.433951  33.462067  5.954510
  11596.118  11596.100  0.500  0.691070  66.410837  33.274461  5.913243
  11597.235  11597.220  0.500  0.694586  66.414049  33.159280  5.947380
  11598.387  11598.360  0.500  0.697399  66.426333  33.072246  6.017501
  11599.522  11599.510  0.500  0.699731  66.416167  32.990155  6.085809
  11600.693  11600.690  0.500  0.703057  66.430460  32.887685  6.139567
  11601.898  11601.880  0.500  0.707394  66.409920  32.735245  6.158213
  11603.116  11603.100  0.500  0.712931  66.409268  32.554185  6.153208
  11604.352  11604.330  0.500  0.719401  66.395273  32.337406  6.133997
  11605.599  11605.580  0.500  0.726557  66.390381  32.104474  6.124043
  11606.859  11606.850  0.500  0.734608  66.377659  31.840929  6.115997
  11608.142  11608.140  0.500  0.743174  66.361403  31.561616  6.096925
  11609.455  11609.450  0.500  0.752096  66.341152  31.271731  6.054772
  11610.791  11610.780  0.500  0.759662  66.313601  31.023139  5.987434
  11612.146  11612.130  0.500  0.765201  66.277855  30.835140  5.908398
  11613.506  11613.500  0.500  0.768275  66.237176  30.721621  5.828394
  11614.891  11614.880  0.500  0.768955  66.205839  30.686220  5.757318
  11616.293  11616.290  0.500  0.766909  66.168260  30.731612  5.698744
  11617.719  11617.710  0.500  0.762662  66.132822  30.845880  5.657303
  11619.175  11619.150  0.500  0.756087  66.097546  31.032804  5.639276
  11620.626  11620.610  0.500  0.747564  66.064479  31.282768  5.655260
  11622.082  11622.090  0.500  0.738001  66.050244  31.576564  5.707357
  11623.592  11623.590  0.500  0.728636  66.040078  31.868758  5.779171
  11625.126  11625.110  0.500  0.719838  66.023540  32.142304  5.859321
  11626.660  11626.650  0.500  0.712311  66.009434  32.378229  5.934864
  11628.213  11628.210  0.500  0.706443  65.988628  32.558534  6.000071
  11629.777  11629.780  0.500  0.702124  65.979081  32.694737  6.056209
  11631.395  11631.380  0.500  0.698610  65.954208  32.797431  6.104280
  11633.013  11632.990  0.500  0.695924  65.934456  32.875802  6.140182
  11634.638  11634.630  0.500  0.693723  65.923447  32.942735  6.169726
  11636.269  11636.280  0.500  0.691975  65.897385  32.987345  6.200536
  11637.948  11637.950  0.500  0.690134  65.884003  33.041411  6.243698
  11639.644  11639.640  0.500  0.688108  65.850717  33.091690  6.297570
  11641.365  11641.350  0.500  0.686348  65.842598  33.145910  6.354746
  11643.045  11643.080  0.500  0.684700  65.828809  33.193606  6.409414
  11644.808  11644.830  0.500  0.683289  65.794860  33.223330  6.453499
  11646.578  11646.590  0.500  0.682412  65.774000  33.241943  6.483047
  11648.360  11648.380  0.500  0.681878  65.748744  33.246930  6.499432
  11650.154  11650.180  0.500  0.681611  65.711090  33.236781  6.505017
  11652.120  11652.010  0.500  0.682203  65.507125  33.113996  6.474384
  11653.815  11653.850  0.500  0.683076  65.618044  33.141125  6.461307
  11655.960  11655.710  0.500  0.684643  65.606916  33.083611  6.406047
  11657.680  11657.590  0.500  0.686579  65.575707  33.003918  6.344909
  11659.495  11659.490  0.500  0.688720  65.502112  32.896380  6.280185
  11661.435  11661.410  0.500  0.691260  65.322111  32.722736  6.208722
  11663.357  11663.350  0.500  0.693837  65.422852  32.688855  6.178725
  11665.316  11665.310  0.500  0.696349  65.420332  32.605594  6.152205
  11667.282  11667.280  0.500  0.698650  65.385775  32.513464  6.137529
  11669.271  11669.280  0.500  0.700811  65.198650  32.350442  6.112601
  11671.279  11671.290  0.500  0.702541  65.299917  32.344679  6.121965
  11673.312  11673.320  0.500  0.704133  65.311205  32.298828  6.127378
  11675.387  11675.380  0.500  0.705402  65.281808  32.243340  6.129091
  11677.457  11677.450  0.500  0.706402  65.396765  32.267819  6.144572
  11679.545  11679.540  0.500  0.707172  65.237247  32.164331  6.131411
  11681.658  11681.650  0.500  0.707440  65.368859  32.220601  6.140647
  11683.771  11683.780  0.500  0.707137  65.338796  32.215549  6.128215
  11685.909  11685.920  0.500  0.706438  65.298452  32.218175  6.114269
  11688.113  11688.090  0.500  0.705196  65.259851  32.239122  6.105023
  11690.277  11690.280  0.500  0.703742  65.231681  32.272092  6.106782
  11692.483  11692.480  0.500  0.701797  65.194989  32.316743  6.121272
  11694.707  11694.700  0.500  0.699883  65.162731  32.362648  6.150315
  11696.956  11696.950  0.500  0.697820  65.135127  32.415735  6.194475
  11699.218  11699.210  0.500  0.695622  65.104280  32.471680  6.248627
  11701.505  11701.490  0.500  0.693533  65.065196  32.520064  6.307106
  11703.793  11703.790  0.500  0.691319  64.648288  32.383291  6.329897
  11706.105  11706.110  0.500  0.689445  64.982780  32.611914  6.413152
  11708.454  11708.450  0.500  0.687557  64.967830  32.666003  6.447403
  11710.804  11710.800  0.500  0.685701  64.943309  32.714335  6.461086
  11713.197  11713.180  0.500  0.684101  64.907405  32.748609  6.458591
  11715.579  11715.570  0.500  0.682745  64.858553  32.768361  6.442299
  11717.985  11717.990  0.500  0.681547  64.820358  32.788345  6.417976
  11720.417  11720.420  0.500  0.680675  64.777439  32.795198  6.392848
  11722.892  11722.870  0.500  0.679893  64.736615  32.800166  6.366191
  11725.367  11725.350  0.500  0.679388  64.693440  32.794867  6.345689
  11727.844  11727.840  0.500  0.679040  64.644394  32.781419  6.325054
  11730.357  11730.350  0.500  0.678819  64.604754  32.768556  6.310226
  11732.884  11732.870  0.500  0.678822  64.563896  32.747708  6.295461
  11735.430  11735.420  0.500  0.678791  64.259465  32.594314  6.262472
  11738.006  11737.990  0.500  0.678934  64.469886  32.696372  6.283974
  11740.566  11740.570  0.500  0.679132  64.435191  32.672295  6.287368
  11743.188  11743.180  0.500  0.679237  64.395125  32.648556  6.290606
  11745.804  11745.800  0.500  0.679489  64.305263  32.594785  6.283161
  11748.457  11748.450  0.500  0.679713  64.158991  32.513353  6.261194
  11751.112  11751.110  0.500  0.679958  64.262301  32.557750  6.254492
  11753.780  11753.790  0.500  0.680198  64.220946  32.528988  6.231639
  11756.497  11756.490  0.500  0.680518  64.111346  32.463088  6.212590
  11759.216  11759.210  0.500  0.680654  64.015958  32.410372  6.212821
  11761.930  11761.950  0.500  0.680777  64.099575  32.448704  6.253230
  11764.711  11764.700  0.500  0.680977  64.057515  32.420946  6.300053
  11767.482  11767.480  0.500  0.681062  64.000281  32.389210  6.342908
  11770.278  11770.270  0.500  0.681072  63.757383  32.265951  6.359792
  11773.087  11773.090  0.500  0.680966  63.928604  32.356034  6.404791
  11775.934  11775.920  0.500  0.680590  63.835468  32.321043  6.415229
  11778.776  11778.770  0.500  0.680124  63.655555  32.244994  6.412956
  11781.650  11781.650  0.500  0.679533  63.807844  32.341236  6.442893
  11784.550  11784.540  0.500  0.678710  63.780148  32.353810  6.450558
  11787.469  11787.450  0.500  0.677672  63.737745  32.365879  6.455339
  11790.390  11790.370  0.500  0.676520  63.674429  32.371010  6.456112
  11793.312  11793.320  0.500  0.675393  63.643276  32.391652  6.457010
  11796.308  11796.290  0.500  0.674035  63.591050  32.409054  6.454607
  11799.276  11799.270  0.500  0.672624  63.537609  32.427528  6.442836
  11802.293  11802.280  0.500  0.671151  63.495660  32.453893  6.423930
