# XDI/1.0 BlueSky/1.10.0 BMM/2023-1.0-py310-tiled
# Beamline.name: BMM (06BM) -- Beamline for Materials Measurement (NIST)
# Beamline.xray_source: NSLS-II three-pole wiggler
# Beamline.collimation: paraboloid mirror, 5 nm Rh on 30 nm Pt
# Beamline.focusing: not in use
# Beamline.harmonic_rejection: flat mirror, Pt stripe, pitch = 7.0 mrad relative to beam
# Beamline.software: Bluesky 1.10.0, Ophyd 1.7.0, DataBroker 2.0.0b13, Python 3.10.8, 2023-1.0-py310-tiled
# Detector.I0: 10 cm N2
# Detector.I1: 25 cm N2
# Detector.I2: 25 cm N2
# Element.symbol: Pt
# Element.edge: L1
# Element.reference: Pt
# Element.reference_material: Pt foil
# Facility.name: NSLS-II
# Facility.energy: 3.0
# Facility.current: 399.9
# Facility.mode: top-off
# Facility.GUP: 301027
# Facility.SAF: 310583
# Facility.cycle: 2023-2
# Mono.name: Si(111)
# Mono.d_spacing: 3.1351860
# Mono.encoder_resolution: 0.0000050 deg/ct
# Mono.angle_offset: 16.0754326 deg
# Mono.scan_mode: pseudo channel cut
# Mono.scan_type: step
# Mono.direction: forward in energy
# Sample.name: Pt foil
# Sample.prep: reference foil
# Sample.x: 109.138 mm
# Sample.y: 153.150 mm
# Sample.SDD_position: 205.000 mm
# Scan.experimenters: Bruce Ravel
# Scan.edge_energy: 13880.5
# Scan.start_time: 2023-05-28T21:05:50
# Scan.end_time: 2023-05-28T21:13:22
# Scan.transient_id: 79015
# Scan.uid: 5e37658e-c2b4-4619-a0c6-41da9c60c89c
# Scan.plot_hint: ln(It/Ir)  --  ln($6/$7)
# Column.1: energy eV
# Column.2: requested_energy eV
# Column.3: measurement_time seconds
# Column.4: xmu 
# Column.5: I0 nA
# Column.6: It nA
# Column.7: Ir nA
# ///////////
# Welcome to BMM
# -----------
# energy  requested_energy  measurement_time  xmu  I0  It  Ir
  13680.468  13680.500  0.500  1.507917  39.664012  70.447390  15.594983
  13690.512  13690.500  0.500  1.507292  39.583861  70.318034  15.576084
  13700.498  13700.500  0.500  1.505468  39.489575  70.161593  15.569799
  13710.531  13710.500  0.500  1.501494  39.402451  70.012190  15.598506
  13720.545  13720.500  0.500  1.494598  39.310316  69.869368  15.674403
  13730.600  13730.500  0.500  1.488907  39.209124  69.704663  15.726697
  13740.487  13740.500  0.500  1.487290  39.108887  69.540054  15.714951
  13750.464  13750.500  0.500  1.486855  39.007033  69.369982  15.683348
  13760.472  13760.500  0.500  1.486552  38.912764  69.229898  15.656419
  13770.494  13770.500  0.500  1.485496  38.819569  69.063512  15.635294
  13780.498  13780.500  0.500  1.483797  38.726497  68.916283  15.628494
  13790.509  13790.500  0.500  1.482020  38.620351  68.746950  15.617818
  13800.467  13800.500  0.500  1.478830  38.527510  68.586346  15.631116
  13810.524  13810.500  0.500  1.475026  38.466749  68.495465  15.669904
  13820.495  13820.500  0.500  1.472020  38.375506  68.348224  15.683282
  13830.489  13830.500  0.500  1.469097  38.258891  68.156873  15.685165
  13840.489  13840.500  0.500  1.466705  38.179125  68.027980  15.692989
  13850.471  13850.500  0.500  1.466270  38.073519  67.845825  15.657785
  13852.423  13852.500  0.500  1.466469  38.030308  67.770645  15.637316
  13854.435  13854.500  0.500  1.466643  38.007798  67.730494  15.625334
  13856.440  13856.500  0.500  1.467190  37.970371  67.673345  15.603610
  13858.419  13858.500  0.500  1.467729  37.984043  67.700400  15.601432
  13860.425  13860.500  0.500  1.468113  37.963888  67.662802  15.586794
  13862.431  13862.500  0.500  1.468968  37.929495  67.613379  15.562096
  13864.412  13864.500  0.500  1.469884  37.913206  67.580900  15.540378
  13866.444  13866.500  0.500  1.470983  37.884576  67.538188  15.513499
  13868.452  13868.500  0.500  1.472761  37.857611  67.498186  15.476763
  13870.452  13870.500  0.500  1.474802  37.830373  67.448017  15.433727
  13870.729  13870.800  0.500  1.475182  37.826217  67.430413  15.423839
  13871.023  13871.100  0.500  1.475558  37.821497  67.427275  15.417313
  13871.326  13871.400  0.500  1.475814  37.812368  67.411134  15.409679
  13871.629  13871.700  0.500  1.476157  37.802645  67.396709  15.401098
  13871.931  13872.000  0.500  1.476715  37.793909  67.376325  15.387862
  13872.251  13872.300  0.500  1.477128  37.788833  67.376825  15.381624
  13872.528  13872.600  0.500  1.477703  37.777700  67.351682  15.367038
  13872.848  13872.900  0.500  1.478135  37.765333  67.330186  15.355493
  13873.133  13873.200  0.500  1.478671  37.761737  67.321374  15.345256
  13873.453  13873.500  0.500  1.479286  37.747585  67.298814  15.330691
  13873.764  13873.800  0.500  1.479853  37.741932  67.293936  15.320894
  13874.050  13874.100  0.500  1.480461  37.740381  67.291049  15.310922
  13874.344  13874.400  0.500  1.481058  37.741034  67.286307  15.300705
  13874.655  13874.700  0.500  1.481753  37.735259  67.281131  15.288902
  13874.966  13875.000  0.500  1.482602  37.731569  67.274418  15.274402
  13875.261  13875.300  0.500  1.483224  37.731435  67.269064  15.263678
  13875.547  13875.600  0.500  1.484050  37.729432  67.266067  15.250398
  13875.841  13875.900  0.500  1.485084  37.722747  67.266274  15.234683
  13876.152  13876.200  0.500  1.485915  37.722658  67.255108  15.219503
  13876.472  13876.500  0.500  1.487044  37.713118  67.240430  15.199010
  13876.766  13876.800  0.500  1.487977  37.708685  67.231328  15.182785
  13877.061  13877.100  0.500  1.489291  37.705153  67.222616  15.160889
  13877.355  13877.400  0.500  1.490229  37.698991  67.210514  15.143945
  13877.650  13877.700  0.500  1.491828  37.686946  67.196980  15.116705
  13877.978  13878.000  0.500  1.493260  37.680373  67.187654  15.092976
  13878.264  13878.300  0.500  1.494491  37.670137  67.166604  15.069688
  13878.542  13878.600  0.500  1.495975  37.663287  67.154287  15.044581
  13878.861  13878.900  0.500  1.497740  37.653873  67.134668  15.013661
  13879.173  13879.200  0.500  1.499542  37.643618  67.118031  14.982924
  13879.484  13879.500  0.500  1.501421  37.706700  67.231099  14.979988
  13879.778  13879.800  0.500  1.503340  37.735551  67.281952  14.962579
  13880.065  13880.100  0.500  1.505307  37.729708  67.274093  14.931429
  13880.351  13880.400  0.500  1.507397  37.717809  67.255145  14.896052
  13880.662  13880.700  0.500  1.509495  37.708750  67.229153  14.859093
  13880.982  13881.000  0.500  1.511911  37.693564  67.214133  14.819925
  13881.268  13881.300  0.500  1.514179  37.687230  67.204063  14.784133
  13881.571  13881.600  0.500  1.516414  37.687594  67.202973  14.750894
  13881.874  13881.900  0.500  1.518853  37.685559  67.199350  14.714166
  13882.194  13882.200  0.500  1.521651  37.677565  67.190898  14.671205
  13882.514  13882.500  0.500  1.524367  37.676045  67.190545  14.631337
  13882.792  13882.800  0.500  1.526713  37.671521  67.184720  14.595780
  13883.078  13883.100  0.500  1.529288  37.670877  67.174504  14.556038
  13883.381  13883.400  0.500  1.532085  37.664552  67.165455  14.513425
  13883.693  13883.700  0.500  1.534819  37.655169  67.149585  14.470380
  13884.004  13884.000  0.500  1.537504  37.647609  67.133631  14.428154
  13884.291  13884.300  0.500  1.540083  37.638491  67.118479  14.387739
  13884.577  13884.600  0.500  1.542810  37.629056  67.104598  14.345592
  13884.897  13884.900  0.500  1.545501  37.621444  67.086107  14.303094
  13885.209  13885.200  0.500  1.548295  37.610878  67.070814  14.259942
  13885.512  13885.500  0.500  1.551113  37.604964  67.063682  14.218290
  13885.798  13885.800  0.500  1.553733  37.593682  67.038468  14.175767
  13886.085  13886.100  0.500  1.556521  37.584454  67.025307  14.133516
  13886.388  13886.400  0.500  1.559239  37.573787  67.003521  14.090569
  13886.708  13886.700  0.500  1.562105  37.566531  66.990252  14.047468
  13887.003  13887.000  0.500  1.564800  37.559302  66.980243  14.007561
  13887.289  13887.300  0.500  1.567608  37.550221  66.964794  13.965074
  13887.584  13887.600  0.500  1.570526  37.542818  66.953116  13.921952
  13887.888  13887.900  0.500  1.573455  37.533448  66.935903  13.877662
  13888.216  13888.200  0.500  1.576695  37.524539  66.922567  13.830010
  13888.519  13888.500  0.500  1.579701  37.515476  66.904959  13.784873
  13888.798  13888.800  0.500  1.582556  37.509348  66.888921  13.742284
  13889.092  13889.100  0.500  1.585420  37.498196  66.873343  13.699792
  13889.396  13889.400  0.500  1.588684  37.489794  66.857839  13.651978
  13889.708  13889.700  0.500  1.591960  37.480224  66.837519  13.603192
  13890.003  13890.000  0.500  1.595340  37.467523  66.822524  13.554254
  13890.281  13890.300  0.500  1.598342  37.465661  66.819216  13.512949
  13890.593  13890.600  0.500  1.601886  37.448142  66.795008  13.460273
  13890.896  13890.900  0.500  1.605245  37.444027  66.781590  13.412443
  13891.208  13891.200  0.500  1.608575  37.439547  66.775549  13.366638
  13891.511  13891.500  0.500  1.612092  37.433590  66.762089  13.317030
  13891.790  13891.800  0.500  1.615285  37.424705  66.743694  13.270914
  13892.076  13892.100  0.500  1.618477  37.410213  66.731301  13.226167
  13892.388  13892.400  0.500  1.621871  37.404017  66.714774  13.178088
  13892.700  13892.700  0.500  1.625143  37.391941  66.693295  13.130808
  13893.004  13893.000  0.500  1.628206  37.385652  66.681933  13.088425
  13893.265  13893.300  0.500  1.630741  37.374539  66.658773  13.050745
  13893.577  13893.600  0.500  1.633895  37.370852  66.651162  13.008166
  13893.898  13893.900  0.500  1.636683  37.364304  66.644618  12.970674
  13894.201  13894.200  0.500  1.639200  37.355901  66.622790  12.933835
  13894.488  13894.500  0.500  1.641426  37.345611  66.614197  12.903412
  13894.766  13894.800  0.500  1.643548  37.338600  66.601809  12.873668
  13895.078  13895.100  0.500  1.645626  37.329011  66.579291  12.842596
  13895.390  13895.400  0.500  1.647180  37.314935  66.559333  12.818817
  13895.677  13895.700  0.500  1.648744  37.305264  66.544800  12.795978
  13895.964  13896.000  0.500  1.650051  37.299155  66.523796  12.775244
  13896.293  13896.300  0.500  1.651310  37.285066  66.508697  12.756267
  13896.597  13896.600  0.500  1.652417  37.284393  66.503082  12.741075
  13896.909  13896.900  0.500  1.653064  37.283630  66.505071  12.733223
  13897.187  13897.200  0.500  1.653681  37.285798  66.509224  12.726161
  13897.491  13897.500  0.500  1.654194  37.296440  66.525749  12.722793
  13897.803  13897.800  0.500  1.654453  37.295093  66.526581  12.719657
  13898.090  13898.100  0.500  1.654574  37.297063  66.531582  12.719077
  13898.377  13898.400  0.500  1.654648  37.302978  66.547080  12.721094
  13898.689  13898.700  0.500  1.654679  37.302996  66.537902  12.718949
  13899.010  13899.000  0.500  1.654453  37.299797  66.537653  12.721775
  13899.322  13899.300  0.500  1.654109  37.303230  66.540725  12.726742
  13899.609  13899.600  0.500  1.653645  37.302385  66.530372  12.730662
  13899.904  13899.900  0.500  1.653219  37.299368  66.536035  12.737168
  13900.217  13900.200  0.500  1.652749  37.294315  66.528366  12.741686
  13900.504  13900.500  0.500  1.652015  37.292435  66.525892  12.750567
  13900.791  13900.800  0.500  1.651407  37.290900  66.519263  12.757054
  13901.103  13901.100  0.500  1.650399  37.287016  66.511787  12.768490
  13901.432  13901.400  0.500  1.649539  37.279265  66.506197  12.778394
  13901.702  13901.700  0.500  1.648452  37.273954  66.498905  12.790899
  13902.006  13902.000  0.500  1.647397  37.270343  66.492484  12.803153
  13902.302  13902.300  0.500  1.646292  37.266992  66.479391  12.814786
  13902.614  13902.600  0.500  1.645124  37.255523  66.463626  12.826719
  13902.901  13902.900  0.500  1.643946  37.247698  66.452651  12.839726
  13903.214  13903.200  0.500  1.642598  37.241443  66.438319  12.854263
  13903.518  13903.500  0.500  1.641294  37.240386  66.435889  12.870578
  13903.822  13903.800  0.500  1.640053  37.243104  66.441876  12.887717
  13904.101  13904.100  0.500  1.638808  37.246454  66.448376  12.905035
  13904.396  13904.400  0.500  1.637629  37.253806  66.460726  12.922660
  13904.700  13904.700  0.500  1.636416  37.260966  66.474642  12.941053
  13904.996  13905.000  0.500  1.635386  37.264755  66.480176  12.955469
  13905.292  13905.300  0.500  1.634144  37.266337  66.483199  12.972155
  13905.494  13905.500  0.500  1.633505  37.266615  66.488389  12.981457
  13906.491  13906.490  0.500  1.630437  37.270016  66.487164  13.021107
  13907.488  13907.490  0.500  1.627834  37.249777  66.458337  13.049389
  13908.494  13908.510  0.500  1.626296  37.220880  66.405292  13.059042
  13909.559  13909.560  0.500  1.625188  37.202739  66.377512  13.068049
  13910.624  13910.620  0.500  1.625015  37.193501  66.359247  13.066715
  13911.723  13911.700  0.500  1.625511  37.204588  66.381187  13.064556
  13912.813  13912.800  0.500  1.626756  37.209140  66.390622  13.050148
  13913.938  13913.920  0.500  1.628610  37.202433  66.377999  13.023504
  13915.080  13915.060  0.500  1.630978  37.182637  66.343363  12.985923
  13916.239  13916.210  0.500  1.633974  37.161504  66.312124  12.940978
  13917.407  13917.390  0.500  1.636982  37.139215  66.276765  12.895234
  13918.608  13918.580  0.500  1.640125  37.101751  66.206273  12.841086
  13919.793  13919.800  0.500  1.643131  37.099885  66.206906  12.802665
  13921.038  13921.030  0.500  1.645791  37.103558  66.217471  12.770701
  13922.291  13922.280  0.500  1.647663  37.093638  66.198062  12.743072
  13923.570  13923.550  0.500  1.648399  37.084267  66.183553  12.730908
  13924.849  13924.840  0.500  1.648011  37.080576  66.174797  12.734172
  13926.170  13926.150  0.500  1.645743  37.067156  66.147737  12.757861
  13927.526  13927.480  0.500  1.642508  37.061351  66.145550  12.798781
  13928.865  13928.830  0.500  1.638351  37.052410  66.134797  12.850000
  13930.221  13930.200  0.500  1.634021  37.047555  66.125721  12.903992
  13931.569  13931.580  0.500  1.630195  37.045995  66.123313  12.952987
  13932.985  13932.990  0.500  1.626925  37.035583  66.105220  12.991855
  13934.427  13934.410  0.500  1.624778  37.027671  66.094939  13.017757
  13935.878  13935.850  0.500  1.623248  37.014932  66.074212  13.033601
  13937.338  13937.310  0.500  1.622497  37.000740  66.054535  13.039504
  13938.806  13938.790  0.500  1.622332  36.987669  66.033681  13.037543
  13940.325  13940.290  0.500  1.621947  36.974802  66.013319  13.038534
  13941.837  13941.810  0.500  1.621547  36.956334  65.978890  13.036953
  13943.323  13943.350  0.500  1.621303  36.942848  65.957582  13.035918
  13944.911  13944.910  0.500  1.621044  36.921392  65.919090  13.031693
  13946.492  13946.480  0.500  1.620785  36.911820  65.902525  13.031796
  13948.090  13948.080  0.500  1.620762  36.898552  65.876171  13.026877
  13949.722  13949.690  0.500  1.620984  36.884358  65.852654  13.019332
  13951.363  13951.330  0.500  1.620858  36.865640  65.823542  13.015224
  13953.013  13952.980  0.500  1.620911  36.854148  65.798479  13.009577
  13954.680  13954.650  0.500  1.621008  36.832395  65.768457  13.002379
  13956.339  13956.340  0.500  1.621551  36.811385  65.734982  12.988706
  13958.050  13958.050  0.500  1.622241  36.790066  65.699688  12.972774
  13959.769  13959.780  0.500  1.623166  36.769518  65.667390  12.954407
  13961.540  13961.530  0.500  1.623930  36.748111  65.630481  12.937245
  13963.321  13963.290  0.500  1.624531  36.717749  65.582718  12.920061
  13965.118  13965.080  0.500  1.624864  36.696036  65.531583  12.905685
  13966.882  13966.880  0.500  1.624983  36.658656  65.475650  12.893138
  13968.715  13968.710  0.500  1.624440  36.596878  65.366858  12.878704
  13970.548  13970.550  0.500  1.623507  36.427957  65.070849  12.832356
  13972.424  13972.410  0.500  1.621416  35.039895  62.591465  12.369242
  13974.301  13974.290  0.500  1.619903  34.365430  61.389177  12.150021
  13976.221  13976.190  0.500  1.617867  36.321237  64.879556  12.866997
  13978.133  13978.110  0.500  1.616107  36.668421  65.504123  13.013747
  13980.062  13980.050  0.500  1.614810  36.661636  65.498200  13.029455
  13982.044  13982.010  0.500  1.613628  36.641336  65.463080  13.037870
  13983.974  13983.980  0.500  1.612743  36.625668  65.439382  13.044694
  13985.974  13985.980  0.500  1.612041  36.604841  65.395557  13.045104
  13988.008  13987.990  0.500  1.611739  36.580753  65.361580  13.042270
  13990.051  13990.020  0.500  1.611796  36.560856  65.330963  13.035417
  13992.104  13992.080  0.500  1.611704  36.542777  65.292550  13.028950
  13994.183  13994.150  0.500  1.611825  36.521443  65.261985  13.021273
  13996.254  13996.240  0.500  1.611582  36.498661  65.228711  13.017801
  13998.334  13998.350  0.500  1.610961  36.476241  65.191976  13.018550
  14000.475  14000.480  0.500  1.609951  36.459989  65.159823  13.025277
  14002.642  14002.620  0.500  1.609077  36.439958  65.128116  13.030322
  14004.818  14004.790  0.500  1.608073  36.419569  65.094737  13.036734
  14007.012  14006.980  0.500  1.606928  36.401566  65.060892  13.044875
  14009.173  14009.180  0.500  1.606195  36.380212  65.030465  13.048338
  14011.386  14011.400  0.500  1.605418  36.360563  64.997071  13.051780
  14013.650  14013.650  0.500  1.605249  36.338450  64.952592  13.045047
  14015.925  14015.910  0.500  1.605298  36.316516  64.920140  13.037895
  14018.217  14018.190  0.500  1.605661  36.292969  64.886899  13.026485
  14020.510  14020.490  0.500  1.606581  36.265197  64.837487  13.004598
  14022.820  14022.810  0.500  1.607631  36.246345  64.808554  12.985149
  14025.158  14025.150  0.500  1.608318  36.221664  64.765441  12.967607
  14027.522  14027.500  0.500  1.608871  36.201341  64.734014  12.954148
  14029.904  14029.880  0.500  1.608885  36.175446  64.692336  12.945619
  14032.295  14032.270  0.500  1.608207  36.152614  64.649109  12.945746
  14034.704  14034.690  0.500  1.607428  36.128383  64.616317  12.949263
  14037.115  14037.120  0.500  1.605902  36.107232  64.573386  12.960422
  14039.586  14039.570  0.500  1.604541  36.200018  64.741037  13.011775
  14042.067  14042.050  0.500  1.603141  36.181244  64.717272  13.025219
  14044.566  14044.540  0.500  1.601525  36.167532  64.688555  13.040494
  14047.074  14047.050  0.500  1.599832  36.145840  64.659678  13.056759
  14049.584  14049.570  0.500  1.597975  36.123113  64.624306  13.073864
  14052.129  14052.120  0.500  1.596053  36.103790  64.585915  13.091244
  14054.700  14054.690  0.500  1.594551  36.076290  64.537591  13.101104
  14057.316  14057.270  0.500  1.593221  36.048480  64.497323  13.110358
  14059.924  14059.880  0.500  1.592473  36.013097  64.440666  13.108648
  14062.507  14062.500  0.500  1.591569  35.976368  64.370932  13.106296
  14065.152  14065.150  0.500  1.590233  35.937023  64.303452  13.110065
  14067.841  14067.810  0.500  1.588980  35.862744  64.170460  13.099358
  14070.522  14070.490  0.500  1.587129  35.617088  63.732847  13.034131
  14073.178  14073.190  0.500  1.585034  33.459743  59.880846  12.272031
  14075.922  14075.910  0.500  1.583632  35.513902  63.561221  13.044564
  14078.676  14078.650  0.500  1.581887  35.944875  64.335702  13.226574
  14081.422  14081.400  0.500  1.581489  35.907064  64.266690  13.217637
  14084.204  14084.180  0.500  1.581649  35.780672  64.042047  13.169339
  14086.978  14086.970  0.500  1.582226  35.848910  64.171125  13.188258
  14089.814  14089.790  0.500  1.582764  35.824277  64.126403  13.171987
  14092.643  14092.620  0.500  1.583236  35.786887  64.066299  13.153425
  14095.490  14095.470  0.500  1.583436  35.756284  64.012436  13.139741
  14098.364  14098.350  0.500  1.583602  35.709114  63.935527  13.121775
  14101.223  14101.240  0.500  1.583395  35.671910  63.868789  13.110797
  14104.186  14104.150  0.500  1.583106  35.632393  63.798963  13.100247
  14107.090  14107.070  0.500  1.582734  35.552370  63.660234  13.076627
  14110.056  14110.020  0.500  1.582485  35.531504  63.628974  13.073461
  14112.989  14112.990  0.500  1.581932  35.507306  63.590284  13.072729
