# XDI/1.0 BlueSky/1.10.0 BMM/2023-1.0-py310-tiled
# Beamline.name: BMM (06BM) -- Beamline for Materials Measurement (NIST)
# Beamline.xray_source: NSLS-II three-pole wiggler
# Beamline.collimation: paraboloid mirror, 5 nm Rh on 30 nm Pt
# Beamline.focusing: not in use
# Beamline.harmonic_rejection: flat mirror, Pt stripe, pitch = 7.0 mrad relative to beam
# Beamline.software: Bluesky 1.10.0, Ophyd 1.7.0, DataBroker 2.0.0b13, Python 3.10.8, 2023-1.0-py310-tiled
# Detector.I0: 10 cm N2
# Detector.I1: 25 cm N2
# Detector.I2: 25 cm N2
# Element.symbol: Pt
# Element.edge: L3
# Element.reference: Pt
# Element.reference_material: Pt foil
# Facility.name: NSLS-II
# Facility.energy: 3.0
# Facility.current: 400.5
# Facility.mode: top-off
# Facility.GUP: 301027
# Facility.SAF: 310583
# Facility.cycle: 2023-2
# Mono.name: Si(111)
# Mono.d_spacing: 3.1351860
# Mono.encoder_resolution: 0.0000050 deg/ct
# Mono.angle_offset: 16.0754326 deg
# Mono.scan_mode: pseudo channel cut
# Mono.scan_type: step
# Mono.direction: forward in energy
# Sample.name: K2PtCl6
# Sample.prep: powder on tape
# Sample.x: 119.711 mm
# Sample.y: 114.376 mm
# Sample.SDD_position: 205.000 mm
# Scan.experimenters: Bruce Ravel
# Scan.edge_energy: 11563.8
# Scan.start_time: 2023-06-27T17:13:42
# Scan.end_time: 2023-06-27T17:21:39
# Scan.transient_id: 85180
# Scan.uid: 35a171f5-fe3b-4fd7-a273-3c56d153ff6d
# Scan.plot_hint: ln(I0/It)  --  ln($5/$6)
# Column.1: energy eV
# Column.2: requested_energy eV
# Column.3: measurement_time seconds
# Column.4: xmu 
# Column.5: I0 nA
# Column.6: It nA
# Column.7: Ir nA
# ///////////
# sample courtesy Simon Bare and Shelly Kelly
# -----------
# energy  requested_energy  measurement_time  xmu  I0  It  Ir
  11363.756  11363.800  0.500  0.452968  71.963145  45.749729  19.039907
  11373.839  11373.800  0.500  0.450109  71.471935  45.567532  19.007526
  11383.839  11383.800  0.500  0.447216  71.385431  45.644280  19.079955
  11393.834  11393.800  0.500  0.444726  69.878706  44.792256  18.764858
  11403.847  11403.800  0.500  0.441680  71.075795  45.698576  19.180304
  11413.867  11413.800  0.500  0.438962  70.828709  45.663662  19.209070
  11423.870  11423.800  0.500  0.436239  70.737368  45.729088  19.277160
  11433.841  11433.800  0.500  0.433541  70.536119  45.722186  19.313713
  11443.880  11443.800  0.500  0.430808  70.355316  45.729790  19.355009
  11453.840  11453.800  0.500  0.428313  70.163953  45.719346  19.392618
  11463.846  11463.800  0.500  0.425670  69.986269  45.724269  19.430782
  11473.836  11473.800  0.500  0.423181  69.763077  45.692008  19.449845
  11483.849  11483.800  0.500  0.420940  69.735575  45.776472  19.522331
  11493.868  11493.800  0.500  0.418534  69.536005  45.755427  19.539256
  11503.837  11503.800  0.500  0.416460  69.354550  45.730807  19.551429
  11513.851  11513.800  0.500  0.414957  69.177441  45.682636  19.538605
  11523.843  11523.800  0.500  0.414139  69.002844  45.604607  19.491955
  11533.841  11533.800  0.500  0.414708  68.815153  45.454688  19.360900
  11535.773  11535.800  0.500  0.415334  68.772703  45.398209  19.315813
  11537.758  11537.800  0.500  0.416115  68.735976  45.338535  19.263535
  11539.755  11539.800  0.500  0.416954  68.686043  45.267631  19.192645
  11541.765  11541.800  0.500  0.418296  68.645903  45.180479  19.112066
  11543.775  11543.800  0.500  0.419970  68.599366  45.074365  19.009768
  11545.775  11545.800  0.500  0.422184  68.545669  44.939480  18.875689
  11547.757  11547.800  0.500  0.425191  68.500602  44.775081  18.713763
  11549.770  11549.800  0.500  0.429348  68.449970  44.556383  18.496161
  11551.795  11551.800  0.500  0.435039  68.380998  44.258864  18.197232
  11553.774  11553.800  0.500  0.442931  68.316151  43.869337  17.803513
  11554.052  11554.100  0.500  0.444224  68.308768  43.807895  17.738183
  11554.354  11554.400  0.500  0.445721  68.284354  43.726721  17.660278
  11554.650  11554.700  0.500  0.447410  68.273932  43.646262  17.577532
  11554.940  11555.000  0.500  0.449123  68.261134  43.563414  17.492169
  11555.254  11555.300  0.500  0.451095  68.251965  43.471730  17.397289
  11555.550  11555.600  0.500  0.453181  68.233606  43.369480  17.297625
  11555.852  11555.900  0.500  0.455345  68.218466  43.266152  17.191002
  11556.154  11556.200  0.500  0.457766  68.202012  43.151104  17.076203
  11556.450  11556.500  0.500  0.460173  68.181672  43.034518  16.956178
  11556.758  11556.800  0.500  0.462786  68.158578  42.907691  16.826576
  11557.071  11557.100  0.500  0.465873  68.143321  42.765848  16.683869
  11557.362  11557.400  0.500  0.468907  68.122018  42.622992  16.540228
  11557.675  11557.700  0.500  0.472250  68.103229  42.469030  16.382760
  11557.978  11558.000  0.500  0.475736  68.084456  42.309549  16.213229
  11558.274  11558.300  0.500  0.479498  68.054269  42.131978  16.036600
  11558.593  11558.600  0.500  0.483821  68.037331  41.939818  15.840459
  11558.872  11558.900  0.500  0.487962  68.008661  41.748912  15.644895
  11559.180  11559.200  0.500  0.492936  67.982700  41.525905  15.420115
  11559.488  11559.500  0.500  0.498236  67.952158  41.287849  15.175404
  11559.784  11559.800  0.500  0.503815  67.928273  41.043716  14.923296
  11560.098  11560.100  0.500  0.510381  67.892679  40.753740  14.630132
  11560.377  11560.400  0.500  0.516936  67.857654  40.466555  14.344054
  11560.691  11560.700  0.500  0.524817  67.819208  40.126145  14.001699
  11560.993  11561.000  0.500  0.533254  67.764863  39.757153  13.638750
  11561.290  11561.300  0.500  0.542480  67.729470  39.371477  13.250378
  11561.592  11561.600  0.500  0.553067  67.679749  38.928254  12.816309
  11561.877  11561.900  0.500  0.564092  67.625266  38.470408  12.372680
  11562.190  11562.200  0.500  0.577388  67.563939  37.927867  11.861038
  11562.481  11562.500  0.500  0.591065  67.487546  37.370365  11.345139
  11562.789  11562.800  0.500  0.607188  67.400586  36.725312  10.767709
  11563.074  11563.100  0.500  0.624885  67.342618  36.050038  10.178378
  11563.388  11563.400  0.500  0.645676  67.252147  35.260829  9.526801
  11563.679  11563.700  0.500  0.667364  67.149218  34.451512  8.893064
  11563.987  11564.000  0.500  0.692871  67.063643  33.541095  8.222304
  11564.272  11564.300  0.500  0.720436  66.963086  32.580218  7.571470
  11564.586  11564.600  0.500  0.753225  66.856452  31.479063  6.893382
  11564.888  11564.900  0.500  0.788830  66.749258  30.329272  6.257340
  11565.191  11565.200  0.500  0.830387  66.653537  29.052977  5.635038
  11565.482  11565.500  0.500  0.875090  66.563622  27.745357  5.074095
  11565.796  11565.800  0.500  0.929228  66.483162  26.251433  4.524392
  11566.087  11566.100  0.500  0.986058  66.431579  24.781934  4.061620
  11566.401  11566.400  0.500  1.051408  66.380650  23.196406  3.633698
  11566.692  11566.700  0.500  1.118498  66.345368  21.679696  3.283637
  11567.006  11567.000  0.500  1.192751  66.324796  20.121972  2.971468
  11567.303  11567.300  0.500  1.264942  66.344572  18.726124  2.727250
  11567.599  11567.600  0.500  1.334271  66.353809  17.474288  2.533508
  11567.896  11567.900  0.500  1.396886  66.387136  16.421926  2.390246
  11568.193  11568.200  0.500  1.446412  66.399547  15.631348  2.300262
  11568.495  11568.500  0.500  1.478997  66.449523  15.141588  2.263835
  11568.781  11568.800  0.500  1.490561  66.477905  14.973899  2.278606
  11569.095  11569.100  0.500  1.481804  66.505109  15.111781  2.347320
  11569.392  11569.400  0.500  1.455604  66.550076  15.523435  2.458692
  11569.689  11569.700  0.500  1.412578  66.577303  16.212549  2.618044
  11569.985  11570.000  0.500  1.361342  66.593903  17.069129  2.805250
  11570.294  11570.300  0.500  1.301541  66.617735  18.127487  3.027499
  11570.597  11570.600  0.500  1.240928  66.635484  19.265366  3.265943
  11570.894  11570.900  0.500  1.181253  66.650562  20.454655  3.513942
  11571.190  11571.200  0.500  1.123187  66.662778  21.681512  3.769903
  11571.487  11571.500  0.500  1.071986  66.676603  22.825275  4.011050
  11571.802  11571.800  0.500  1.022110  66.694098  23.998855  4.261778
  11572.099  11572.100  0.500  0.982170  66.692455  24.976166  4.473444
  11572.407  11572.400  0.500  0.944601  66.703719  25.936717  4.685844
  11572.704  11572.700  0.500  0.914907  66.714835  26.722885  4.865899
  11573.002  11573.000  0.500  0.889690  66.714327  27.405128  5.026705
  11573.304  11573.300  0.500  0.869461  66.711097  27.963781  5.164829
  11573.607  11573.600  0.500  0.853550  66.717426  28.414968  5.282406
  11573.904  11573.900  0.500  0.841501  66.725031  28.762693  5.380356
  11574.196  11574.200  0.500  0.832965  66.723335  29.008515  5.458054
  11574.499  11574.500  0.500  0.826863  66.728221  29.188226  5.520833
  11574.796  11574.800  0.500  0.823652  66.727705  29.281855  5.564198
  11575.104  11575.100  0.500  0.822535  66.720518  29.311420  5.590997
  11575.384  11575.400  0.500  0.823288  66.725591  29.291584  5.605566
  11575.699  11575.700  0.500  0.825421  66.718079  29.225885  5.607125
  11575.978  11576.000  0.500  0.828511  66.719335  29.136280  5.598295
  11576.293  11576.300  0.500  0.832593  66.704030  29.010913  5.580672
  11576.584  11576.600  0.500  0.836961  66.697282  28.881544  5.556551
  11576.893  11576.900  0.500  0.842019  66.702905  28.738252  5.527678
  11577.196  11577.200  0.500  0.846557  66.688383  28.601904  5.495041
  11577.494  11577.500  0.500  0.850770  66.683423  28.479564  5.462179
  11577.808  11577.800  0.500  0.854599  66.675158  28.367192  5.428631
  11578.100  11578.100  0.500  0.857719  66.648029  28.267316  5.393678
  11578.403  11578.400  0.500  0.860348  66.653452  28.195395  5.363763
  11578.700  11578.700  0.500  0.862527  66.642095  28.129236  5.330373
  11579.009  11579.000  0.500  0.864332  66.626087  28.071755  5.299598
  11579.307  11579.300  0.500  0.865812  66.612072  28.024338  5.270188
  11579.604  11579.600  0.500  0.867092  66.599849  27.983361  5.242677
  11579.901  11579.900  0.500  0.868197  66.599336  27.952255  5.217210
  11580.211  11580.200  0.500  0.868918  66.591818  27.928961  5.196879
  11580.508  11580.500  0.500  0.869304  66.587962  27.916559  5.179082
  11580.805  11580.800  0.500  0.869223  66.571283  27.911829  5.165926
  11581.091  11581.100  0.500  0.868932  66.565571  27.917549  5.160214
  11581.394  11581.400  0.500  0.868131  66.556299  27.936015  5.159544
  11581.686  11581.700  0.500  0.867136  66.563156  27.966710  5.167050
  11581.984  11582.000  0.500  0.865634  66.556953  28.006140  5.180222
  11582.275  11582.300  0.500  0.864033  66.549538  28.047891  5.197062
  11582.590  11582.600  0.500  0.861948  66.550407  28.106804  5.221753
  11582.888  11582.900  0.500  0.859969  66.561534  28.167178  5.251657
  11583.191  11583.200  0.500  0.857561  66.558378  28.233765  5.284736
  11583.495  11583.500  0.500  0.855016  66.562093  28.307299  5.322161
  11583.792  11583.800  0.500  0.852396  66.567798  28.383981  5.361829
  11584.096  11584.100  0.500  0.849785  66.583327  28.464820  5.403816
  11584.399  11584.400  0.500  0.846923  66.594032  28.551005  5.444393
  11584.703  11584.700  0.500  0.844009  66.581260  28.628814  5.483076
  11585.006  11585.000  0.500  0.841144  66.600392  28.719217  5.521245
  11585.310  11585.300  0.500  0.838263  66.608366  28.805529  5.554953
  11585.607  11585.600  0.500  0.835311  66.607889  28.890470  5.585336
  11585.905  11585.900  0.500  0.832519  66.612621  28.973301  5.613438
  11586.197  11586.200  0.500  0.829855  66.608693  29.048888  5.635920
  11586.506  11586.500  0.500  0.827246  66.619956  29.129686  5.655365
  11586.798  11586.800  0.500  0.824989  66.620759  29.195862  5.672497
  11587.096  11587.100  0.500  0.822744  66.623143  29.262534  5.686873
  11587.405  11587.400  0.500  0.820999  66.615487  29.310283  5.695339
  11587.691  11587.700  0.500  0.819463  66.618098  29.356470  5.703634
  11587.983  11588.000  0.500  0.818340  66.629666  29.394562  5.709110
  11588.287  11588.300  0.500  0.817275  66.829455  29.514113  5.728892
  11588.591  11588.600  0.500  0.816689  66.838219  29.535308  5.728699
  11588.789  11588.800  0.500  0.816460  66.823432  29.535533  5.726156
  11589.806  11589.790  0.500  0.817058  66.818572  29.515711  5.689328
  11590.805  11590.790  0.500  0.820224  66.797708  29.413236  5.607042
  11591.833  11591.810  0.500  0.825366  66.775917  29.252822  5.483223
  11592.879  11592.860  0.500  0.831261  66.725511  29.058934  5.337147
  11593.937  11593.920  0.500  0.837871  66.701124  28.856944  5.200020
  11595.007  11595.000  0.500  0.845268  66.680807  28.635544  5.096120
  11596.100  11596.100  0.500  0.853216  66.674179  28.406033  5.048902
  11597.229  11597.220  0.500  0.860819  66.683742  28.194934  5.058114
  11598.375  11598.360  0.500  0.866958  66.696947  28.027932  5.098823
  11599.534  11599.510  0.500  0.871327  66.699769  27.906916  5.148938
  11600.698  11600.690  0.500  0.874319  66.683325  27.816691  5.194381
  11601.881  11601.880  0.500  0.876933  66.711871  27.755953  5.223767
  11603.110  11603.100  0.500  0.880047  66.707342  27.667753  5.230119
  11604.346  11604.330  0.500  0.882952  66.690618  27.580588  5.232754
  11605.593  11605.580  0.500  0.885974  66.665717  27.487108  5.243585
  11606.864  11606.850  0.500  0.888803  66.670244  27.411319  5.263562
  11608.136  11608.140  0.500  0.892417  66.664829  27.310218  5.277996
  11609.460  11609.450  0.500  0.897064  66.637987  27.172658  5.261796
  11610.803  11610.780  0.500  0.903359  66.610910  26.991152  5.209648
  11612.157  11612.130  0.500  0.910762  66.587333  26.782589  5.133344
  11613.518  11613.500  0.500  0.918464  66.546754  26.560914  5.040849
  11614.891  11614.880  0.500  0.925452  66.519909  26.365313  4.947229
  11616.311  11616.290  0.500  0.930482  66.489727  26.221128  4.863093
  11617.737  11617.710  0.500  0.933168  66.458925  26.138670  4.794508
  11619.164  11619.150  0.500  0.933774  66.426198  26.109984  4.746816
  11620.614  11620.610  0.500  0.932103  66.403747  26.144816  4.726973
  11622.088  11622.090  0.500  0.927212  66.372937  26.260789  4.747643
  11623.586  11623.590  0.500  0.919252  66.371911  26.470250  4.801944
  11625.103  11625.110  0.500  0.908284  66.360395  26.757545  4.878940
  11626.637  11626.650  0.500  0.895691  66.344264  27.090045  4.968045
  11628.183  11628.210  0.500  0.883255  66.335865  27.425566  5.054911
  11629.742  11629.780  0.500  0.872369  66.322757  27.720279  5.135496
  11631.366  11631.380  0.500  0.863410  66.304087  27.961860  5.204516
  11632.972  11632.990  0.500  0.856987  66.277076  28.130578  5.255438
  11634.715  11634.630  0.500  0.852499  66.262594  28.250937  5.293738
  11636.222  11636.280  0.500  0.849724  66.247852  28.323148  5.324262
  11638.142  11637.950  0.500  0.847476  66.206969  28.369356  5.364381
  11639.786  11639.640  0.500  0.846114  66.189438  28.400499  5.406956
  11641.424  11641.350  0.500  0.845542  66.191662  28.417703  5.451216
  11643.069  11643.080  0.500  0.844641  66.163696  28.431295  5.491043
  11644.826  11644.830  0.500  0.843512  66.146515  28.456029  5.528746
  11646.572  11646.590  0.500  0.842448  66.131265  28.479758  5.555260
  11648.348  11648.380  0.500  0.841470  66.098060  28.493318  5.571704
  11650.148  11650.180  0.500  0.841156  66.063082  28.487164  5.577620
  11651.996  11652.010  0.500  0.841649  65.869313  28.389621  5.554829
  11653.845  11653.850  0.500  0.842441  65.977603  28.413784  5.540016
  11655.700  11655.710  0.500  0.844219  65.971209  28.360567  5.496702
  11657.579  11657.590  0.500  0.846798  65.931267  28.270394  5.438178
  11659.483  11659.490  0.500  0.850025  65.864388  28.150723  5.376977
  11661.411  11661.410  0.500  0.853908  65.685002  27.965239  5.307038
  11663.345  11663.350  0.500  0.858383  65.796743  27.887745  5.271843
  11665.316  11665.310  0.500  0.863549  65.783101  27.738300  5.235706
  11667.270  11667.280  0.500  0.869385  65.745660  27.561195  5.203422
  11669.271  11669.280  0.500  0.876073  65.554022  27.297686  5.159583
  11671.268  11671.290  0.500  0.882766  65.661890  27.160196  5.142563
  11673.300  11673.320  0.500  0.889523  65.666370  26.979128  5.117621
  11675.369  11675.380  0.500  0.895249  65.646030  26.816800  5.097857
  11677.439  11677.450  0.500  0.898947  65.583678  26.692424  5.084521
  11679.539  11679.540  0.500  0.900074  65.388209  26.582897  5.068579
  11681.640  11681.650  0.500  0.898116  65.536029  26.695209  5.089191
  11683.759  11683.780  0.500  0.893112  65.511997  26.819294  5.103129
  11685.909  11685.920  0.500  0.885508  65.480084  27.010847  5.127874
  11688.095  11688.090  0.500  0.876970  65.438870  27.225284  5.156763
  11690.277  11690.280  0.500  0.868266  65.412186  27.452089  5.195051
  11692.483  11692.480  0.500  0.860441  65.366428  27.648406  5.238685
  11694.695  11694.700  0.500  0.854086  65.342881  27.814641  5.286740
  11696.956  11696.950  0.500  0.848360  65.315048  27.962436  5.344595
  11699.224  11699.210  0.500  0.843964  65.265146  28.064179  5.401517
  11701.505  11701.490  0.500  0.840670  65.248544  28.149603  5.460929
  11703.781  11703.790  0.500  0.838182  64.832638  28.039871  5.483834
  11706.117  11706.110  0.500  0.836443  65.164673  28.232520  5.554636
  11708.454  11708.450  0.500  0.835183  65.156878  28.264747  5.579454
  11710.810  11710.800  0.500  0.834426  65.129207  28.274139  5.584517
  11713.185  11713.180  0.500  0.834008  65.089319  28.268631  5.576464
  11715.573  11715.570  0.500  0.833633  65.053771  28.263790  5.557216
  11717.991  11717.990  0.500  0.833348  65.014351  28.254700  5.531745
  11720.411  11720.420  0.500  0.833372  64.965811  28.232936  5.503984
  11722.886  11722.870  0.500  0.833810  64.921313  28.201231  5.475423
  11725.355  11725.350  0.500  0.834423  64.875851  28.164228  5.450039
  11727.832  11727.840  0.500  0.835568  64.832239  28.113076  5.427975
  11730.339  11730.350  0.500  0.837190  64.790417  28.049417  5.403529
  11732.872  11732.870  0.500  0.839366  64.752017  27.971864  5.380605
  11735.424  11735.420  0.500  0.842066  64.452426  27.767362  5.335751
  11737.982  11737.990  0.500  0.845054  64.653914  27.771064  5.338949
  11740.572  11740.570  0.500  0.848573  64.628746  27.662737  5.325226
  11743.200  11743.180  0.500  0.852209  64.584547  27.543497  5.309050
  11745.816  11745.800  0.500  0.855629  64.491974  27.410094  5.284925
  11748.457  11748.450  0.500  0.858392  64.363106  27.279851  5.254519
  11751.100  11751.110  0.500  0.860202  64.458927  27.271068  5.239821
  11753.804  11753.790  0.500  0.860931  64.417796  27.233807  5.219229
  11756.497  11756.490  0.500  0.860335  64.326119  27.211264  5.207929
  11759.210  11759.210  0.500  0.858445  64.198861  27.208810  5.217247
  11761.960  11761.950  0.500  0.855644  64.288790  27.323337  5.268405
  11764.705  11764.700  0.500  0.852144  64.259842  27.406805  5.327155
  11767.482  11767.480  0.500  0.848417  64.216094  27.490389  5.385889
  11770.278  11770.270  0.500  0.844450  63.962827  27.490831  5.420203
  11773.099  11773.090  0.500  0.840685  64.136012  27.669228  5.477931
  11775.928  11775.920  0.500  0.837159  64.051997  27.730591  5.505295
  11778.770  11778.770  0.500  0.833932  63.875277  27.743463  5.519298
  11781.663  11781.650  0.500  0.830911  64.005903  27.884312  5.555841
  11784.562  11784.540  0.500  0.828250  63.969143  27.942549  5.571917
  11787.445  11787.450  0.500  0.825774  63.931140  27.995189  5.584613
  11790.384  11790.370  0.500  0.823531  63.881377  28.036206  5.593690
  11793.342  11793.320  0.500  0.821465  63.854043  28.082166  5.599690
  11796.308  11796.290  0.500  0.819750  63.791166  28.102663  5.598228
  11799.276  11799.270  0.500  0.818068  63.761301  28.136811  5.591072
  11802.311  11802.280  0.500  0.816707  63.702749  28.149247  5.573330
  11805.318  11805.300  0.500  0.815674  63.372279  28.032176  5.524135
