# XDI/1.0 BlueSky/1.10.0 BMM/2023-1.0-py310-tiled
# Beamline.name: BMM (06BM) -- Beamline for Materials Measurement (NIST)
# Beamline.xray_source: NSLS-II three-pole wiggler
# Beamline.collimation: paraboloid mirror, 5 nm Rh on 30 nm Pt
# Beamline.focusing: not in use
# Beamline.harmonic_rejection: flat mirror, Pt stripe, pitch = 7.0 mrad relative to beam
# Beamline.software: Bluesky 1.10.0, Ophyd 1.7.0, DataBroker 2.0.0b13, Python 3.10.8, 2023-1.0-py310-tiled
# Detector.I0: 10 cm N2
# Detector.I1: 25 cm N2
# Detector.I2: 25 cm N2
# Element.symbol: Pt
# Element.edge: L3
# Element.reference: Pt
# Element.reference_material: Pt foil
# Facility.name: NSLS-II
# Facility.energy: 3.0
# Facility.current: 400.2
# Facility.mode: top-off
# Facility.GUP: 301027
# Facility.SAF: 310583
# Facility.cycle: 2023-2
# Mono.name: Si(111)
# Mono.d_spacing: 3.1351860
# Mono.encoder_resolution: 0.0000050 deg/ct
# Mono.angle_offset: 16.0754326 deg
# Mono.scan_mode: pseudo channel cut
# Mono.scan_type: step
# Mono.direction: forward in energy
# Sample.name: PtCl2
# Sample.prep: powder on tape
# Sample.x: 119.711 mm
# Sample.y: 114.376 mm
# Sample.SDD_position: 205.000 mm
# Scan.experimenters: Bruce Ravel
# Scan.edge_energy: 11563.8
# Scan.start_time: 2023-06-27T17:30:37
# Scan.end_time: 2023-06-27T17:38:24
# Scan.transient_id: 85190
# Scan.uid: b2955a8a-e775-4488-be43-cb74dbb8cd3a
# Scan.plot_hint: ln(I0/It)  --  ln($5/$6)
# Column.1: energy eV
# Column.2: requested_energy eV
# Column.3: measurement_time seconds
# Column.4: xmu 
# Column.5: I0 nA
# Column.6: It nA
# Column.7: Ir nA
# ///////////
# sample courtesy Simon Bare and Shelly Kelly
# -----------
# energy  requested_energy  measurement_time  xmu  I0  It  Ir
  11363.806  11363.800  0.500  0.287714  71.815963  53.860229  22.412487
  11373.827  11373.800  0.500  0.285283  71.345542  53.637705  22.369935
  11383.850  11383.800  0.500  0.282985  71.274707  53.707700  22.448767
  11393.834  11393.800  0.500  0.280658  69.683000  52.630650  22.044056
  11403.825  11403.800  0.500  0.278225  70.950768  53.718688  22.546059
  11413.850  11413.800  0.500  0.275933  70.716400  53.664139  22.569979
  11423.865  11423.800  0.500  0.273706  70.634652  53.721600  22.642013
  11433.829  11433.800  0.500  0.271375  70.441250  53.699501  22.678425
  11443.846  11443.800  0.500  0.269217  70.251502  53.670570  22.714595
  11453.885  11453.800  0.500  0.266951  70.077650  53.659180  22.754655
  11463.800  11463.800  0.500  0.264880  69.889011  53.625685  22.784574
  11473.824  11473.800  0.500  0.262744  69.665182  53.568239  22.802890
  11483.866  11483.800  0.500  0.260741  69.648373  53.662706  22.878015
  11493.840  11493.800  0.500  0.259052  69.438470  53.591401  22.882961
  11503.825  11503.800  0.500  0.257611  69.237326  53.513240  22.873625
  11513.845  11513.800  0.500  0.256524  69.069574  53.441646  22.851955
  11523.831  11523.800  0.500  0.256312  68.903740  53.324622  22.783216
  11533.829  11533.800  0.500  0.257835  68.724298  53.104831  22.616052
  11535.779  11535.800  0.500  0.258547  68.675413  53.029288  22.557547
  11537.770  11537.800  0.500  0.259494  68.644133  52.954959  22.493870
  11539.767  11539.800  0.500  0.260822  68.600875  52.851375  22.407235
  11541.771  11541.800  0.500  0.262342  68.560035  52.739683  22.306683
  11543.769  11543.800  0.500  0.264383  68.512007  52.595238  22.177789
  11545.769  11545.800  0.500  0.267025  68.463260  52.419173  22.014096
  11547.775  11547.800  0.500  0.270610  68.409636  52.190668  21.807317
  11549.781  11549.800  0.500  0.275555  68.351195  51.888843  21.533647
  11551.765  11551.800  0.500  0.282075  68.295578  51.509699  21.176083
  11553.768  11553.800  0.500  0.291569  68.227830  50.972349  20.678926
  11554.052  11554.100  0.500  0.293246  68.223696  50.883857  20.594299
  11554.342  11554.400  0.500  0.295110  68.210445  50.779258  20.497183
  11554.650  11554.700  0.500  0.297088  68.199381  50.670698  20.395647
  11554.958  11555.000  0.500  0.299476  68.192431  50.544662  20.282378
  11555.254  11555.300  0.500  0.301663  68.179699  50.424814  20.167236
  11555.567  11555.600  0.500  0.304307  68.163072  50.279403  20.037242
  11555.864  11555.900  0.500  0.307018  68.143196  50.128666  19.901244
  11556.160  11556.200  0.500  0.309927  68.127557  49.971580  19.761574
  11556.473  11556.500  0.500  0.313322  68.121313  49.797686  19.603246
  11556.769  11556.800  0.500  0.316600  68.096837  49.616873  19.439578
  11557.077  11557.100  0.500  0.320338  68.084849  49.423025  19.263283
  11557.373  11557.400  0.500  0.324238  68.044070  49.201175  19.072875
  11557.664  11557.700  0.500  0.328434  68.045531  48.996197  18.881008
  11557.978  11558.000  0.500  0.333130  68.021046  48.749104  18.664577
  11558.268  11558.300  0.500  0.338056  67.989319  48.486956  18.439142
  11558.576  11558.600  0.500  0.343377  67.986996  48.227973  18.205464
  11558.878  11558.900  0.500  0.349357  67.959148  47.920798  17.940998
  11559.163  11559.200  0.500  0.355586  67.929874  47.602738  17.664346
  11559.471  11559.500  0.500  0.362941  67.911859  47.241339  17.349112
  11559.779  11559.800  0.500  0.370919  67.878098  46.842645  17.015102
  11560.069  11560.100  0.500  0.379477  67.837328  46.415609  16.659787
  11560.371  11560.400  0.500  0.389423  67.818763  45.943683  16.262399
  11560.668  11560.700  0.500  0.400122  67.773941  45.424708  15.842079
  11560.987  11561.000  0.500  0.413218  67.741555  44.812269  15.344952
  11561.272  11561.300  0.500  0.426535  67.680042  44.179306  14.849203
  11561.586  11561.600  0.500  0.442442  67.645463  43.459868  14.284463
  11561.871  11561.900  0.500  0.459232  67.597186  42.705765  13.711219
  11562.190  11562.200  0.500  0.479278  67.527602  41.815124  13.051790
  11562.493  11562.500  0.500  0.502209  67.467594  40.830869  12.346754
  11562.795  11562.800  0.500  0.527177  67.387866  39.776951  11.616617
  11563.103  11563.100  0.500  0.555611  67.307079  38.615523  10.845358
  11563.400  11563.400  0.500  0.587459  67.225831  37.359908  10.046541
  11563.690  11563.700  0.500  0.622337  67.129329  36.027555  9.244727
  11563.987  11564.000  0.500  0.660487  67.021041  34.623048  8.445836
  11564.289  11564.300  0.500  0.702323  66.931175  33.159906  7.657421
  11564.592  11564.600  0.500  0.747060  66.818406  31.655704  6.899150
  11564.894  11564.900  0.500  0.794631  66.724875  30.142837  6.183254
  11565.197  11565.200  0.500  0.844917  66.648922  28.631909  5.518464
  11565.487  11565.500  0.500  0.893369  66.556074  27.239717  4.946927
  11565.796  11565.800  0.500  0.942564  66.476267  25.900973  4.432483
  11566.081  11566.100  0.500  0.984772  66.422743  24.810523  4.036442
  11566.389  11566.400  0.500  1.023133  66.384889  23.863175  3.710239
  11566.680  11566.700  0.500  1.050787  66.357794  23.202826  3.490364
  11566.988  11567.000  0.500  1.069130  66.354421  22.779940  3.347491
  11567.279  11567.300  0.500  1.075414  66.345570  22.634227  3.289439
  11567.582  11567.600  0.500  1.071962  66.369202  22.720583  3.297386
  11567.890  11567.900  0.500  1.059164  66.397868  23.023170  3.363709
  11568.193  11568.200  0.500  1.040640  66.424906  23.463164  3.468446
  11568.513  11568.500  0.500  1.016768  66.464980  24.044510  3.614100
  11568.798  11568.800  0.500  0.993086  66.472553  24.623546  3.765091
  11569.095  11569.100  0.500  0.967735  66.528816  25.277129  3.938962
  11569.397  11569.400  0.500  0.943788  66.553561  25.899375  4.111169
  11569.700  11569.700  0.500  0.921447  66.590503  26.499215  4.281027
  11570.003  11570.000  0.500  0.900024  66.625409  27.087217  4.453461
  11570.300  11570.300  0.500  0.881284  66.641535  27.606302  4.608793
  11570.614  11570.600  0.500  0.862812  66.674251  28.134798  4.768782
  11570.899  11570.900  0.500  0.847488  66.681804  28.572488  4.904850
  11571.202  11571.200  0.500  0.831754  66.688652  29.028572  5.046345
  11571.493  11571.500  0.500  0.818618  66.709698  29.421692  5.167940
  11571.790  11571.800  0.500  0.806008  66.722287  29.800671  5.289413
  11572.087  11572.100  0.500  0.794331  66.732659  30.155390  5.401636
  11572.384  11572.400  0.500  0.784378  66.745077  30.462679  5.502757
  11572.687  11572.700  0.500  0.775811  66.740750  30.722794  5.593082
  11572.978  11573.000  0.500  0.768867  66.752984  30.942532  5.675220
  11573.310  11573.300  0.500  0.762984  66.758535  31.127704  5.752495
  11573.584  11573.600  0.500  0.759101  66.772153  31.255179  5.812766
  11573.898  11573.900  0.500  0.756328  66.775219  31.343395  5.865702
  11574.196  11574.200  0.500  0.755314  66.777903  31.376468  5.907531
  11574.510  11574.500  0.500  0.755487  66.783481  31.373675  5.938119
  11574.807  11574.800  0.500  0.756953  66.774934  31.323699  5.956318
  11575.104  11575.100  0.500  0.759462  66.758517  31.237527  5.962451
  11575.407  11575.400  0.500  0.762892  66.763965  31.133094  5.961911
  11575.699  11575.700  0.500  0.766907  66.772162  31.012162  5.953514
  11576.008  11576.000  0.500  0.771543  66.766700  30.866189  5.934311
  11576.299  11576.300  0.500  0.776145  66.759543  30.721163  5.911252
  11576.614  11576.600  0.500  0.781241  66.751069  30.561134  5.880368
  11576.905  11576.900  0.500  0.785911  66.739917  30.413679  5.850332
  11577.196  11577.200  0.500  0.790485  66.746252  30.277758  5.817074
  11577.494  11577.500  0.500  0.794672  66.726360  30.142251  5.780459
  11577.797  11577.800  0.500  0.798332  66.724674  30.031373  5.745317
  11578.094  11578.100  0.500  0.801273  66.707546  29.935498  5.711455
  11578.380  11578.400  0.500  0.803378  66.714317  29.875582  5.681256
  11578.695  11578.700  0.500  0.804803  66.699429  29.826379  5.651425
  11578.992  11579.000  0.500  0.805308  66.677770  29.801636  5.624488
  11579.307  11579.300  0.500  0.804999  66.668470  29.806692  5.603940
  11579.598  11579.600  0.500  0.804042  66.662141  29.832408  5.587248
  11579.901  11579.900  0.500  0.802273  66.655119  29.882089  5.575797
  11580.193  11580.200  0.500  0.800277  66.645048  29.937261  5.569091
  11580.502  11580.500  0.500  0.797648  66.614873  30.002482  5.567166
  11580.800  11580.800  0.500  0.794788  66.618430  30.090004  5.570857
  11581.115  11581.100  0.500  0.791461  66.613982  30.188271  5.580160
  11581.394  11581.400  0.500  0.788342  66.621891  30.286175  5.596193
  11581.715  11581.700  0.500  0.785119  66.616287  30.381375  5.615338
  11582.007  11582.000  0.500  0.781855  66.597605  30.472167  5.637110
  11582.310  11582.300  0.500  0.778873  66.599157  30.563895  5.664961
  11582.608  11582.600  0.500  0.776061  66.597362  30.649131  5.697516
  11582.911  11582.900  0.500  0.773384  66.589249  30.727546  5.733073
  11583.197  11583.200  0.500  0.770967  66.610747  30.811825  5.771935
  11583.506  11583.500  0.500  0.768899  66.602893  30.871970  5.809249
  11583.798  11583.800  0.500  0.767360  66.690232  30.960075  5.853229
  11584.090  11584.100  0.500  0.765912  66.802641  31.057203  5.898795
  11584.393  11584.400  0.500  0.764987  66.796303  31.082980  5.931520
  11584.697  11584.700  0.500  0.764234  66.791112  31.103975  5.960172
  11584.989  11585.000  0.500  0.763931  66.789076  31.112451  5.983857
  11585.292  11585.300  0.500  0.763926  66.782608  31.109607  6.001704
  11585.590  11585.600  0.500  0.764032  66.776300  31.103382  6.016188
  11585.887  11585.900  0.500  0.764517  66.783879  31.091811  6.025236
  11586.203  11586.200  0.500  0.765019  66.770375  31.069925  6.028576
  11586.495  11586.500  0.500  0.765826  66.768966  31.044206  6.029763
  11586.804  11586.800  0.500  0.766601  66.758803  31.015445  6.025662
  11587.108  11587.100  0.500  0.767625  66.747730  30.978571  6.020467
  11587.411  11587.400  0.500  0.768556  66.742635  30.947369  6.015053
  11587.703  11587.700  0.500  0.769590  66.729955  30.909526  6.006681
  11588.007  11588.000  0.500  0.770629  66.711531  30.868885  5.995880
  11588.305  11588.300  0.500  0.771622  66.727932  30.845847  5.988744
  11588.608  11588.600  0.500  0.772573  66.697709  30.802565  5.974958
  11588.807  11588.800  0.500  0.773360  66.710321  30.784147  5.967613
  11589.811  11589.790  0.500  0.776569  66.685140  30.673918  5.911525
  11590.793  11590.790  0.500  0.779272  66.647749  30.573991  5.827466
  11591.815  11591.810  0.500  0.782173  66.615675  30.470731  5.709423
  11592.873  11592.860  0.500  0.785585  66.574638  30.348239  5.571452
  11593.954  11593.920  0.500  0.789164  66.528095  30.218673  5.442701
  11595.018  11595.000  0.500  0.793084  66.509470  30.092034  5.355766
  11596.118  11596.100  0.500  0.797387  66.501574  29.959264  5.326781
  11597.229  11597.220  0.500  0.801706  66.492942  29.826267  5.351186
  11598.375  11598.360  0.500  0.805961  66.497935  29.701877  5.405997
  11599.522  11599.510  0.500  0.809697  66.496749  29.590586  5.463018
  11600.710  11600.690  0.500  0.812825  66.496955  29.498263  5.509492
  11601.904  11601.880  0.500  0.815858  66.493509  29.407406  5.535611
  11603.116  11603.100  0.500  0.818840  66.476024  29.312117  5.542249
  11604.334  11604.330  0.500  0.821892  66.477352  29.223378  5.546406
  11605.581  11605.580  0.500  0.824852  66.459946  29.129373  5.556913
  11606.859  11606.850  0.500  0.828100  66.441001  29.026654  5.577264
  11608.153  11608.140  0.500  0.831119  66.428642  28.933779  5.593955
  11609.472  11609.450  0.500  0.834288  66.396259  28.828150  5.583311
  11610.791  11610.780  0.500  0.837239  66.368056  28.731016  5.547007
  11612.134  11612.130  0.500  0.840437  66.342467  28.628216  5.486974
  11613.506  11613.500  0.500  0.843394  66.303334  28.526864  5.414553
  11614.897  11614.880  0.500  0.845975  66.264157  28.436513  5.337429
  11616.317  11616.290  0.500  0.847528  66.228800  28.377235  5.262922
  11617.719  11617.710  0.500  0.847803  66.187718  28.351846  5.201044
  11619.158  11619.150  0.500  0.846540  66.153408  28.372947  5.157249
  11620.614  11620.610  0.500  0.843364  66.119266  28.448516  5.144871
  11622.106  11622.090  0.500  0.838373  66.109847  28.586799  5.168374
  11623.598  11623.590  0.500  0.832617  66.094512  28.745143  5.216701
  11625.108  11625.110  0.500  0.825681  66.087042  28.941936  5.278911
  11626.649  11626.650  0.500  0.818485  66.051901  29.135443  5.343517
  11628.230  11628.210  0.500  0.811334  66.053805  29.345395  5.410283
  11629.789  11629.780  0.500  0.804872  66.034409  29.526964  5.471528
  11631.389  11631.380  0.500  0.798453  66.014941  29.708339  5.531060
  11632.984  11632.990  0.500  0.792897  66.001087  29.867601  5.580666
  11634.632  11634.630  0.500  0.788311  65.983496  29.996899  5.621738
  11636.298  11636.280  0.500  0.784495  65.952070  30.097220  5.659396
  11637.959  11637.950  0.500  0.781855  65.914932  30.159797  5.701848
  11639.650  11639.640  0.500  0.780383  65.922199  30.207567  5.749814
  11641.353  11641.350  0.500  0.779986  65.904517  30.211461  5.795304
  11643.087  11643.080  0.500  0.780133  65.886194  30.198605  5.835950
  11644.844  11644.830  0.500  0.780719  65.860352  30.169080  5.862094
  11646.590  11646.590  0.500  0.781385  65.826960  30.133714  5.877661
  11648.378  11648.380  0.500  0.781973  65.810798  30.108597  5.888001
  11650.172  11650.180  0.500  0.782393  65.760166  30.072799  5.888757
  11651.991  11652.010  0.500  0.782491  65.573458  29.984471  5.866149
  11653.833  11653.850  0.500  0.782593  65.673358  30.027104  5.854604
  11655.682  11655.710  0.500  0.783185  65.666394  30.006153  5.817016
  11657.574  11657.590  0.500  0.784244  65.639771  29.962222  5.764444
  11659.465  11659.490  0.500  0.785823  65.570314  29.883308  5.707039
  11661.855  11661.410  0.500  0.788805  65.394074  29.714234  5.635750
  11663.316  11663.350  0.500  0.791415  65.516297  29.692174  5.613420
  11665.541  11665.310  0.500  0.795719  65.481311  29.548884  5.576218
  11667.388  11667.280  0.500  0.800072  65.470609  29.415709  5.554995
  11669.313  11669.280  0.500  0.804827  65.280798  29.191311  5.518653
  11671.297  11671.290  0.500  0.809389  65.407025  29.114626  5.513259
  11673.324  11673.320  0.500  0.813844  65.402651  28.983269  5.498759
  11675.387  11675.380  0.500  0.817274  65.371622  28.870314  5.489252
  11677.463  11677.450  0.500  0.819421  65.328680  28.789491  5.484629
  11679.545  11679.540  0.500  0.819548  65.163731  28.713147  5.474973
  11681.664  11681.650  0.500  0.817707  65.293284  28.823238  5.495278
  11683.783  11683.780  0.500  0.814109  65.260088  28.912417  5.502572
  11685.933  11685.920  0.500  0.808935  65.235440  29.051433  5.514575
  11688.101  11688.090  0.500  0.802935  65.208093  29.214019  5.534944
  11690.295  11690.280  0.500  0.796706  65.181048  29.384353  5.562307
  11692.489  11692.480  0.500  0.790810  65.147429  29.542875  5.598689
  11694.707  11694.700  0.500  0.785809  65.118319  29.677729  5.641020
  11696.950  11696.950  0.500  0.781457  65.096500  29.797193  5.695041
  11699.218  11699.210  0.500  0.777929  65.071316  29.890911  5.754623
  11701.499  11701.490  0.500  0.775332  65.022922  29.946375  5.811550
  11703.793  11703.790  0.500  0.773487  64.622528  29.816931  5.831749
  11706.117  11706.110  0.500  0.772324  64.971350  30.012756  5.905625
  11708.442  11708.450  0.500  0.771578  64.958254  30.029103  5.929431
  11710.804  11710.800  0.500  0.771389  64.941853  30.027190  5.932772
  11713.185  11713.180  0.500  0.771336  64.905785  30.012101  5.920401
  11715.573  11715.570  0.500  0.771672  64.877533  29.988956  5.896487
  11717.985  11717.990  0.500  0.771963  64.832524  29.959424  5.866939
  11720.417  11720.420  0.500  0.772455  64.793598  29.926730  5.835838
  11722.886  11722.870  0.500  0.772955  64.756781  29.894763  5.805153
  11725.361  11725.350  0.500  0.773661  64.717653  29.855616  5.778846
  11727.838  11727.840  0.500  0.774635  64.669248  29.804236  5.753476
  11730.357  11730.350  0.500  0.775725  64.653850  29.764682  5.733837
  11732.866  11732.870  0.500  0.777189  64.610470  29.701209  5.712716
  11735.436  11735.420  0.500  0.778842  64.315924  29.516977  5.671394
  11737.982  11737.990  0.500  0.780551  64.534573  29.566745  5.684486
  11740.578  11740.570  0.500  0.782586  64.497400  29.489639  5.677181
  11743.188  11743.180  0.500  0.784368  64.453290  29.416996  5.669949
  11745.816  11745.800  0.500  0.786110  64.368178  29.327009  5.654764
  11748.457  11748.450  0.500  0.787432  64.241132  29.230469  5.629487
  11751.112  11751.110  0.500  0.788160  64.348199  29.257876  5.622161
  11753.786  11753.790  0.500  0.788158  64.295274  29.233870  5.602356
  11756.503  11756.490  0.500  0.787520  64.215696  29.216340  5.592743
  11759.216  11759.210  0.500  0.786037  64.097681  29.205909  5.601054
  11761.948  11761.950  0.500  0.784099  64.195181  29.307078  5.651067
  11764.699  11764.700  0.500  0.781529  64.167141  29.369655  5.710317
  11767.488  11767.480  0.500  0.779064  64.139138  29.429291  5.765636
  11770.278  11770.270  0.500  0.776414  63.857430  29.377803  5.792611
  11773.093  11773.090  0.500  0.773936  64.017397  29.524467  5.844988
  11775.916  11775.920  0.500  0.771586  63.963180  29.568847  5.872320
  11778.789  11778.770  0.500  0.769411  63.783732  29.550109  5.880404
  11781.650  11781.650  0.500  0.767391  63.939712  29.682271  5.915665
  11784.538  11784.540  0.500  0.765485  63.910577  29.725345  5.929169
  11787.445  11787.450  0.500  0.763710  63.858648  29.753957  5.935549
  11790.378  11790.370  0.500  0.761897  63.811734  29.786045  5.942306
  11793.306  11793.320  0.500  0.760528  63.748137  29.797133  5.943872
  11796.290  11796.290  0.500  0.759159  63.727168  29.828124  5.941729
  11799.282  11799.270  0.500  0.757945  63.665174  29.835317  5.929783
  11802.293  11802.280  0.500  0.756937  63.626479  29.847255  5.910025
  11805.294  11805.300  0.500  0.756199  63.293444  29.712934  5.856529
