# XDI/1.0 BlueSky/1.10.0 BMM/2023-1.0-py310-tiled
# Beamline.name: BMM (06BM) -- Beamline for Materials Measurement (NIST)
# Beamline.xray_source: NSLS-II three-pole wiggler
# Beamline.collimation: paraboloid mirror, 5 nm Rh on 30 nm Pt
# Beamline.focusing: not in use
# Beamline.harmonic_rejection: flat mirror, Pt stripe, pitch = 7.0 mrad relative to beam
# Beamline.software: Bluesky 1.10.0, Ophyd 1.7.0, DataBroker 2.0.0b13, Python 3.10.8, 2023-1.0-py310-tiled
# Detector.I0: 10 cm N2
# Detector.I1: 25 cm N2
# Detector.I2: 25 cm N2
# Element.symbol: Pt
# Element.edge: L1
# Element.reference: Pt
# Element.reference_material: Pt foil
# Facility.name: NSLS-II
# Facility.energy: 3.0
# Facility.current: 400.4
# Facility.mode: top-off
# Facility.GUP: 301027
# Facility.SAF: 310583
# Facility.cycle: 2023-2
# Mono.name: Si(111)
# Mono.d_spacing: 3.1351860
# Mono.encoder_resolution: 0.0000050 deg/ct
# Mono.angle_offset: 16.0754326 deg
# Mono.scan_mode: pseudo channel cut
# Mono.scan_type: step
# Mono.direction: forward in energy
# Sample.name: K2PtCl6
# Sample.prep: powder on tape
# Sample.x: 119.711 mm
# Sample.y: 114.376 mm
# Sample.SDD_position: 205.000 mm
# Scan.experimenters: Bruce Ravel
# Scan.edge_energy: 13880.5
# Scan.start_time: 2023-06-27T19:27:06
# Scan.end_time: 2023-06-27T19:34:59
# Scan.transient_id: 85261
# Scan.uid: cd075b44-26c9-40e9-8b80-417f9fcfe55a
# Scan.plot_hint: ln(I0/It)  --  ln($5/$6)
# Column.1: energy eV
# Column.2: requested_energy eV
# Column.3: measurement_time seconds
# Column.4: xmu 
# Column.5: I0 nA
# Column.6: It nA
# Column.7: Ir nA
# ///////////
# sample courtesy Simon Bare and Shelly Kelly
# -----------
# energy  requested_energy  measurement_time  xmu  I0  It  Ir
  13680.452  13680.500  0.500  0.558069  39.065138  22.357486  5.140692
  13690.537  13690.500  0.500  0.555074  39.027240  22.402790  5.153531
  13700.555  13700.500  0.500  0.551914  38.962569  22.436461  5.168980
  13710.580  13710.500  0.500  0.548826  38.879987  22.458162  5.192960
  13720.586  13720.500  0.500  0.546172  38.791377  22.466525  5.230122
  13730.591  13730.500  0.500  0.543480  38.708191  22.478774  5.265326
  13740.545  13740.500  0.500  0.541114  38.624071  22.483040  5.274271
  13750.547  13750.500  0.500  0.539430  38.525740  22.463613  5.271558
  13760.554  13760.500  0.500  0.538009  38.464717  22.459924  5.273065
  13770.577  13770.500  0.500  0.536577  38.380911  22.443108  5.272948
  13780.614  13780.500  0.500  0.535185  38.287353  22.419582  5.276016
  13790.492  13790.500  0.500  0.533452  38.199122  22.406710  5.282262
  13800.492  13800.500  0.500  0.531807  38.127952  22.401785  5.296833
  13810.524  13810.500  0.500  0.529905  38.042714  22.394261  5.315633
  13820.528  13820.500  0.500  0.527525  37.941214  22.387733  5.330415
  13830.547  13830.500  0.500  0.525554  37.826954  22.364345  5.339774
  13840.548  13840.500  0.500  0.523696  37.780966  22.378689  5.354955
  13850.546  13850.500  0.500  0.521989  37.691034  22.363567  5.354682
  13852.465  13852.500  0.500  0.521793  37.653956  22.345938  5.350497
  13854.444  13854.500  0.500  0.521590  37.623226  22.332253  5.345349
  13856.465  13856.500  0.500  0.521414  37.599556  22.322119  5.340933
  13858.470  13858.500  0.500  0.521182  37.606484  22.331414  5.340455
  13860.483  13860.500  0.500  0.521150  37.589559  22.322077  5.334882
  13862.481  13862.500  0.500  0.521056  37.557218  22.304966  5.326366
  13864.462  13864.500  0.500  0.521235  37.542811  22.292421  5.320439
  13866.461  13866.500  0.500  0.521320  37.522327  22.278373  5.310246
  13868.486  13868.500  0.500  0.521665  37.500493  22.257729  5.297467
  13870.494  13870.500  0.500  0.522026  37.468206  22.230531  5.281301
  13870.738  13870.800  0.500  0.522076  37.467167  22.228795  5.279135
  13871.040  13871.100  0.500  0.522236  37.478560  22.232011  5.278612
  13871.343  13871.400  0.500  0.522328  37.454156  22.215486  5.272446
  13871.637  13871.700  0.500  0.522427  37.447141  22.209121  5.268576
  13871.940  13872.000  0.500  0.522348  37.436889  22.204791  5.265746
  13872.242  13872.300  0.500  0.522440  37.428926  22.198042  5.261304
  13872.536  13872.600  0.500  0.522600  37.422985  22.190954  5.258306
  13872.839  13872.900  0.500  0.522781  37.430613  22.191476  5.255215
  13873.150  13873.200  0.500  0.522924  37.428140  22.186824  5.253833
  13873.436  13873.500  0.500  0.522921  37.411098  22.176804  5.246748
  13873.747  13873.800  0.500  0.523284  37.424164  22.176491  5.245468
  13874.067  13874.100  0.500  0.523242  37.388161  22.156077  5.236341
  13874.336  13874.400  0.500  0.523534  37.388442  22.149773  5.232730
  13874.647  13874.700  0.500  0.523649  37.385960  22.145774  5.229571
  13874.975  13875.000  0.500  0.523744  37.378450  22.139207  5.222713
  13875.252  13875.300  0.500  0.523899  37.381908  22.137832  5.219398
  13875.564  13875.600  0.500  0.524077  37.358537  22.120040  5.209973
  13875.883  13875.900  0.500  0.524442  37.361863  22.113943  5.205039
  13876.161  13876.200  0.500  0.524672  37.375346  22.116838  5.203069
  13876.472  13876.500  0.500  0.524767  37.369483  22.111270  5.195713
  13876.792  13876.800  0.500  0.525192  37.370396  22.102425  5.190238
  13877.069  13877.100  0.500  0.525312  37.363718  22.095819  5.182864
  13877.389  13877.400  0.500  0.525641  37.355464  22.083669  5.175162
  13877.683  13877.700  0.500  0.525977  37.339688  22.066918  5.164506
  13877.978  13878.000  0.500  0.526270  37.334804  22.057583  5.155314
  13878.289  13878.300  0.500  0.526663  37.340516  22.052268  5.149068
  13878.584  13878.600  0.500  0.526936  37.329130  22.039531  5.138307
  13878.895  13878.900  0.500  0.527351  37.307528  22.017636  5.126029
  13879.198  13879.200  0.500  0.527782  37.302300  22.005079  5.115099
  13879.492  13879.500  0.500  0.528152  37.300942  21.996128  5.104664
  13879.795  13879.800  0.500  0.528622  37.281374  21.974265  5.091658
  13880.090  13880.100  0.500  0.529168  37.274929  21.958480  5.079731
  13880.393  13880.400  0.500  0.529690  37.273596  21.946229  5.066731
  13880.704  13880.700  0.500  0.530193  37.249379  21.920941  5.050118
  13880.982  13881.000  0.500  0.530614  37.234261  21.902819  5.037176
  13881.285  13881.300  0.500  0.531320  37.245125  21.893746  5.023756
  13881.580  13881.600  0.500  0.531964  37.222550  21.866380  5.007400
  13881.874  13881.900  0.500  0.532694  37.191302  21.832099  4.987745
  13882.186  13882.200  0.500  0.533478  37.206767  21.824060  4.973446
  13882.464  13882.500  0.500  0.534162  37.198953  21.804543  4.957553
  13882.784  13882.800  0.500  0.534936  37.191133  21.783100  4.938932
  13883.061  13883.100  0.500  0.535806  37.189262  21.763059  4.922859
  13883.390  13883.400  0.500  0.536714  37.193833  21.745989  4.905084
  13883.684  13883.700  0.500  0.537675  37.184348  21.719561  4.886955
  13884.004  13884.000  0.500  0.538482  37.196124  21.708896  4.870512
  13884.291  13884.300  0.500  0.539407  37.182613  21.680962  4.852221
  13884.594  13884.600  0.500  0.540413  37.168377  21.650868  4.831012
  13884.914  13884.900  0.500  0.541462  37.157315  21.621723  4.811563
  13885.200  13885.200  0.500  0.542514  37.150477  21.595024  4.795056
  13885.512  13885.500  0.500  0.543662  37.141726  21.565156  4.774144
  13885.798  13885.800  0.500  0.544842  37.140625  21.539079  4.755014
  13886.118  13886.100  0.500  0.546097  37.128145  21.504840  4.734302
  13886.396  13886.400  0.500  0.547252  37.117535  21.473885  4.714585
  13886.708  13886.700  0.500  0.548892  37.118291  21.439142  4.695422
  13887.003  13887.000  0.500  0.550056  37.106627  21.407465  4.676520
  13887.298  13887.300  0.500  0.551712  37.092099  21.363665  4.652574
  13887.609  13887.600  0.500  0.553484  37.081820  21.319951  4.630251
  13887.896  13887.900  0.500  0.554962  37.075602  21.284889  4.610841
  13888.199  13888.200  0.500  0.556898  37.061884  21.235864  4.587009
  13888.477  13888.500  0.500  0.558935  37.056558  21.189602  4.565130
  13888.798  13888.800  0.500  0.561194  37.049293  21.137647  4.538802
  13889.084  13889.100  0.500  0.563370  37.029140  21.080230  4.513676
  13889.387  13889.400  0.500  0.565883  37.033488  21.029788  4.490609
  13889.682  13889.700  0.500  0.568365  37.029837  20.975580  4.464327
  13889.977  13890.000  0.500  0.571121  37.012342  20.907978  4.436983
  13890.289  13890.300  0.500  0.574282  37.006515  20.838703  4.407330
  13890.576  13890.600  0.500  0.576998  37.011953  20.785235  4.382943
  13890.896  13890.900  0.500  0.580267  37.014364  20.718757  4.352925
  13891.183  13891.200  0.500  0.583360  36.997228  20.645204  4.324418
  13891.486  13891.500  0.500  0.586756  36.976021  20.563409  4.292096
  13891.798  13891.800  0.500  0.590071  36.964956  20.489230  4.260712
  13892.093  13892.100  0.500  0.593290  36.972335  20.427462  4.233909
  13892.405  13892.400  0.500  0.596550  36.944035  20.345389  4.201990
  13892.692  13892.700  0.500  0.599400  36.935547  20.282826  4.174517
  13893.012  13893.000  0.500  0.602690  36.946840  20.222391  4.148474
  13893.307  13893.300  0.500  0.605390  36.918994  20.152663  4.122270
  13893.611  13893.600  0.500  0.607907  36.912333  20.098374  4.097446
  13893.898  13893.900  0.500  0.610056  36.901807  20.049499  4.075011
  13894.210  13894.200  0.500  0.612177  36.894812  20.003237  4.054170
  13894.522  13894.500  0.500  0.614008  36.885641  19.961686  4.033769
  13894.800  13894.800  0.500  0.615509  36.893970  19.936248  4.018646
  13895.120  13895.100  0.500  0.617023  36.886053  19.901800  4.002307
  13895.399  13895.400  0.500  0.617952  36.898039  19.889786  3.990253
  13895.702  13895.700  0.500  0.618795  36.849960  19.847133  3.974045
  13895.998  13896.000  0.500  0.619494  36.852161  19.834450  3.963783
  13896.293  13896.300  0.500  0.620045  36.840903  19.817461  3.954522
  13896.588  13896.600  0.500  0.620330  36.825044  19.803298  3.946415
  13896.875  13896.900  0.500  0.620574  36.824556  19.798207  3.939918
  13897.187  13897.200  0.500  0.620731  36.827861  19.796861  3.936727
  13897.483  13897.500  0.500  0.620844  36.830084  19.795827  3.933194
  13897.786  13897.800  0.500  0.620653  36.815939  19.791992  3.928854
  13898.090  13898.100  0.500  0.620488  36.835663  19.805880  3.929744
  13898.377  13898.400  0.500  0.620261  36.822355  19.803216  3.926752
  13898.698  13898.700  0.500  0.620161  36.829637  19.809114  3.927719
  13898.985  13899.000  0.500  0.620019  36.835506  19.815086  3.928241
  13899.297  13899.300  0.500  0.619821  36.834938  19.818697  3.929178
  13899.575  13899.600  0.500  0.619633  36.833821  19.821822  3.930271
  13899.896  13899.900  0.500  0.619412  36.833841  19.826221  3.931683
  13900.208  13900.200  0.500  0.619379  36.837090  19.828610  3.934138
  13900.495  13900.500  0.500  0.619350  36.832843  19.826900  3.935050
  13900.808  13900.800  0.500  0.619288  36.946634  19.889401  3.950609
  13901.112  13901.100  0.500  0.619256  36.940399  19.886671  3.951426
  13901.415  13901.400  0.500  0.619332  36.949118  19.889848  3.954319
  13901.702  13901.700  0.500  0.619437  36.948397  19.887371  3.957246
  13902.006  13902.000  0.500  0.619648  36.939685  19.878498  3.957455
  13902.302  13902.300  0.500  0.619800  36.933370  19.872081  3.962147
  13902.597  13902.600  0.500  0.619969  36.921286  19.862224  3.964073
  13902.918  13902.900  0.500  0.620087  36.918478  19.858356  3.967642
  13903.197  13903.200  0.500  0.620366  36.917820  19.852470  3.971040
  13903.509  13903.500  0.500  0.620669  36.888648  19.830772  3.971225
  13903.805  13903.800  0.500  0.620774  36.911697  19.841085  3.977808
  13904.092  13904.100  0.500  0.621175  36.898954  19.826272  3.980046
  13904.405  13904.400  0.500  0.621489  36.890115  19.815302  3.983899
  13904.683  13904.700  0.500  0.621768  36.889773  19.809590  3.986865
  13904.987  13905.000  0.500  0.621717  36.904758  19.818658  3.992657
  13905.283  13905.300  0.500  0.622121  36.915395  19.816354  3.997480
  13905.460  13905.500  0.500  0.622225  36.916912  19.815118  3.999752
  13906.500  13906.490  0.500  0.622997  36.933207  19.808556  4.013707
  13907.513  13907.490  0.500  0.623184  36.929087  19.802644  4.024374
  13908.519  13908.510  0.500  0.623099  36.917772  19.798266  4.033343
  13909.592  13909.560  0.500  0.622807  36.880979  19.784300  4.036242
  13910.624  13910.620  0.500  0.622563  36.852329  19.773753  4.037564
  13911.723  13911.700  0.500  0.622259  36.867484  19.787909  4.040232
  13912.805  13912.800  0.500  0.622207  36.871454  19.791058  4.038061
  13913.904  13913.920  0.500  0.622503  36.880398  19.790010  4.032889
  13915.063  13915.060  0.500  0.622787  36.855079  19.770800  4.020216
  13916.231  13916.210  0.500  0.623137  36.846750  19.759423  4.008385
  13917.415  13917.390  0.500  0.623159  36.829909  19.749962  3.992868
  13918.608  13918.580  0.500  0.622789  36.794065  19.738029  3.977262
  13919.793  13919.800  0.500  0.622303  36.782158  19.741245  3.966118
  13921.046  13921.030  0.500  0.620865  36.782912  19.770046  3.958972
  13922.265  13922.280  0.500  0.619323  36.771072  19.794199  3.954914
  13923.570  13923.550  0.500  0.617468  36.785578  19.838766  3.958209
  13924.849  13924.840  0.500  0.615314  36.756099  19.865619  3.962529
  13926.179  13926.150  0.500  0.612762  36.745224  19.910478  3.975946
  13927.500  13927.480  0.500  0.610018  36.736685  19.960551  3.996636
  13928.840  13928.830  0.500  0.607609  36.729842  20.004958  4.019919
  13930.204  13930.200  0.500  0.605614  36.724268  20.041871  4.045241
  13931.586  13931.580  0.500  0.603981  36.727151  20.076201  4.068495
  13932.952  13932.990  0.500  0.602935  36.727953  20.097661  4.087106
  13934.410  13934.410  0.500  0.602350  36.728584  20.109755  4.103165
  13935.827  13935.850  0.500  0.601920  36.709741  20.108097  4.111146
  13937.312  13937.310  0.500  0.601939  36.702961  20.103990  4.112992
  13938.763  13938.790  0.500  0.602119  36.693089  20.094973  4.112307
  13940.283  13940.290  0.500  0.602392  36.674456  20.079280  4.112212
  13941.769  13941.810  0.500  0.602557  36.648928  20.061988  4.108540
  13943.340  13943.350  0.500  0.603128  36.642273  20.046900  4.106817
  13944.903  13944.910  0.500  0.603619  36.626978  20.028695  4.104720
  13946.475  13946.480  0.500  0.604034  36.606436  20.009157  4.100299
  13948.064  13948.080  0.500  0.604487  36.602225  19.997795  4.098347
  13949.662  13949.690  0.500  0.604989  36.597692  19.985278  4.095985
  13951.303  13951.330  0.500  0.605443  36.582725  19.968036  4.092925
  13952.962  13952.980  0.500  0.606084  36.549123  19.936915  4.086105
  13955.173  13954.650  0.500  0.607144  36.541564  19.911668  4.080527
  13956.254  13956.340  0.500  0.607774  36.523028  19.889036  4.075273
  13958.237  13958.050  0.500  0.609205  36.488913  19.842054  4.062845
  13959.854  13959.780  0.500  0.610243  36.469004  19.810647  4.052454
  13961.566  13961.530  0.500  0.611724  36.466792  19.780136  4.043994
  13963.338  13963.290  0.500  0.613093  36.440950  19.739081  4.032433
  13965.152  13965.080  0.500  0.614353  36.412500  19.698826  4.022796
  13966.925  13966.880  0.500  0.614959  36.380574  19.669635  4.014979
  13968.766  13968.710  0.500  0.615201  36.341485  19.643742  4.010153
  13970.608  13970.550  0.500  0.614570  36.255153  19.609453  4.007257
  13972.458  13972.410  0.500  0.612985  35.555945  19.261767  3.941983
  13974.352  13974.290  0.500  0.610342  33.811210  18.365068  3.765267
  13976.221  13976.190  0.500  0.607441  35.560048  19.371092  3.978395
  13978.133  13978.110  0.500  0.605062  36.327194  19.836113  4.082015
  13980.096  13980.050  0.500  0.602672  36.365799  19.904716  4.102040
  13982.044  13982.010  0.500  0.600330  36.335706  19.934884  4.113955
  13984.017  13983.980  0.500  0.598568  36.341982  19.973479  4.125393
  13986.034  13985.980  0.500  0.596863  36.311114  19.990577  4.131762
  13988.025  13987.990  0.500  0.595406  36.299468  20.013305  4.138386
  13990.069  13990.020  0.500  0.594285  36.268668  20.018746  4.139013
  13992.130  13992.080  0.500  0.593420  36.255699  20.028908  4.140974
  13994.157  13994.150  0.500  0.592575  36.235225  20.034510  4.142989
  13996.254  13996.240  0.500  0.591875  36.229903  20.045612  4.145436
  13998.385  13998.350  0.500  0.591481  36.214090  20.044758  4.148838
  14000.492  14000.480  0.500  0.590777  36.195919  20.048805  4.150912
  14002.659  14002.620  0.500  0.589980  36.191582  20.062379  4.157833
  14004.827  14004.790  0.500  0.589175  36.155000  20.058246  4.162183
  14007.038  14006.980  0.500  0.588543  36.136987  20.060929  4.167900
  14009.207  14009.180  0.500  0.588089  36.123890  20.062770  4.171144
  14011.411  14011.400  0.500  0.587548  36.105875  20.063600  4.173598
  14013.659  14013.650  0.500  0.587388  36.096316  20.061505  4.174635
  14015.925  14015.910  0.500  0.587413  36.066645  20.044504  4.173065
  14018.200  14018.190  0.500  0.587466  36.034308  20.025474  4.165877
  14020.510  14020.490  0.500  0.587932  36.019753  20.008060  4.158885
  14022.829  14022.810  0.500  0.588811  36.000882  19.980017  4.149911
  14025.166  14025.150  0.500  0.589612  35.986957  19.956290  4.140449
  14027.504  14027.500  0.500  0.590491  35.974210  19.931693  4.132801
  14029.886  14029.880  0.500  0.591251  35.927765  19.890837  4.124226
  14032.286  14032.270  0.500  0.591962  35.921581  19.873273  4.122710
  14034.713  14034.690  0.500  0.592164  35.892159  19.852990  4.121502
  14037.158  14037.120  0.500  0.592326  35.894041  19.850821  4.125456
  14039.586  14039.570  0.500  0.591988  35.858843  19.838065  4.128714
  14042.075  14042.050  0.500  0.591255  35.837433  19.840750  4.134293
  14044.557  14044.540  0.500  0.590371  35.810040  19.843125  4.141775
  14047.048  14047.050  0.500  0.589280  35.808105  19.863696  4.153286
  14049.601  14049.570  0.500  0.587981  35.783397  19.875794  4.163758
  14052.163  14052.120  0.500  0.586735  35.761180  19.888229  4.173164
  14054.692  14054.690  0.500  0.585533  35.734406  19.897247  4.181091
  14057.290  14057.270  0.500  0.584297  35.705644  19.905807  4.190388
  14059.890  14059.880  0.500  0.583067  35.673160  19.912178  4.194829
  14062.499  14062.500  0.500  0.581948  35.627680  19.909065  4.196914
  14065.152  14065.150  0.500  0.580836  35.591129  19.910771  4.202486
  14067.824  14067.810  0.500  0.579751  35.530643  19.898500  4.206465
  14070.496  14070.490  0.500  0.578693  35.380226  19.835230  4.199605
  14073.204  14073.190  0.500  0.578027  34.036703  19.094735  4.050361
  14075.905  14075.910  0.500  0.576239  34.236511  19.241189  4.089229
  14078.650  14078.650  0.500  0.575590  35.652311  20.049905  4.265957
  14081.414  14081.400  0.500  0.574755  35.633560  20.056084  4.270653
  14084.204  14084.180  0.500  0.574080  35.467472  19.976088  4.255889
  14086.996  14086.970  0.500  0.573295  35.567191  20.047983  4.267172
  14089.788  14089.790  0.500  0.572529  35.522543  20.038159  4.263575
  14092.634  14092.620  0.500  0.571900  35.497883  20.036851  4.261773
  14095.499  14095.470  0.500  0.571409  35.492042  20.043388  4.260625
  14098.373  14098.350  0.500  0.571004  35.427031  20.014779  4.254177
  14101.266  14101.240  0.500  0.570849  35.384426  19.993816  4.250102
  14104.151  14104.150  0.500  0.570595  35.354880  19.982187  4.249054
  14107.082  14107.070  0.500  0.570499  35.300468  19.953363  4.244697
  14110.048  14110.020  0.500  0.570470  35.196651  19.895258  4.233514
  14113.006  14112.990  0.500  0.570532  35.256789  19.928001  4.240510
  14115.992  14115.970  0.500  0.570520  35.170450  19.879444  4.233852
  14118.988  14118.980  0.500  0.570560  34.705747  19.615996  4.181793
  14122.021  14122.000  0.500  0.569699  33.245914  18.807079  4.014891
