# XDI/1.0 BlueSky/1.10.0 BMM/2023-1.0-py310-tiled
# Beamline.name: BMM (06BM) -- Beamline for Materials Measurement (NIST)
# Beamline.xray_source: NSLS-II three-pole wiggler
# Beamline.collimation: paraboloid mirror, 5 nm Rh on 30 nm Pt
# Beamline.focusing: not in use
# Beamline.harmonic_rejection: flat mirror, Pt stripe, pitch = 7.0 mrad relative to beam
# Beamline.software: Bluesky 1.10.0, Ophyd 1.7.0, DataBroker 2.0.0b13, Python 3.10.8, 2023-1.0-py310-tiled
# Detector.I0: 10 cm N2
# Detector.I1: 25 cm N2
# Detector.I2: 25 cm N2
# Element.symbol: Pt
# Element.edge: L3
# Element.reference: Pt
# Element.reference_material: Pt foil
# Facility.name: NSLS-II
# Facility.energy: 3.0
# Facility.current: 399.7
# Facility.mode: top-off
# Facility.GUP: 301027
# Facility.SAF: 310583
# Facility.cycle: 2023-2
# Mono.name: Si(111)
# Mono.d_spacing: 3.1351860
# Mono.encoder_resolution: 0.0000050 deg/ct
# Mono.angle_offset: 16.0754326 deg
# Mono.scan_mode: pseudo channel cut
# Mono.scan_type: step
# Mono.direction: forward in energy
# Sample.name: PtRu powder
# Sample.prep: powder on tape
# Sample.x: 119.711 mm
# Sample.y: 114.376 mm
# Sample.SDD_position: 205.000 mm
# Scan.experimenters: Bruce Ravel
# Scan.edge_energy: 11563.8
# Scan.start_time: 2023-06-27T17:05:25
# Scan.end_time: 2023-06-27T17:13:12
# Scan.transient_id: 85175
# Scan.uid: ab280ec3-581e-4457-8b6d-9ad6437a2655
# Scan.plot_hint: ln(I0/It)  --  ln($5/$6)
# Column.1: energy eV
# Column.2: requested_energy eV
# Column.3: measurement_time seconds
# Column.4: xmu 
# Column.5: I0 nA
# Column.6: It nA
# Column.7: Ir nA
# ///////////
# BMM standards collection
# -----------
# energy  requested_energy  measurement_time  xmu  I0  It  Ir
  11363.812  11363.800  0.500  -0.189607  71.549000  86.486631  35.975816
  11373.867  11373.800  0.500  -0.190675  71.081343  86.013116  35.861346
  11383.878  11383.800  0.500  -0.191909  71.008303  86.030868  35.945280
  11393.834  11393.800  0.500  -0.193218  69.616433  84.454946  35.360197
  11403.858  11403.800  0.500  -0.194459  70.700177  85.876236  36.027794
  11413.810  11413.800  0.500  -0.195611  70.474442  85.700704  36.029739
  11423.836  11423.800  0.500  -0.196704  70.392028  85.694116  36.105313
  11433.852  11433.800  0.500  -0.197933  70.203219  85.569340  36.129441
  11443.846  11443.800  0.500  -0.199114  70.023048  85.450561  36.155043
  11453.846  11453.800  0.500  -0.200274  69.852281  85.341186  36.177943
  11463.852  11463.800  0.500  -0.201371  69.676938  85.220349  36.198653
  11473.865  11473.800  0.500  -0.202517  69.465623  85.059335  36.191206
  11483.763  11483.800  0.500  -0.203633  69.390523  85.062212  36.257374
  11493.754  11493.800  0.500  -0.204803  69.184204  84.908584  36.244998
  11503.762  11503.800  0.500  -0.205800  68.995169  84.761111  36.220331
  11513.759  11513.800  0.500  -0.206736  68.848995  84.660681  36.193742
  11523.774  11523.800  0.500  -0.207645  68.654479  84.498290  36.098030
  11533.771  11533.800  0.500  -0.208245  68.493080  84.350234  35.915860
  11535.744  11535.800  0.500  -0.208222  68.444838  84.288887  35.853866
  11537.752  11537.800  0.500  -0.208166  68.403964  84.233876  35.767568
  11539.744  11539.800  0.500  -0.208096  68.358680  84.172215  35.680262
  11541.748  11541.800  0.500  -0.208091  68.322946  84.127741  35.578196
  11543.741  11543.800  0.500  -0.207913  68.283428  84.064107  35.443792
  11545.746  11545.800  0.500  -0.207694  68.229669  83.979597  35.272085
  11547.757  11547.800  0.500  -0.207334  68.182509  83.891298  35.057232
  11549.758  11549.800  0.500  -0.206696  68.126402  83.768850  34.770205
  11551.760  11551.800  0.500  -0.205779  68.087763  83.644534  34.399614
  11553.750  11553.800  0.500  -0.204569  68.019471  83.459651  33.883801
  11554.041  11554.100  0.500  -0.204272  68.003545  83.415311  33.787283
  11554.348  11554.400  0.500  -0.204067  67.996324  83.389331  33.685930
  11554.644  11554.700  0.500  -0.203743  67.985626  83.349230  33.578730
  11554.946  11555.000  0.500  -0.203431  67.958697  83.290183  33.453732
  11555.248  11555.300  0.500  -0.203055  67.963312  83.264592  33.335949
  11555.562  11555.600  0.500  -0.202745  67.944678  83.215927  33.199700
  11555.852  11555.900  0.500  -0.202405  67.927501  83.166636  33.059806
  11556.160  11556.200  0.500  -0.201956  67.918028  83.117698  32.909464
  11556.467  11556.500  0.500  -0.201507  67.895381  83.052671  32.739703
  11556.769  11556.800  0.500  -0.201105  67.990058  83.135077  32.623412
  11557.071  11557.100  0.500  -0.200606  68.083595  83.207901  32.486315
  11557.379  11557.400  0.500  -0.199994  68.065968  83.135466  32.277774
  11557.675  11557.700  0.500  -0.199427  68.038257  83.054476  32.063921
  11557.972  11558.000  0.500  -0.198739  68.022801  82.978566  31.839719
  11558.285  11558.300  0.500  -0.197997  68.005641  82.896089  31.584422
  11558.593  11558.600  0.500  -0.197249  67.985781  82.809865  31.322540
  11558.872  11558.900  0.500  -0.196460  67.959836  82.713008  31.043795
  11559.180  11559.200  0.500  -0.195592  67.932767  82.608300  30.727985
  11559.488  11559.500  0.500  -0.194526  67.917168  82.501399  30.384501
  11559.790  11559.800  0.500  -0.193404  67.880894  82.364832  30.014400
  11560.087  11560.100  0.500  -0.192195  67.867185  82.248681  29.612553
  11560.389  11560.400  0.500  -0.190838  67.830657  82.092987  29.160529
  11560.679  11560.700  0.500  -0.189280  67.796793  81.924208  28.672736
  11560.976  11561.000  0.500  -0.187748  67.754807  81.748182  28.144325
  11561.290  11561.300  0.500  -0.185729  67.712445  81.532276  27.531621
  11561.592  11561.600  0.500  -0.183579  67.665335  81.300565  26.874074
  11561.882  11561.900  0.500  -0.181231  67.609135  81.042551  26.179046
  11562.179  11562.200  0.500  -0.178551  67.545075  80.749080  25.399876
  11562.481  11562.500  0.500  -0.175412  67.489992  80.430349  24.530617
  11562.772  11562.800  0.500  -0.172060  67.424191  80.082983  23.634300
  11563.074  11563.100  0.500  -0.168021  67.354303  79.677531  22.625401
  11563.388  11563.400  0.500  -0.163553  67.255152  79.205552  21.538174
  11563.679  11563.700  0.500  -0.158811  67.180714  78.743639  20.441989
  11563.970  11564.000  0.500  -0.153470  67.092487  78.221330  19.308715
  11564.284  11564.300  0.500  -0.147446  66.977406  77.618116  18.112148
  11564.580  11564.600  0.500  -0.141057  66.888047  77.020935  16.967049
  11564.877  11564.900  0.500  -0.134163  66.796479  76.387040  15.841969
  11565.191  11565.200  0.500  -0.126643  66.685149  75.688444  14.719118
  11565.493  11565.500  0.500  -0.118871  66.591602  74.997111  13.709434
  11565.778  11565.800  0.500  -0.111268  66.533177  74.363727  12.841745
  11566.092  11566.100  0.500  -0.103483  66.465781  73.712325  12.060256
  11566.383  11566.400  0.500  -0.096360  66.426520  73.145889  11.450565
  11566.686  11566.700  0.500  -0.089689  66.396063  72.626247  10.979379
  11566.994  11567.000  0.500  -0.083725  66.391976  72.189980  10.645345
  11567.297  11567.300  0.500  -0.079070  66.400448  71.863875  10.456503
  11567.588  11567.600  0.500  -0.075466  66.407024  71.612473  10.383877
  11567.902  11567.900  0.500  -0.072767  66.435217  71.449742  10.401920
  11568.193  11568.200  0.500  -0.071588  66.473547  71.406724  10.501188
  11568.495  11568.500  0.500  -0.071263  66.522830  71.436417  10.657756
  11568.810  11568.800  0.500  -0.071932  66.559669  71.523809  10.863271
  11569.101  11569.100  0.500  -0.073410  66.609573  71.683314  11.079847
  11569.403  11569.400  0.500  -0.075716  66.638839  71.880400  11.319993
  11569.700  11569.700  0.500  -0.078656  66.672206  72.128144  11.572796
  11569.991  11570.000  0.500  -0.081944  66.708343  72.404927  11.815529
  11570.294  11570.300  0.500  -0.085566  66.734522  72.696160  12.063067
  11570.602  11570.600  0.500  -0.089544  66.763519  73.017586  12.305961
  11570.894  11570.900  0.500  -0.093396  66.785382  73.323401  12.524060
  11571.196  11571.200  0.500  -0.097143  66.800924  73.615783  12.736989
  11571.493  11571.500  0.500  -0.100895  66.830068  73.924781  12.942427
  11571.790  11571.800  0.500  -0.104373  66.844475  74.198317  13.123149
  11572.099  11572.100  0.500  -0.107627  66.856517  74.453576  13.295095
  11572.402  11572.400  0.500  -0.110661  66.879913  74.705966  13.462202
  11572.681  11572.700  0.500  -0.113251  66.883644  74.903876  13.603786
  11572.990  11573.000  0.500  -0.115724  66.898366  75.105876  13.747563
  11573.287  11573.300  0.500  -0.117787  66.900599  75.263507  13.877784
  11573.584  11573.600  0.500  -0.119569  66.907784  75.405800  13.994907
  11573.887  11573.900  0.500  -0.121392  66.913177  75.549474  14.115622
  11574.190  11574.200  0.500  -0.122850  66.914571  75.661303  14.221083
  11574.481  11574.500  0.500  -0.124126  66.922238  75.766557  14.317324
  11574.801  11574.800  0.500  -0.125168  66.931688  75.856272  14.405503
  11575.093  11575.100  0.500  -0.126131  66.932194  75.929948  14.478315
  11575.390  11575.400  0.500  -0.126883  66.930295  75.984891  14.534425
  11575.705  11575.700  0.500  -0.127447  66.932959  76.030813  14.586290
  11575.996  11576.000  0.500  -0.128013  66.928279  76.068529  14.620180
  11576.299  11576.300  0.500  -0.128364  66.932163  76.099610  14.641703
  11576.602  11576.600  0.500  -0.128621  66.924975  76.111026  14.650408
  11576.893  11576.900  0.500  -0.128770  66.922791  76.119855  14.647474
  11577.196  11577.200  0.500  -0.128812  66.911478  76.110181  14.631974
  11577.505  11577.500  0.500  -0.128894  66.895805  76.098655  14.604181
  11577.808  11577.800  0.500  -0.128872  66.899783  76.101470  14.574596
  11578.106  11578.100  0.500  -0.128839  66.885790  76.083074  14.529875
  11578.409  11578.400  0.500  -0.128669  66.883215  76.067154  14.480238
  11578.706  11578.700  0.500  -0.128444  66.871165  76.036383  14.423582
  11579.004  11579.000  0.500  -0.128232  66.866717  76.015219  14.365481
  11579.318  11579.300  0.500  -0.127973  66.846051  75.972060  14.299531
  11579.604  11579.600  0.500  -0.127591  66.839682  75.935752  14.238992
  11579.907  11579.900  0.500  -0.127151  66.844262  75.907601  14.182878
  11580.211  11580.200  0.500  -0.126857  66.819515  75.857199  14.124742
  11580.502  11580.500  0.500  -0.126627  66.819051  75.839195  14.082109
  11580.805  11580.800  0.500  -0.126300  66.811668  75.806017  14.043703
  11581.115  11581.100  0.500  -0.125879  66.805909  75.767588  14.014765
  11581.394  11581.400  0.500  -0.125694  66.805752  75.753379  13.999841
  11581.692  11581.700  0.500  -0.125552  66.804031  75.740680  13.998282
  11581.995  11582.000  0.500  -0.125473  66.803716  75.734327  14.009239
  11582.287  11582.300  0.500  -0.125380  66.799153  75.722159  14.027869
  11582.590  11582.600  0.500  -0.125310  66.800133  75.717903  14.063529
  11582.900  11582.900  0.500  -0.125470  66.797671  75.727289  14.111966
  11583.191  11583.200  0.500  -0.125474  66.790757  75.719734  14.165155
  11583.495  11583.500  0.500  -0.125597  66.805754  75.746029  14.233528
  11583.786  11583.800  0.500  -0.125741  66.806779  75.758078  14.301383
  11584.084  11584.100  0.500  -0.125974  66.791998  75.758967  14.370643
  11584.393  11584.400  0.500  -0.126245  66.811919  75.802145  14.447405
  11584.697  11584.700  0.500  -0.126509  66.804809  75.814101  14.513972
  11584.989  11585.000  0.500  -0.126860  66.809509  75.846050  14.574148
  11585.298  11585.300  0.500  -0.127054  66.804651  75.855238  14.625284
  11585.601  11585.600  0.500  -0.127367  66.807627  75.882380  14.668850
  11585.899  11585.900  0.500  -0.127579  66.804409  75.894801  14.702693
  11586.203  11586.200  0.500  -0.127711  66.804586  75.905039  14.727282
  11586.500  11586.500  0.500  -0.127863  66.804254  75.916146  14.742220
  11586.798  11586.800  0.500  -0.128056  66.804828  75.931513  14.757079
  11587.108  11587.100  0.500  -0.128188  66.787638  75.921997  14.759197
  11587.411  11587.400  0.500  -0.128372  66.787655  75.935926  14.762206
  11587.709  11587.700  0.500  -0.128366  66.778024  75.924568  14.756858
  11588.013  11588.000  0.500  -0.128448  66.765159  75.916116  14.751843
  11588.305  11588.300  0.500  -0.128479  66.757651  75.909931  14.743739
  11588.597  11588.600  0.500  -0.128432  66.753978  75.902198  14.729976
  11588.795  11588.800  0.500  -0.128432  66.750749  75.898527  14.721885
  11589.806  11589.790  0.500  -0.128249  66.722341  75.852395  14.630470
  11590.793  11590.790  0.500  -0.127761  66.691658  75.780491  14.462062
  11591.815  11591.810  0.500  -0.126886  66.644883  75.661083  14.206960
  11592.867  11592.860  0.500  -0.125826  66.617216  75.549560  13.899088
  11593.919  11593.920  0.500  -0.124839  66.576874  75.429374  13.612108
  11595.018  11595.000  0.500  -0.124003  66.538757  75.323184  13.416803
  11596.112  11596.100  0.500  -0.123347  66.530672  75.264645  13.380864
  11597.235  11597.220  0.500  -0.123109  66.537073  75.253941  13.496914
  11598.381  11598.360  0.500  -0.123368  66.540090  75.276825  13.691376
  11599.516  11599.510  0.500  -0.123716  66.543962  75.307450  13.890478
  11600.698  11600.690  0.500  -0.124099  66.546430  75.339089  14.065369
  11601.881  11601.880  0.500  -0.124395  66.535807  75.349318  14.181794
  11603.110  11603.100  0.500  -0.124648  66.512660  75.342214  14.243700
  11604.352  11604.330  0.500  -0.124822  66.511549  75.354015  14.299508
  11605.599  11605.580  0.500  -0.124961  66.494219  75.344893  14.373058
  11606.864  11606.850  0.500  -0.125035  66.481371  75.335907  14.473289
  11608.159  11608.140  0.500  -0.124979  66.465239  75.313382  14.557757
  11609.449  11609.450  0.500  -0.124738  66.448772  75.276592  14.583378
  11610.797  11610.780  0.500  -0.124475  66.418727  75.222796  14.528709
  11612.128  11612.130  0.500  -0.123881  66.380739  75.135071  14.411955
  11613.518  11613.500  0.500  -0.123058  66.335339  75.021937  14.249372
  11614.908  11614.880  0.500  -0.122325  66.306612  74.934545  14.073982
  11616.311  11616.290  0.500  -0.121644  66.272803  74.845348  13.894854
  11617.731  11617.710  0.500  -0.121210  66.238789  74.774435  13.727702
  11619.152  11619.150  0.500  -0.121149  66.200444  74.726584  13.594241
  11620.602  11620.610  0.500  -0.121217  66.180848  74.709576  13.518761
  11622.088  11622.090  0.500  -0.121603  66.161906  74.717021  13.515027
  11623.616  11623.590  0.500  -0.122342  66.137781  74.745009  13.563708
  11625.132  11625.110  0.500  -0.123198  66.122138  74.791336  13.643426
  11626.660  11626.650  0.500  -0.124115  66.107312  74.843135  13.728208
  11628.213  11628.210  0.500  -0.125150  66.093008  74.904430  13.810698
  11629.789  11629.780  0.500  -0.125974  66.077977  74.949153  13.889086
  11631.383  11631.380  0.500  -0.126912  66.055545  74.993973  13.961590
  11633.002  11632.990  0.500  -0.127649  66.046858  75.039448  14.023164
  11634.662  11634.630  0.500  -0.128496  66.019807  75.072220  14.068988
  11636.293  11636.280  0.500  -0.129024  66.008357  75.098877  14.123797
  11637.959  11637.950  0.500  -0.129728  65.985224  75.125425  14.203003
  11639.650  11639.640  0.500  -0.130339  65.957567  75.139845  14.304784
  11641.371  11641.350  0.500  -0.130938  65.950239  75.176451  14.420867
  11643.098  11643.080  0.500  -0.131443  65.927332  75.188342  14.527909
  11644.844  11644.830  0.500  -0.132022  65.911493  75.213784  14.616299
  11646.602  11646.590  0.500  -0.132251  65.878402  75.193236  14.672237
  11648.378  11648.380  0.500  -0.132618  65.839553  75.176517  14.704301
  11650.184  11650.180  0.500  -0.132653  65.819476  75.156234  14.720999
  11652.032  11652.010  0.500  -0.132736  65.625936  74.941419  14.668056
  11653.869  11653.850  0.500  -0.132724  65.732509  75.062232  14.643972
  11655.718  11655.710  0.500  -0.132586  65.721283  75.039071  14.550414
  11657.597  11657.590  0.500  -0.132344  65.684790  74.979265  14.431680
  11659.489  11659.490  0.500  -0.132192  65.619988  74.893866  14.308268
  11661.435  11661.410  0.500  -0.131879  65.439160  74.664115  14.178330
  11663.375  11663.350  0.500  -0.131809  65.558990  74.795634  14.145200
  11665.322  11665.310  0.500  -0.131725  65.537165  74.764461  14.117648
  11667.282  11667.280  0.500  -0.131776  65.493551  74.718498  14.110208
  11669.295  11669.280  0.500  -0.131898  65.305335  74.512854  14.087944
  11671.309  11671.290  0.500  -0.132063  65.412228  74.647163  14.138413
  11673.342  11673.320  0.500  -0.132066  65.425155  74.662094  14.169198
  11675.393  11675.380  0.500  -0.132176  65.389218  74.629305  14.193901
  11677.451  11677.450  0.500  -0.132402  65.333864  74.582999  14.211816
  11679.563  11679.540  0.500  -0.132564  65.139455  74.373095  14.187817
  11681.669  11681.650  0.500  -0.132623  65.283538  74.542016  14.214629
  11683.789  11683.780  0.500  -0.132822  65.255107  74.524380  14.187754
  11685.927  11685.920  0.500  -0.133093  65.211190  74.494376  14.145997
  11688.107  11688.090  0.500  -0.133289  65.184026  74.477939  14.112968
  11690.295  11690.280  0.500  -0.133610  65.150253  74.463315  14.098538
  11692.518  11692.480  0.500  -0.133803  65.114170  74.436433  14.111146
  11694.701  11694.700  0.500  -0.134135  65.069162  74.409653  14.149704
  11696.962  11696.950  0.500  -0.134548  65.052945  74.421872  14.226440
  11699.242  11699.210  0.500  -0.134883  65.028770  74.419108  14.327500
  11701.517  11701.490  0.500  -0.135300  64.969579  74.382413  14.436351
  11703.799  11703.790  0.500  -0.135774  64.574603  73.965229  14.468090
  11706.123  11706.110  0.500  -0.136180  64.903115  74.371673  14.635487
  11708.472  11708.450  0.500  -0.136700  64.892163  74.397850  14.691451
  11710.828  11710.800  0.500  -0.137195  64.920423  74.467062  14.717168
  11713.191  11713.180  0.500  -0.137737  65.031477  74.634918  14.726944
  11715.585  11715.570  0.500  -0.138182  64.991058  74.621758  14.678919
  11718.015  11717.990  0.500  -0.138481  64.962094  74.610748  14.615491
  11720.441  11720.420  0.500  -0.138816  64.915772  74.582590  14.545632
  11722.874  11722.870  0.500  -0.139101  64.872475  74.554078  14.481332
  11725.367  11725.350  0.500  -0.139314  64.827162  74.517829  14.426571
  11727.856  11727.840  0.500  -0.139612  64.779577  74.485314  14.384352
  11730.363  11730.350  0.500  -0.139794  64.739416  74.452704  14.347508
  11732.872  11732.870  0.500  -0.140003  64.685087  74.405789  14.312854
  11735.436  11735.420  0.500  -0.140121  64.403844  74.091013  14.241741
  11738.018  11737.990  0.500  -0.140286  64.593254  74.321189  14.293593
  11740.584  11740.570  0.500  -0.140481  64.558907  74.296135  14.306281
  11743.188  11743.180  0.500  -0.140613  64.533962  74.277239  14.323343
  11745.834  11745.800  0.500  -0.140839  64.427120  74.171008  14.306414
  11748.469  11748.450  0.500  -0.140957  64.301966  74.035679  14.265385
  11751.124  11751.110  0.500  -0.141236  64.395804  74.164433  14.255445
  11753.816  11753.790  0.500  -0.141376  64.347342  74.118982  14.210947
  11756.521  11756.490  0.500  -0.141546  64.258748  74.029532  14.174767
  11759.222  11759.210  0.500  -0.141677  64.141119  73.903695  14.177549
  11761.972  11761.950  0.500  -0.141838  64.226530  74.014020  14.277239
  11764.723  11764.700  0.500  -0.142022  64.192215  73.988082  14.387096
  11767.494  11767.480  0.500  -0.142378  64.158204  73.975203  14.496180
  11770.284  11770.270  0.500  -0.142617  63.890453  73.684121  14.530592
  11773.129  11773.090  0.500  -0.143019  64.064117  73.914073  14.640108
  11775.940  11775.920  0.500  -0.143470  63.988367  73.859984  14.669595
  11778.776  11778.770  0.500  -0.143979  63.805741  73.686685  14.665052
  11781.681  11781.650  0.500  -0.144436  63.948968  73.885831  14.726786
  11784.568  11784.540  0.500  -0.144853  63.911215  73.873051  14.736795
  11787.469  11787.450  0.500  -0.145431  63.872275  73.870704  14.739463
