# XDI/1.0 BlueSky/1.10.0 BMM/2023-1.0-py310-tiled
# Beamline.name: BMM (06BM) -- Beamline for Materials Measurement (NIST)
# Beamline.xray_source: NSLS-II three-pole wiggler
# Beamline.collimation: paraboloid mirror, 5 nm Rh on 30 nm Pt
# Beamline.focusing: not in use
# Beamline.harmonic_rejection: flat mirror, Pt stripe, pitch = 7.0 mrad relative to beam
# Beamline.software: Bluesky 1.10.0, Ophyd 1.7.0, DataBroker 2.0.0b13, Python 3.10.8, 2023-1.0-py310-tiled
# Detector.I0: 10 cm N2
# Detector.I1: 25 cm N2
# Detector.I2: 25 cm N2
# Element.symbol: Pt
# Element.edge: L1
# Element.reference: Pt
# Element.reference_material: Pt foil
# Facility.name: NSLS-II
# Facility.energy: 3.0
# Facility.current: 399.6
# Facility.mode: top-off
# Facility.GUP: 301027
# Facility.SAF: 310583
# Facility.cycle: 2023-2
# Mono.name: Si(111)
# Mono.d_spacing: 3.1351860
# Mono.encoder_resolution: 0.0000050 deg/ct
# Mono.angle_offset: 16.0754326 deg
# Mono.scan_mode: pseudo channel cut
# Mono.scan_type: step
# Mono.direction: forward in energy
# Sample.name: PtRu powder
# Sample.prep: powder on tape
# Sample.x: 119.711 mm
# Sample.y: 114.376 mm
# Sample.SDD_position: 205.000 mm
# Scan.experimenters: Bruce Ravel
# Scan.edge_energy: 13880.5
# Scan.start_time: 2023-06-27T19:19:16
# Scan.end_time: 2023-06-27T19:26:35
# Scan.transient_id: 85256
# Scan.uid: fa3e1b7f-6b81-4080-976c-1bb83c9eb0f0
# Scan.plot_hint: ln(I0/It)  --  ln($5/$6)
# Column.1: energy eV
# Column.2: requested_energy eV
# Column.3: measurement_time seconds
# Column.4: xmu 
# Column.5: I0 nA
# Column.6: It nA
# Column.7: Ir nA
# ///////////
# BMM standards collection
# -----------
# energy  requested_energy  measurement_time  xmu  I0  It  Ir
  13680.468  13680.500  0.500  -0.281986  38.725264  51.340398  11.811481
  13690.529  13690.500  0.500  -0.282612  38.690299  51.326187  11.814963
  13700.522  13700.500  0.500  -0.283429  38.619674  51.274375  11.822492
  13710.522  13710.500  0.500  -0.284189  38.533701  51.199124  11.847549
  13720.554  13720.500  0.500  -0.284992  38.449384  51.128117  11.908314
  13730.534  13730.500  0.500  -0.285682  38.376189  51.066020  11.965775
  13741.477  13740.500  0.500  -0.286398  38.308336  51.012245  11.973733
  13750.555  13750.500  0.500  -0.287000  38.357329  51.108212  11.999050
  13760.596  13760.500  0.500  -0.287647  38.392291  51.187937  12.024995
  13770.536  13770.500  0.500  -0.288434  38.274381  51.070895  12.006910
  13780.515  13780.500  0.500  -0.289111  38.209110  51.018339  12.013679
  13790.534  13790.500  0.500  -0.289808  38.120624  50.935683  12.017791
  13800.525  13800.500  0.500  -0.290507  38.031831  50.852549  12.030458
  13810.524  13810.500  0.500  -0.291227  37.957723  50.790004  12.060620
  13820.545  13820.500  0.500  -0.291900  37.870203  50.707041  12.076035
  13830.539  13830.500  0.500  -0.292542  37.747646  50.575386  12.080981
  13840.531  13840.500  0.500  -0.293126  37.698127  50.538571  12.098701
  13850.529  13850.500  0.500  -0.293646  37.596530  50.428575  12.080326
  13852.448  13852.500  0.500  -0.293719  37.568247  50.394292  12.072331
  13854.444  13854.500  0.500  -0.293800  37.548205  50.371525  12.062370
  13856.456  13856.500  0.500  -0.293903  37.512857  50.329244  12.045686
  13858.461  13858.500  0.500  -0.293890  37.637081  50.495273  12.082682
  13860.450  13860.500  0.500  -0.293958  37.619723  50.475423  12.072249
  13862.456  13862.500  0.500  -0.294000  37.586694  50.433222  12.052005
  13864.446  13864.500  0.500  -0.294042  37.569435  50.412166  12.038355
  13866.453  13866.500  0.500  -0.294027  37.566835  50.407949  12.023121
  13868.444  13868.500  0.500  -0.294014  37.532326  50.360967  11.994838
  13870.469  13870.500  0.500  -0.293968  37.508070  50.326119  11.963254
  13870.738  13870.800  0.500  -0.294015  37.500666  50.318530  11.957812
  13871.040  13871.100  0.500  -0.293895  37.491917  50.300786  11.950556
  13871.343  13871.400  0.500  -0.293866  37.495134  50.303637  11.945718
  13871.645  13871.700  0.500  -0.293852  37.498952  50.308019  11.944063
  13871.956  13872.000  0.500  -0.293796  37.480509  50.280469  11.931940
  13872.251  13872.300  0.500  -0.293883  37.486755  50.293230  11.929980
  13872.545  13872.600  0.500  -0.293758  37.465836  50.258868  11.916774
  13872.848  13872.900  0.500  -0.293844  37.460981  50.256709  11.911883
  13873.175  13873.200  0.500  -0.293765  37.462644  50.254982  11.908407
  13873.478  13873.500  0.500  -0.293706  37.440242  50.221957  11.893166
  13873.756  13873.800  0.500  -0.293650  37.427366  50.201850  11.880981
  13874.050  13874.100  0.500  -0.293717  37.411843  50.184397  11.870410
  13874.369  13874.400  0.500  -0.293515  37.407460  50.168377  11.860107
  13874.672  13874.700  0.500  -0.293588  37.410331  50.175888  11.853616
  13874.966  13875.000  0.500  -0.293506  37.421576  50.186876  11.849233
  13875.261  13875.300  0.500  -0.293446  37.407503  50.164999  11.835570
  13875.555  13875.600  0.500  -0.293338  37.397793  50.146560  11.823044
  13875.875  13875.900  0.500  -0.293319  37.393085  50.139260  11.813791
  13876.178  13876.200  0.500  -0.293332  37.405039  50.155966  11.807196
  13876.464  13876.500  0.500  -0.293227  37.395185  50.137474  11.794625
  13876.766  13876.800  0.500  -0.293221  37.397625  50.140451  11.783516
  13877.069  13877.100  0.500  -0.293138  37.372311  50.102344  11.761045
  13877.372  13877.400  0.500  -0.292971  37.375382  50.098103  11.749055
  13877.675  13877.700  0.500  -0.292817  37.399295  50.122434  11.743319
  13877.944  13878.000  0.500  -0.292763  37.375976  50.088480  11.720547
  13878.264  13878.300  0.500  -0.292701  37.354239  50.056239  11.698855
  13878.567  13878.600  0.500  -0.292547  37.372047  50.072385  11.686598
  13878.870  13878.900  0.500  -0.292446  37.350760  50.038816  11.661602
  13879.164  13879.200  0.500  -0.292379  37.330818  50.008784  11.638083
  13879.459  13879.500  0.500  -0.292078  37.328956  49.991195  11.618022
  13879.770  13879.800  0.500  -0.291971  37.321645  49.976088  11.595673
  13880.073  13880.100  0.500  -0.291863  37.312652  49.958647  11.567776
  13880.359  13880.400  0.500  -0.291690  37.295421  49.926924  11.541282
  13880.662  13880.700  0.500  -0.291498  37.284038  49.902115  11.516921
  13880.965  13881.000  0.500  -0.291271  37.269812  49.871768  11.481904
  13881.293  13881.300  0.500  -0.291087  37.253781  49.841147  11.451474
  13881.580  13881.600  0.500  -0.290899  37.253516  49.831379  11.423847
  13881.874  13881.900  0.500  -0.290689  37.261534  49.831682  11.399435
  13882.177  13882.200  0.500  -0.290471  37.246578  49.800800  11.363008
  13882.497  13882.500  0.500  -0.290226  37.218667  49.751302  11.324935
  13882.784  13882.800  0.500  -0.290002  37.219373  49.741107  11.295443
  13883.078  13883.100  0.500  -0.289778  37.222547  49.734174  11.264609
  13883.381  13883.400  0.500  -0.289510  37.219629  49.716973  11.231549
  13883.701  13883.700  0.500  -0.289309  37.220664  49.708342  11.198104
  13884.004  13884.000  0.500  -0.289062  37.204016  49.673875  11.159100
  13884.291  13884.300  0.500  -0.288763  37.201903  49.656172  11.127735
  13884.594  13884.600  0.500  -0.288534  37.202467  49.645568  11.095598
  13884.897  13884.900  0.500  -0.288213  37.202449  49.629612  11.061173
  13885.192  13885.200  0.500  -0.288047  37.184237  49.597058  11.026522
  13885.504  13885.500  0.500  -0.287684  37.188596  49.584885  10.992014
  13885.807  13885.800  0.500  -0.287415  37.174088  49.552215  10.956951
  13886.110  13886.100  0.500  -0.287138  37.189577  49.559130  10.925849
  13886.396  13886.400  0.500  -0.286962  37.146640  49.493221  10.883714
  13886.700  13886.700  0.500  -0.286586  37.147552  49.475786  10.849113
  13887.003  13887.000  0.500  -0.286350  37.148292  49.465144  10.818983
  13887.306  13887.300  0.500  -0.285994  37.135694  49.430741  10.782008
  13887.601  13887.600  0.500  -0.285887  37.110707  49.392200  10.742513
  13887.904  13887.900  0.500  -0.285582  37.112941  49.380109  10.710966
  13888.199  13888.200  0.500  -0.285341  37.121257  49.379254  10.680084
  13888.519  13888.500  0.500  -0.285028  37.080505  49.309625  10.634243
  13888.806  13888.800  0.500  -0.284740  37.082451  49.298019  10.600980
  13889.092  13889.100  0.500  -0.284466  37.065149  49.261525  10.562940
  13889.396  13889.400  0.500  -0.284223  37.073584  49.260776  10.532160
  13889.699  13889.700  0.500  -0.283923  37.056119  49.222771  10.492143
  13889.986  13890.000  0.500  -0.283551  37.056108  49.204432  10.455827
  13890.289  13890.300  0.500  -0.283453  37.053922  49.196740  10.419725
  13890.584  13890.600  0.500  -0.283072  37.064388  49.191892  10.388965
  13890.896  13890.900  0.500  -0.282653  37.040032  49.138959  10.340467
  13891.183  13891.200  0.500  -0.282472  37.021204  49.105090  10.299824
  13891.478  13891.500  0.500  -0.282109  36.998603  49.057320  10.257310
  13891.798  13891.800  0.500  -0.281706  37.005936  49.047261  10.218196
  13892.093  13892.100  0.500  -0.281340  36.991427  49.010083  10.175633
  13892.388  13892.400  0.500  -0.281031  36.983625  48.984613  10.136349
  13892.683  13892.700  0.500  -0.280807  36.988314  48.979836  10.103774
  13892.978  13893.000  0.500  -0.280454  36.993898  48.969958  10.067701
  13893.299  13893.300  0.500  -0.280074  36.958722  48.904826  10.019417
  13893.586  13893.600  0.500  -0.279865  36.949821  48.882823  9.983008
  13893.881  13893.900  0.500  -0.279503  36.950654  48.866232  9.949383
  13894.184  13894.200  0.500  -0.279180  36.940582  48.837127  9.913441
  13894.496  13894.500  0.500  -0.278958  36.933440  48.816861  9.881575
  13894.800  13894.800  0.500  -0.278647  36.923911  48.789085  9.850372
  13895.095  13895.100  0.500  -0.278306  36.926154  48.775381  9.824033
  13895.390  13895.400  0.500  -0.278100  36.912061  48.746729  9.794274
  13895.702  13895.700  0.500  -0.277852  36.899975  48.718686  9.768429
  13895.989  13896.000  0.500  -0.277586  36.887958  48.689859  9.744966
  13896.301  13896.300  0.500  -0.277570  36.872397  48.668538  9.723760
  13896.614  13896.600  0.500  -0.277221  36.861904  48.637724  9.702953
  13896.917  13896.900  0.500  -0.276887  36.856543  48.614442  9.685780
  13897.187  13897.200  0.500  -0.276794  36.872803  48.631326  9.679470
  13897.499  13897.500  0.500  -0.276512  36.856955  48.596732  9.664938
  13897.812  13897.800  0.500  -0.276569  36.844006  48.582416  9.652010
  13898.124  13898.100  0.500  -0.276154  36.857715  48.580366  9.648393
  13898.402  13898.400  0.500  -0.276093  36.865604  48.587793  9.645629
  13898.698  13898.700  0.500  -0.276129  36.874309  48.600979  9.643974
  13899.001  13899.000  0.500  -0.276055  36.868303  48.589483  9.638772
  13899.322  13899.300  0.500  -0.275978  36.854161  48.567107  9.636188
  13899.584  13899.600  0.500  -0.275939  36.861567  48.574964  9.636794
  13899.904  13899.900  0.500  -0.275790  36.867674  48.575770  9.640573
  13900.217  13900.200  0.500  -0.275746  36.862535  48.566876  9.643104
  13900.512  13900.500  0.500  -0.275796  36.859175  48.564858  9.645331
  13900.791  13900.800  0.500  -0.275770  36.865179  48.571516  9.650354
  13901.095  13901.100  0.500  -0.275814  36.860420  48.567386  9.656022
  13901.415  13901.400  0.500  -0.275732  36.866646  48.571593  9.664125
  13901.702  13901.700  0.500  -0.275723  36.860868  48.563569  9.671050
  13901.990  13902.000  0.500  -0.275801  36.844290  48.545517  9.676477
  13902.293  13902.300  0.500  -0.276015  36.841276  48.551919  9.685329
  13902.614  13902.600  0.500  -0.275974  36.844925  48.554731  9.695313
  13902.893  13902.900  0.500  -0.275950  36.837396  48.543665  9.703473
  13903.189  13903.200  0.500  -0.276033  36.824950  48.531302  9.711220
  13903.501  13903.500  0.500  -0.276063  36.818515  48.524240  9.722262
  13903.805  13903.800  0.500  -0.276150  36.819642  48.529974  9.733445
  13904.084  13904.100  0.500  -0.276345  36.797236  48.509895  9.743285
  13904.379  13904.400  0.500  -0.276500  36.797575  48.517854  9.755068
  13904.683  13904.700  0.500  -0.276431  36.805989  48.525581  9.771061
  13904.996  13905.000  0.500  -0.276536  36.832237  48.565316  9.790946
  13905.292  13905.300  0.500  -0.276662  36.817050  48.551383  9.798653
  13905.469  13905.500  0.500  -0.276699  36.826945  48.566243  9.808083
  13906.483  13906.490  0.500  -0.276989  36.828971  48.583019  9.848744
  13907.505  13907.490  0.500  -0.277134  36.836128  48.599516  9.883075
  13908.527  13908.510  0.500  -0.277417  36.818971  48.590615  9.903956
  13909.592  13909.560  0.500  -0.277532  36.798164  48.568741  9.915547
  13910.649  13910.620  0.500  -0.277688  36.770782  48.540185  9.919815
  13911.731  13911.700  0.500  -0.277859  36.778088  48.558098  9.921893
  13912.813  13912.800  0.500  -0.277917  36.792447  48.579887  9.920778
  13913.947  13913.920  0.500  -0.278076  36.792717  48.587984  9.906179
  13915.080  13915.060  0.500  -0.278017  36.781086  48.569740  9.885530
  13916.214  13916.210  0.500  -0.277979  36.764777  48.546374  9.854114
  13917.381  13917.390  0.500  -0.278004  36.754290  48.533721  9.824242
  13918.583  13918.580  0.500  -0.278150  36.717758  48.492557  9.781519
  13919.802  13919.800  0.500  -0.278077  36.684101  48.444600  9.742592
  13921.055  13921.030  0.500  -0.278083  36.704432  48.471700  9.716282
  13922.316  13922.280  0.500  -0.278103  36.709456  48.479320  9.695060
  13923.586  13923.550  0.500  -0.278234  36.683204  48.451004  9.673837
  13924.874  13924.840  0.500  -0.278308  36.678306  48.448105  9.672203
  13926.170  13926.150  0.500  -0.278506  36.666805  48.442536  9.678744
  13927.509  13927.480  0.500  -0.278707  36.663117  48.447379  9.704368
  13928.823  13928.830  0.500  -0.278932  36.652691  48.444517  9.741639
  13930.204  13930.200  0.500  -0.279288  36.649764  48.457886  9.787171
  13931.603  13931.580  0.500  -0.279635  36.645949  48.469659  9.830300
  13932.985  13932.990  0.500  -0.279938  36.645566  48.483828  9.868636
  13934.419  13934.410  0.500  -0.280201  36.650190  48.502723  9.901801
  13935.878  13935.850  0.500  -0.280420  36.631891  48.489101  9.917077
  13937.338  13937.310  0.500  -0.280614  36.622562  48.486144  9.926466
  13938.814  13938.790  0.500  -0.280684  36.610869  48.474063  9.928283
  13940.308  13940.290  0.500  -0.280755  36.606889  48.472264  9.932018
  13941.820  13941.810  0.500  -0.280892  36.588303  48.454285  9.930452
  13943.348  13943.350  0.500  -0.280960  36.573907  48.438524  9.931111
  13944.920  13944.910  0.500  -0.281020  36.550490  48.410383  9.928248
  13946.509  13946.480  0.500  -0.281042  36.555457  48.418055  9.930733
  13948.115  13948.080  0.500  -0.281008  36.540194  48.396170  9.927875
  13949.722  13949.690  0.500  -0.280949  36.536924  48.388982  9.923939
  13951.363  13951.330  0.500  -0.280961  36.509388  48.353086  9.918617
  13952.996  13952.980  0.500  -0.281177  36.488355  48.335690  9.912049
  13954.671  13954.650  0.500  -0.281165  36.469014  48.309504  9.907862
  13956.339  13956.340  0.500  -0.281218  36.448006  48.284240  9.899703
  13958.067  13958.050  0.500  -0.281155  36.453520  48.288470  9.896101
  13959.795  13959.780  0.500  -0.281285  36.423495  48.254966  9.879318
  13961.557  13961.530  0.500  -0.281178  36.397559  48.215481  9.864442
  13963.312  13963.290  0.500  -0.281137  36.373489  48.181586  9.849772
  13965.101  13965.080  0.500  -0.281189  36.361319  48.167986  9.841500
  13966.874  13966.880  0.500  -0.281284  36.332179  48.133955  9.832932
  13968.706  13968.710  0.500  -0.281394  36.307651  48.106773  9.828993
  13970.565  13970.550  0.500  -0.281590  36.197276  47.969911  9.808237
  13972.416  13972.410  0.500  -0.281742  35.590290  47.172656  9.658113
  13974.326  13974.290  0.500  -0.282053  33.750063  44.747497  9.179049
  13976.212  13976.190  0.500  -0.282265  35.450324  47.011724  9.663434
  13978.124  13978.110  0.500  -0.282393  36.264154  48.097132  9.904979
  13980.071  13980.050  0.500  -0.282740  36.283690  48.139770  9.928659
  13982.035  13982.010  0.500  -0.282960  36.296779  48.167700  9.946149
  13983.983  13983.980  0.500  -0.283392  36.288210  48.177167  9.957245
  13986.008  13985.980  0.500  -0.283267  36.255357  48.127508  9.955553
  13988.025  13987.990  0.500  -0.283658  36.227464  48.109283  9.952741
  13990.043  13990.020  0.500  -0.283844  36.218296  48.106052  9.955762
  13992.078  13992.080  0.500  -0.283877  36.216500  48.105277  9.956456
  13994.140  13994.150  0.500  -0.284170  36.192967  48.088105  9.952090
  13996.254  13996.240  0.500  -0.284375  36.183772  48.085725  9.951351
  13998.394  13998.350  0.500  -0.284427  36.163301  48.061039  9.952296
  14000.526  14000.480  0.500  -0.284559  36.237244  48.165657  9.981936
  14002.650  14002.620  0.500  -0.284777  36.200707  48.127604  9.980477
  14004.792  14004.790  0.500  -0.284825  36.202278  48.132009  9.993650
  14007.004  14006.980  0.500  -0.285032  36.179399  48.111522  10.000083
  14009.190  14009.180  0.500  -0.285270  36.150309  48.084294  10.004594
  14011.420  14011.400  0.500  -0.285370  36.136923  48.071304  10.008131
  14013.685  14013.650  0.500  -0.285617  36.123570  48.065392  10.010994
  14015.933  14015.910  0.500  -0.285774  36.106916  48.050806  10.008950
  14018.182  14018.190  0.500  -0.285967  36.096875  48.046706  10.003830
  14020.501  14020.490  0.500  -0.286175  36.057036  48.003646  9.986524
  14022.829  14022.810  0.500  -0.286244  36.036781  47.979975  9.972308
  14025.175  14025.150  0.500  -0.286354  36.030368  47.976709  9.963730
  14027.504  14027.500  0.500  -0.286526  35.997205  47.940823  9.948625
  14029.886  14029.880  0.500  -0.286725  35.977150  47.923659  9.942888
  14032.286  14032.270  0.500  -0.286733  35.963663  47.906065  9.942914
  14034.730  14034.690  0.500  -0.286968  35.940878  47.886987  9.947596
  14037.158  14037.120  0.500  -0.287053  35.914360  47.855714  9.952552
  14039.603  14039.570  0.500  -0.287137  35.905784  47.848309  9.965423
  14042.050  14042.050  0.500  -0.287260  35.890036  47.833172  9.976498
  14044.557  14044.540  0.500  -0.287479  35.868978  47.815611  9.987727
  14047.083  14047.050  0.500  -0.287627  35.837256  47.780368  9.997434
  14049.601  14049.570  0.500  -0.287729  35.819869  47.762069  10.012590
  14052.146  14052.120  0.500  -0.287843  35.795691  47.735292  10.025011
  14054.717  14054.690  0.500  -0.288102  35.775016  47.720066  10.039652
  14057.307  14057.270  0.500  -0.288330  35.735202  47.677830  10.042687
  14059.898  14059.880  0.500  -0.288366  35.720147  47.659435  10.048919
  14062.533  14062.500  0.500  -0.288683  35.682225  47.623968  10.048502
  14065.169  14065.150  0.500  -0.288987  35.634572  47.574818  10.049452
  14067.815  14067.810  0.500  -0.289166  35.576901  47.506335  10.045747
  14070.513  14070.490  0.500  -0.289412  35.423015  47.312441  10.022485
  14073.230  14073.190  0.500  -0.289689  34.149780  45.624499  9.684498
  14075.948  14075.910  0.500  -0.289891  34.239381  45.753451  9.729638
  14078.650  14078.650  0.500  -0.290026  35.687833  47.695461  10.159800
  14081.414  14081.400  0.500  -0.290326  35.660307  47.672945  10.161055
  14084.204  14084.180  0.500  -0.290609  35.510233  47.485769  10.122914
  14087.013  14086.970  0.500  -0.290873  35.579046  47.590331  10.140428
  14089.806  14089.790  0.500  -0.291113  35.568698  47.587908  10.133587
  14092.643  14092.620  0.500  -0.291298  35.542119  47.561168  10.123730
  14095.490  14095.470  0.500  -0.291495  35.492813  47.504536  10.106268
  14098.364  14098.350  0.500  -0.291610  35.464892  47.472631  10.097819
  14101.275  14101.240  0.500  -0.291810  35.435458  47.442699  10.093241
  14104.160  14104.150  0.500  -0.291982  35.402390  47.406574  10.088133
  14107.073  14107.070  0.500  -0.292192  35.350019  47.346422  10.078783
