# XDI/1.0 BlueSky/1.10.0 BMM/2023-1.0-py310-tiled
# Beamline.name: BMM (06BM) -- Beamline for Materials Measurement (NIST)
# Beamline.xray_source: NSLS-II three-pole wiggler
# Beamline.collimation: paraboloid mirror, 5 nm Rh on 30 nm Pt
# Beamline.focusing: not in use
# Beamline.harmonic_rejection: flat mirror, Pt stripe, pitch = 7.0 mrad relative to beam
# Beamline.software: Bluesky 1.10.0, Ophyd 1.7.0, DataBroker 2.0.0b13, Python 3.10.8, 2023-1.0-py310-tiled
# Detector.I0: 10 cm N2
# Detector.I1: 25 cm N2
# Detector.I2: 25 cm N2
# Element.symbol: Se
# Element.edge: K
# Element.reference: Se
# Element.reference_material: Se metal powder
# Facility.name: NSLS-II
# Facility.energy: 3.0
# Facility.current: 400.8
# Facility.mode: top-off
# Facility.GUP: 301027
# Facility.SAF: 310583
# Facility.cycle: 2023-2
# Mono.name: Si(111)
# Mono.d_spacing: 3.1351860
# Mono.encoder_resolution: 0.0000050 deg/ct
# Mono.angle_offset: 16.0754326 deg
# Mono.scan_mode: pseudo channel cut
# Mono.scan_type: step
# Mono.direction: forward in energy
# Sample.name: SeO2
# Sample.prep: powder in PEG pellet
# Sample.x: 117.785 mm
# Sample.y: 114.695 mm
# Sample.SDD_position: 205.000 mm
# Scan.experimenters: Bruce Ravel
# Scan.edge_energy: 12657.8
# Scan.start_time: 2023-06-23T19:10:15
# Scan.end_time: 2023-06-23T19:17:53
# Scan.transient_id: 84960
# Scan.uid: 6d06eff7-3330-446d-b10c-36ee6f753758
# Scan.plot_hint: ln(I0/It)  --  ln($5/$6)
# Column.1: energy eV
# Column.2: requested_energy eV
# Column.3: measurement_time seconds
# Column.4: xmu 
# Column.5: I0 nA
# Column.6: It nA
# Column.7: Ir nA
# ///////////
# sample courtesy Martin Stennett, University of Sheffield
# -----------
# energy  requested_energy  measurement_time  xmu  I0  It  Ir
  12457.786  12457.800  0.500  -0.126832  53.697870  60.959260  40.118076
  12467.830  12467.800  0.500  -0.128013  53.557434  60.871630  40.097457
  12477.856  12477.800  0.500  -0.129288  53.500146  60.884124  40.143785
  12487.851  12487.800  0.500  -0.130492  53.283804  60.710954  40.062068
  12497.870  12497.800  0.500  -0.131662  53.289757  60.788833  40.151517
  12507.877  12507.800  0.500  -0.132894  53.170076  60.727064  40.146152
  12517.846  12517.800  0.500  -0.134125  53.033887  60.646154  40.125909
  12527.844  12527.800  0.500  -0.135160  52.909685  60.566757  40.113289
  12537.859  12537.800  0.500  -0.136312  52.778979  60.486793  40.090919
  12547.836  12547.800  0.500  -0.137441  52.693114  60.456618  40.104857
  12557.842  12557.800  0.500  -0.138546  52.576070  60.389032  40.090647
  12567.843  12567.800  0.500  -0.139376  52.466295  60.312935  40.073545
  12577.861  12577.800  0.500  -0.140029  52.350326  60.218953  40.042736
  12587.853  12587.800  0.500  -0.140991  52.229440  60.137702  40.014155
  12597.855  12597.800  0.500  -0.141661  52.118191  60.049820  39.975236
  12607.852  12607.800  0.500  -0.142034  52.004280  59.940955  39.916292
  12617.837  12617.800  0.500  -0.141611  51.905788  59.802139  39.826356
  12627.852  12627.800  0.500  -0.140120  51.702964  59.479718  39.580390
  12629.778  12629.800  0.500  -0.139608  51.760624  59.515539  39.588619
  12631.760  12631.800  0.500  -0.138819  51.733171  59.437050  39.519004
  12633.770  12633.800  0.500  -0.138050  51.653164  59.299534  39.409730
  12635.767  12635.800  0.500  -0.136932  51.689425  59.274884  39.359312
  12637.786  12637.800  0.500  -0.135566  51.676552  59.179212  39.255665
  12639.764  12639.800  0.500  -0.133852  51.638602  59.034440  39.113097
  12641.756  12641.800  0.500  -0.131540  51.553724  58.801324  38.898180
  12643.755  12643.800  0.500  -0.128668  51.609995  58.696666  38.736985
  12645.798  12645.800  0.500  -0.124719  51.584633  58.436621  38.434435
  12647.792  12647.800  0.500  -0.119357  51.549971  58.085066  38.016618
  12648.043  12648.100  0.500  -0.118429  51.549787  58.031010  37.951876
  12648.342  12648.400  0.500  -0.117415  51.536560  57.957292  37.860796
  12648.642  12648.700  0.500  -0.116344  51.553476  57.914237  37.796769
  12648.942  12649.000  0.500  -0.115133  51.526789  57.814198  37.681325
  12649.256  12649.300  0.500  -0.113836  51.535862  57.749478  37.591024
  12649.542  12649.600  0.500  -0.112572  51.514307  57.652410  37.479180
  12649.849  12649.900  0.500  -0.111183  51.515870  57.574090  37.369890
  12650.156  12650.200  0.500  -0.109783  51.520759  57.499034  37.255290
  12650.449  12650.500  0.500  -0.108013  51.523054  57.399878  37.122659
  12650.735  12650.800  0.500  -0.106390  51.514131  57.296892  36.985956
  12651.056  12651.100  0.500  -0.104494  51.510808  57.184675  36.830142
  12651.370  12651.400  0.500  -0.102464  51.513845  57.072064  36.657830
  12651.663  12651.700  0.500  -0.100429  51.498559  56.939148  36.470746
  12651.949  12652.000  0.500  -0.098159  51.501876  56.813673  36.282182
  12652.263  12652.300  0.500  -0.095553  51.498814  56.662427  36.057741
  12652.563  12652.600  0.500  -0.092987  51.491913  56.509641  35.820905
  12652.856  12652.900  0.500  -0.090110  51.493263  56.348803  35.571402
  12653.135  12653.200  0.500  -0.087273  51.483962  56.179044  35.293286
  12653.456  12653.500  0.500  -0.083824  51.494854  55.997458  34.972626
  12653.770  12653.800  0.500  -0.079957  51.463021  55.746817  34.582415
  12654.050  12654.100  0.500  -0.076164  51.467730  55.540866  34.215436
  12654.357  12654.400  0.500  -0.071773  51.460601  55.289880  33.763296
  12654.664  12654.700  0.500  -0.066988  51.471821  55.037949  33.263913
  12654.978  12655.000  0.500  -0.061337  51.459584  54.714763  32.646897
  12655.264  12655.300  0.500  -0.055526  51.458240  54.396312  32.017798
  12655.571  12655.600  0.500  -0.048811  51.463611  54.037944  31.254556
  12655.900  12655.900  0.500  -0.040531  51.455291  53.583673  30.291379
  12656.179  12656.200  0.500  -0.032117  51.439591  53.118480  29.301522
  12656.465  12656.500  0.500  -0.022939  51.436577  52.630102  28.211978
  12656.779  12656.800  0.500  -0.011343  51.440960  52.027759  26.881987
  12657.087  12657.100  0.500  0.002317  51.429616  51.310593  25.391169
  12657.380  12657.400  0.500  0.016673  51.433223  50.582773  23.970900
  12657.687  12657.700  0.500  0.034594  51.427677  49.679000  22.401524
  12658.002  12658.000  0.500  0.055201  51.422569  48.660916  20.891947
  12658.302  12658.300  0.500  0.079729  51.415469  47.475322  19.484673
  12658.595  12658.600  0.500  0.106606  51.416814  46.217547  18.319966
  12658.896  12658.900  0.500  0.139191  51.406441  44.726771  17.296551
  12659.189  12659.200  0.500  0.178913  51.398294  42.978173  16.416749
  12659.496  12659.500  0.500  0.224040  51.407202  41.088903  15.698439
  12659.776  12659.800  0.500  0.277867  51.400366  38.930504  15.010634
  12660.097  12660.100  0.500  0.350753  51.398261  36.192493  14.209803
  12660.405  12660.400  0.500  0.439002  51.412626  33.144650  13.305773
  12660.698  12660.700  0.500  0.544430  51.392783  29.816677  12.253054
  12660.992  12661.000  0.500  0.667696  51.394407  26.359624  11.080760
  12661.299  12661.300  0.500  0.821717  51.393924  22.596674  9.719158
  12661.614  12661.600  0.500  1.009625  51.386315  18.722889  8.234157
  12661.886  12661.900  0.500  1.210489  51.386118  15.315716  6.868253
  12662.180  12662.200  0.500  1.437855  51.384464  12.200545  5.572472
  12662.501  12662.500  0.500  1.713732  51.392886  9.260586  4.311780
  12662.809  12662.800  0.500  1.973891  51.375524  7.136848  3.377733
  12663.081  12663.100  0.500  2.195899  51.396305  5.718277  2.744034
  12663.382  12663.400  0.500  2.361849  51.365920  4.841020  2.346959
  12663.683  12663.700  0.500  2.424685  51.366290  4.546225  2.215819
  12663.990  12664.000  0.500  2.370909  51.374938  4.798203  2.338879
  12664.270  12664.300  0.500  2.238831  51.363072  5.474432  2.659435
  12664.592  12664.600  0.500  2.037654  51.355404  6.693362  3.237319
  12664.899  12664.900  0.500  1.827288  51.351358  8.259822  3.975538
  12665.193  12665.200  0.500  1.633079  51.348188  10.029702  4.807924
  12665.480  12665.500  0.500  1.451698  51.337657  12.021853  5.738516
  12665.773  12665.800  0.500  1.288475  51.330842  14.151446  6.731840
  12666.095  12666.100  0.500  1.145417  51.324191  16.325784  7.740875
  12666.361  12666.400  0.500  1.043041  51.316897  18.083121  8.554399
  12666.689  12666.700  0.500  0.950660  51.317287  19.833405  9.364620
  12667.004  12667.000  0.500  0.883170  51.320254  21.219391  10.006305
  12667.291  12667.300  0.500  0.837804  51.300743  22.195749  10.457559
  12667.585  12667.600  0.500  0.807272  51.317131  22.891210  10.786081
  12667.900  12667.900  0.500  0.784102  51.297919  23.419011  11.033158
  12668.200  12668.200  0.500  0.770904  51.291490  23.727170  11.182505
  12668.466  12668.500  0.500  0.764037  51.307315  23.898030  11.265493
  12668.781  12668.800  0.500  0.760324  51.280672  23.974484  11.303525
  12669.110  12669.100  0.500  0.759363  51.276618  23.995638  11.314788
  12669.418  12669.400  0.500  0.760248  51.266376  23.969616  11.304130
  12669.698  12669.700  0.500  0.761619  51.272081  23.939430  11.287645
  12669.999  12670.000  0.500  0.763564  51.266310  23.890229  11.262714
  12670.307  12670.300  0.500  0.765600  51.275210  23.845791  11.239021
  12670.601  12670.600  0.500  0.767418  51.257387  23.794203  11.212036
  12670.901  12670.900  0.500  0.769292  51.253907  23.748029  11.187227
  12671.223  12671.200  0.500  0.771012  51.254897  23.707690  11.163737
  12671.517  12671.500  0.500  0.772806  51.256668  23.666006  11.142209
  12671.790  12671.800  0.500  0.774724  51.246220  23.615847  11.117364
  12672.091  12672.100  0.500  0.777165  51.246070  23.558209  11.089819
  12672.406  12672.400  0.500  0.779975  51.232659  23.485949  11.054348
  12672.700  12672.700  0.500  0.783189  51.226028  23.407553  11.020496
  12673.002  12673.000  0.500  0.786985  51.231677  23.321431  10.982572
  12673.317  12673.300  0.500  0.791372  51.220004  23.214065  10.937855
  12673.632  12673.600  0.500  0.795738  51.216447  23.111335  10.895496
  12673.891  12673.900  0.500  0.800054  51.211199  23.009439  10.855285
  12674.206  12674.200  0.500  0.804817  51.218733  22.903461  10.813838
  12674.500  12674.500  0.500  0.809255  51.204987  22.795931  10.773676
  12674.780  12674.800  0.500  0.813111  51.216101  22.713129  10.744522
  12675.081  12675.100  0.500  0.816281  51.202190  22.635096  10.717482
  12675.396  12675.400  0.500  0.818805  51.193914  22.574376  10.701107
  12675.705  12675.700  0.500  0.820278  51.190945  22.539853  10.693492
  12675.978  12676.000  0.500  0.820599  51.200005  22.536607  10.702521
  12676.286  12676.300  0.500  0.819678  51.192267  22.553954  10.720128
  12676.594  12676.600  0.500  0.817660  51.185486  22.596525  10.750797
  12676.874  12676.900  0.500  0.814432  51.171835  22.663539  10.785884
  12677.176  12677.200  0.500  0.810346  51.183784  22.761632  10.842181
  12677.484  12677.500  0.500  0.804431  51.166272  22.888833  10.907580
  12677.792  12677.800  0.500  0.798003  51.165844  23.036251  10.983952
  12678.073  12678.100  0.500  0.791307  51.157538  23.187257  11.059581
  12678.395  12678.400  0.500  0.783189  51.147140  23.371515  11.150677
  12678.703  12678.700  0.500  0.775039  51.160975  23.569134  11.249976
  12678.984  12679.000  0.500  0.767532  51.162541  23.747473  11.336017
  12679.292  12679.300  0.500  0.759228  51.137571  23.933790  11.429748
  12679.607  12679.600  0.500  0.750626  51.131768  24.137831  11.531222
  12679.909  12679.900  0.500  0.742800  51.131027  24.327124  11.623910
  12680.189  12680.200  0.500  0.735692  51.130604  24.500452  11.705097
  12680.504  12680.500  0.500  0.727846  51.124408  24.690445  11.798758
  12680.820  12680.800  0.500  0.720489  51.132620  24.876756  11.886923
  12681.100  12681.100  0.500  0.714113  51.113896  25.026713  11.958444
  12681.402  12681.400  0.500  0.707561  51.112303  25.190427  12.037733
  12681.710  12681.700  0.500  0.701306  51.106518  25.345613  12.110685
  12682.005  12682.000  0.500  0.695645  51.104097  25.488303  12.178118
  12682.299  12682.300  0.500  0.690186  51.092828  25.622173  12.241544
  12682.608  12682.600  0.500  0.684576  51.105262  25.772598  12.314335
  12682.811  12682.800  0.500  0.680856  51.097249  25.864586  12.354775
  12683.856  12683.790  0.500  0.663726  51.084139  26.304716  12.564225
  12684.824  12684.790  0.500  0.649030  51.076428  26.690115  12.752624
  12685.841  12685.810  0.500  0.635433  51.214294  27.128532  12.960762
  12686.887  12686.860  0.500  0.623238  51.193139  27.450024  13.113650
  12687.953  12687.920  0.500  0.612374  51.188054  27.747123  13.256405
  12689.027  12689.000  0.500  0.602912  51.176459  28.004581  13.378958
  12690.136  12690.100  0.500  0.593918  51.167701  28.252734  13.497881
  12691.253  12691.220  0.500  0.585090  51.154053  28.495663  13.613097
  12692.404  12692.360  0.500  0.575781  51.135364  28.751648  13.735885
  12693.535  12693.510  0.500  0.566465  51.128717  29.016997  13.860353
  12694.715  12694.690  0.500  0.556952  51.112856  29.285254  13.985190
  12695.917  12695.880  0.500  0.548188  51.110755  29.541834  14.099937
  12697.140  12697.100  0.500  0.540617  51.078340  29.747447  14.188056
  12698.363  12698.330  0.500  0.535071  51.089518  29.919437  14.266624
  12699.586  12699.580  0.500  0.531324  51.056085  30.012115  14.307613
  12700.859  12700.850  0.500  0.529638  51.043533  30.055356  14.327976
  12702.174  12702.140  0.500  0.529970  51.019630  30.031321  14.320544
  12703.496  12703.450  0.500  0.532160  51.022807  29.967470  14.299091
  12704.819  12704.780  0.500  0.536005  50.989356  29.832895  14.253896
  12706.149  12706.130  0.500  0.541520  50.983306  29.665295  14.198611
  12707.543  12707.500  0.500  0.548453  50.962722  29.448468  14.119052
  12708.902  12708.880  0.500  0.555770  50.963847  29.234425  14.032564
  12710.311  12710.290  0.500  0.563819  50.945614  28.989680  13.928516
  12711.719  12711.710  0.500  0.571958  50.907989  28.733444  13.812278
  12713.178  12713.150  0.500  0.580306  50.895466  28.487583  13.697518
  12714.644  12714.610  0.500  0.588574  50.883235  28.246209  13.585367
  12716.124  12716.090  0.500  0.596245  50.852773  28.013590  13.471443
  12717.626  12717.590  0.500  0.603511  50.839445  27.803501  13.369841
  12719.156  12719.110  0.500  0.610667  50.830212  27.600237  13.275182
  12720.673  12720.650  0.500  0.617530  50.814989  27.403243  13.182065
  12722.232  12722.210  0.500  0.624259  50.793917  27.208173  13.090414
  12723.784  12723.780  0.500  0.630344  50.787024  27.039457  13.011889
  12725.408  12725.380  0.500  0.636351  50.755790  26.860985  12.929004
  12727.046  12726.990  0.500  0.641836  50.728766  26.699837  12.850831
  12728.671  12728.630  0.500  0.646919  50.710751  26.555016  12.783856
  12730.310  12730.280  0.500  0.651355  50.688053  26.425647  12.722327
  12731.970  12731.950  0.500  0.655158  50.670680  26.316323  12.667815
  12733.660  12733.640  0.500  0.658451  50.638052  26.212911  12.616224
  12735.392  12735.350  0.500  0.661297  50.570415  26.103508  12.557526
  12737.118  12737.080  0.500  0.663191  49.925644  25.721919  12.367992
  12738.872  12738.830  0.500  0.663200  50.324877  25.927379  12.465283
  12740.620  12740.590  0.500  0.661734  50.591462  26.102972  12.551397
  12742.389  12742.380  0.500  0.660701  50.564576  26.116065  12.560052
  12744.195  12744.180  0.500  0.659780  50.549425  26.132297  12.571473
  12746.050  12746.010  0.500  0.658462  50.521319  26.152210  12.585222
  12747.899  12747.850  0.500  0.656733  50.503364  26.188150  12.612993
  12749.735  12749.710  0.500  0.653657  50.492597  26.263230  12.656121
  12751.606  12751.590  0.500  0.649309  50.460759  26.361044  12.714535
  12753.528  12753.490  0.500  0.644744  50.454093  26.478139  12.780622
  12755.450  12755.410  0.500  0.640376  50.421531  26.576895  12.840424
  12757.394  12757.350  0.500  0.636270  50.391842  26.670531  12.901274
  12759.324  12759.310  0.500  0.632204  50.365652  26.765275  12.955419
  12761.326  12761.280  0.500  0.628331  50.350039  26.860822  13.011162
  12763.322  12763.280  0.500  0.624274  50.323992  26.956044  13.065287
  12765.318  12765.290  0.500  0.620292  50.300276  27.050852  13.115204
  12767.343  12767.320  0.500  0.616307  50.275034  27.145224  13.163385
  12769.405  12769.380  0.500  0.612309  50.255705  27.243503  13.211831
  12771.495  12771.450  0.500  0.608320  50.229536  27.338155  13.256743
  12773.579  12773.540  0.500  0.604754  50.213455  27.427039  13.300452
  12775.671  12775.650  0.500  0.601126  50.177405  27.506957  13.338018
  12777.792  12777.780  0.500  0.597908  50.148613  27.579782  13.374543
  12779.943  12779.920  0.500  0.595111  50.135962  27.650039  13.408065
  12782.115  12782.090  0.500  0.592326  50.108276  27.711860  13.437202
  12784.267  12784.280  0.500  0.590146  50.084505  27.759145  13.456401
  12786.519  12786.480  0.500  0.588139  50.055092  27.798588  13.467726
  12788.723  12788.700  0.500  0.586904  50.037453  27.823127  13.477158
  12790.969  12790.950  0.500  0.585772  50.014882  27.842072  13.477479
  12793.260  12793.210  0.500  0.585237  49.987168  27.841543  13.470973
  12795.522  12795.490  0.500  0.584758  49.960640  27.840113  13.463343
  12797.793  12797.790  0.500  0.585087  49.937290  27.817949  13.453180
  12800.136  12800.110  0.500  0.585359  49.906625  27.793307  13.440418
  12802.465  12802.450  0.500  0.586193  49.882630  27.756767  13.424963
  12804.824  12804.800  0.500  0.586997  49.862186  27.723090  13.411596
  12807.191  12807.180  0.500  0.588215  49.829155  27.671016  13.395258
  12809.581  12809.570  0.500  0.589425  49.798452  27.620529  13.381888
  12812.007  12811.990  0.500  0.590604  49.765583  27.569756  13.367176
  12814.441  12814.420  0.500  0.591996  49.746473  27.520845  13.358166
  12816.876  12816.870  0.500  0.593289  49.718164  27.469647  13.350570
  12819.362  12819.350  0.500  0.594541  49.693879  27.421866  13.344300
  12821.849  12821.840  0.500  0.595889  49.670615  27.372095  13.341882
  12824.373  12824.350  0.500  0.596679  49.626210  27.326036  13.337319
  12826.862  12826.870  0.500  0.597548  49.554228  27.262709  13.322182
  12829.424  12829.420  0.500  0.598277  49.578993  27.256455  13.334494
  12831.994  12831.990  0.500  0.598526  49.551578  27.234589  13.332546
  12834.579  12834.570  0.500  0.598948  49.509166  27.199818  13.327461
  12837.173  12837.180  0.500  0.599011  49.498754  27.192367  13.329558
  12839.818  12839.800  0.500  0.598826  49.445657  27.168225  13.322320
  12842.471  12842.450  0.500  0.598739  49.431720  27.162933  13.323188
  12845.126  12845.110  0.500  0.598420  49.404232  27.156479  13.320304
  12847.825  12847.790  0.500  0.598623  49.357537  27.125310  13.303258
  12850.481  12850.490  0.500  0.598901  49.320256  27.097287  13.286898
  12853.247  12853.210  0.500  0.597678  49.311366  27.125571  13.295311
  12855.971  12855.950  0.500  0.597156  49.281171  27.123113  13.289786
  12858.732  12858.700  0.500  0.596047  49.265047  27.144319  13.293348
  12861.509  12861.480  0.500  0.594288  49.235461  27.175771  13.301942
  12864.287  12864.270  0.500  0.592750  49.211895  27.204570  13.310266
  12867.124  12867.090  0.500  0.591262  49.163306  27.218192  13.308162
  12869.947  12869.920  0.500  0.589674  49.136952  27.246830  13.320935
  12872.787  12872.770  0.500  0.587862  49.085013  27.267407  13.327364
  12875.671  12875.650  0.500  0.586097  49.026954  27.283254  13.336543
  12878.571  12878.540  0.500  0.584077  49.006959  27.327283  13.359654
  12881.472  12881.450  0.500  0.582385  49.020294  27.381001  13.390174
  12884.411  12884.370  0.500  0.580514  48.991754  27.416317  13.413640
  12887.336  12887.320  0.500  0.578752  48.950692  27.441650  13.439313
