# XDI/1.0 BlueSky/1.10.0 BMM/2023-1.0-py310-tiled
# Beamline.name: BMM (06BM) -- Beamline for Materials Measurement (NIST)
# Beamline.xray_source: NSLS-II three-pole wiggler
# Beamline.collimation: paraboloid mirror, 5 nm Rh on 30 nm Pt
# Beamline.focusing: not in use
# Beamline.harmonic_rejection: flat mirror, Pt stripe, pitch = 7.0 mrad relative to beam
# Beamline.software: Bluesky 1.10.0, Ophyd 1.7.0, DataBroker 2.0.0b13, Python 3.10.8, 2023-1.0-py310-tiled
# Detector.I0: 10 cm N2
# Detector.I1: 25 cm N2
# Detector.I2: 25 cm N2
# Element.symbol: Pb
# Element.edge: L3
# Element.reference: Pb
# Element.reference_material: Pb foil
# Facility.name: NSLS-II
# Facility.energy: 3.0
# Facility.current: 399.9
# Facility.mode: top-off
# Facility.GUP: 301027
# Facility.SAF: 310583
# Facility.cycle: 2023-2
# Mono.name: Si(111)
# Mono.d_spacing: 3.1351860
# Mono.encoder_resolution: 0.0000050 deg/ct
# Mono.angle_offset: 16.0754326 deg
# Mono.scan_mode: pseudo channel cut
# Mono.scan_type: step
# Mono.direction: forward in energy
# Sample.name: Pb foil
# Sample.prep: reference foil
# Sample.x: 109.138 mm
# Sample.y: 153.150 mm
# Sample.SDD_position: 205.000 mm
# Scan.experimenters: Bruce Ravel
# Scan.edge_energy: 13035.2
# Scan.start_time: 2023-05-28T20:23:31
# Scan.end_time: 2023-05-28T20:31:20
# Scan.transient_id: 78987
# Scan.uid: dbc34b1c-5c40-4b98-8fd3-b3d47b5f4ea1
# Scan.plot_hint: ln(It/Ir)  --  ln($6/$7)
# Column.1: energy eV
# Column.2: requested_energy eV
# Column.3: measurement_time seconds
# Column.4: xmu 
# Column.5: I0 nA
# Column.6: It nA
# Column.7: Ir nA
# ///////////
# standard reference foil
# -----------
# energy  requested_energy  measurement_time  xmu  I0  It  Ir
  12835.176  12835.200  0.500  0.837345  48.907814  85.159861  36.862143
  12845.198  12845.200  0.500  0.835597  48.853928  85.091092  36.896825
  12855.250  12855.200  0.500  0.833726  48.719277  84.875355  36.872186
  12865.261  12865.200  0.500  0.831991  48.626875  84.728457  36.872287
  12875.288  12875.200  0.500  0.830312  48.471790  84.484150  36.827757
  12885.193  12885.200  0.500  0.828559  48.394308  84.374470  36.844471
  12895.222  12895.200  0.500  0.826850  48.297158  84.232509  36.845391
  12905.223  12905.200  0.500  0.825201  48.178805  84.051359  36.826837
  12915.218  12915.200  0.500  0.823654  47.670351  83.187407  36.504733
  12925.229  12925.200  0.500  0.821898  47.934543  83.663134  36.778011
  12935.219  12935.200  0.500  0.820440  47.862129  83.551024  36.782321
  12945.239  12945.200  0.500  0.818912  47.739629  83.368664  36.758153
  12955.231  12955.200  0.500  0.817623  47.379118  82.761634  36.537574
  12965.247  12965.200  0.500  0.816583  47.547501  83.070010  36.711894
  12975.255  12975.200  0.500  0.815604  47.404092  82.840529  36.646345
  12985.243  12985.200  0.500  0.814991  47.335104  82.738908  36.623838
  12995.253  12995.200  0.500  0.815215  47.205581  82.543122  36.528962
  13005.250  13005.200  0.500  0.816883  47.121915  82.412635  36.410463
  13007.176  13007.200  0.500  0.817518  47.093323  82.366034  36.366775
  13009.176  13009.200  0.500  0.818191  47.083177  82.340618  36.331066
  13011.185  13011.200  0.500  0.819097  47.053781  82.298144  36.279438
  13013.179  13013.200  0.500  0.820322  47.056448  82.312429  36.241315
  13015.188  13015.200  0.500  0.821680  47.006620  82.236492  36.158749
  13017.169  13017.200  0.500  0.823442  46.988430  82.205339  36.081419
  13019.180  13019.200  0.500  0.825658  46.971328  82.180483  35.990664
  13021.184  13021.200  0.500  0.828344  46.962313  82.169843  35.889495
  13023.189  13023.200  0.500  0.831874  46.919340  82.102210  35.733587
  13025.179  13025.200  0.500  0.836567  46.899532  82.065221  35.550247
  13025.431  13025.500  0.500  0.837358  46.897390  82.064001  35.521617
  13025.749  13025.800  0.500  0.838248  46.903829  82.074450  35.494533
  13026.045  13026.100  0.500  0.839188  46.885036  82.041382  35.446903
  13026.341  13026.400  0.500  0.840143  46.873646  82.028450  35.407480
  13026.645  13026.700  0.500  0.841192  46.871334  82.022088  35.367611
  13026.948  13027.000  0.500  0.842311  46.879200  82.040197  35.335852
  13027.237  13027.300  0.500  0.843314  46.887239  82.041943  35.301196
  13027.548  13027.600  0.500  0.844478  46.880972  82.035879  35.257506
  13027.874  13027.900  0.500  0.845871  46.866718  82.010610  35.197576
  13028.155  13028.200  0.500  0.847181  46.868795  82.007703  35.150270
  13028.444  13028.500  0.500  0.848482  46.861305  81.999731  35.101137
  13028.762  13028.800  0.500  0.850085  46.849515  81.984084  35.038236
  13029.066  13029.100  0.500  0.851633  46.847958  81.983119  34.983642
  13029.362  13029.400  0.500  0.853408  46.840213  81.976359  34.918706
  13029.658  13029.700  0.500  0.855240  46.830161  81.960351  34.847996
  13029.984  13030.000  0.500  0.857318  46.840757  81.973755  34.781360
  13030.273  13030.300  0.500  0.859438  46.846124  81.979207  34.709977
  13030.554  13030.600  0.500  0.861634  46.821492  81.941910  34.618100
  13030.873  13030.900  0.500  0.864227  46.827820  81.952812  34.533056
  13031.184  13031.200  0.500  0.866987  46.810138  81.922866  34.425278
  13031.473  13031.500  0.500  0.869895  46.814636  81.931967  34.329121
  13031.777  13031.800  0.500  0.872974  46.804495  81.913368  34.215835
  13032.103  13032.100  0.500  0.876666  46.815613  81.933595  34.098157
  13032.399  13032.400  0.500  0.880325  46.791443  81.886271  33.953975
  13032.673  13032.700  0.500  0.884403  46.791678  81.884173  33.814943
  13033.007  13033.000  0.500  0.888953  46.783282  81.878385  33.659050
  13033.295  13033.300  0.500  0.893766  46.783852  81.880160  33.498174
  13033.584  13033.600  0.500  0.899005  46.771568  81.855254  33.312995
  13033.911  13033.900  0.500  0.905051  46.776011  81.855241  33.112191
  13034.192  13034.200  0.500  0.910854  46.779204  81.861735  32.923219
  13034.481  13034.500  0.500  0.917271  46.768127  81.850210  32.708002
  13034.800  13034.800  0.500  0.924385  46.766172  81.857277  32.478962
  13035.082  13035.100  0.500  0.931284  46.765403  81.864133  32.258341
  13035.393  13035.400  0.500  0.939196  46.753331  81.834956  31.992729
  13035.704  13035.700  0.500  0.947463  46.752711  81.830940  31.727761
  13035.971  13036.000  0.500  0.955240  46.746442  81.816216  31.476328
  13036.282  13036.300  0.500  0.964024  46.749745  81.822829  31.203565
  13036.579  13036.600  0.500  0.972919  46.874860  82.047120  31.012010
  13036.876  13036.900  0.500  0.981963  46.869650  82.040024  30.730146
  13037.194  13037.200  0.500  0.991910  46.875713  82.054289  30.431271
  13037.476  13037.500  0.500  1.000625  46.897295  82.083710  30.178051
  13037.780  13037.800  0.500  1.010351  46.867102  82.037651  29.869178
  13038.077  13038.100  0.500  1.019890  46.872507  82.040685  29.586699
  13038.373  13038.400  0.500  1.029931  46.866597  82.040719  29.291135
  13038.700  13038.700  0.500  1.040495  46.858446  82.025126  28.977825
  13038.974  13039.000  0.500  1.050074  46.859504  82.024904  28.701475
  13039.286  13039.300  0.500  1.060912  46.870971  82.042049  28.398033
  13039.575  13039.600  0.500  1.071637  46.855397  82.021636  28.088115
  13039.894  13039.900  0.500  1.083707  46.851606  82.017760  27.749800
  13040.205  13040.200  0.500  1.095602  46.843472  82.001778  27.416333
  13040.495  13040.500  0.500  1.107885  46.842478  82.004078  27.082395
  13040.821  13040.800  0.500  1.121090  46.839224  81.987912  26.721848
  13041.088  13041.100  0.500  1.133647  46.844256  82.004787  26.393829
  13041.430  13041.400  0.500  1.148811  46.835513  81.992938  25.992875
  13041.697  13041.700  0.500  1.162477  46.828471  81.975826  25.634707
  13042.001  13042.000  0.500  1.177449  46.823830  81.968495  25.251509
  13042.305  13042.300  0.500  1.192308  46.825196  81.976199  24.881414
  13042.602  13042.600  0.500  1.207854  46.816287  81.957097  24.491891
  13042.914  13042.900  0.500  1.223898  46.799035  81.929683  24.094008
  13043.196  13043.200  0.500  1.238350  46.799441  81.927484  23.747681
  13043.507  13043.500  0.500  1.254602  46.795191  81.922165  23.363316
  13043.789  13043.800  0.500  1.268136  46.803957  81.939573  23.054155
  13044.116  13044.100  0.500  1.284039  46.785362  81.901235  22.679810
  13044.398  13044.400  0.500  1.297768  46.788064  81.916011  22.374607
  13044.695  13044.700  0.500  1.311421  46.781361  81.895811  22.065746
  13044.977  13045.000  0.500  1.324512  46.772423  81.886746  21.776364
  13045.274  13045.300  0.500  1.337575  46.768265  81.880958  21.492235
  13045.593  13045.600  0.500  1.350283  46.765759  81.881230  21.220897
  13045.868  13045.900  0.500  1.361365  46.765844  81.888014  20.988773
  13046.195  13046.200  0.500  1.373564  46.764202  81.872727  20.730411
  13046.484  13046.500  0.500  1.383993  46.759700  81.873261  20.515470
  13046.804  13046.800  0.500  1.394988  46.760515  81.869093  20.290107
  13047.086  13047.100  0.500  1.403938  46.758628  81.867599  20.108949
  13047.405  13047.400  0.500  1.413375  46.751435  81.855622  19.917159
  13047.702  13047.700  0.500  1.421520  46.741246  81.832962  19.750123
  13048.007  13048.000  0.500  1.428907  46.714592  81.779316  19.591927
  13048.311  13048.300  0.500  1.435914  46.698727  81.768081  19.452447
  13048.601  13048.600  0.500  1.441208  46.679370  81.737185  19.342437
  13048.920  13048.900  0.500  1.446501  46.656708  81.695973  19.230622
  13049.202  13049.200  0.500  1.450278  46.640908  81.666820  19.151286
  13049.514  13049.500  0.500  1.453794  46.635048  81.656666  19.081700
  13049.812  13049.800  0.500  1.456249  46.640827  81.664691  19.036769
  13050.109  13050.100  0.500  1.458226  46.646114  81.679742  19.002672
  13050.413  13050.400  0.500  1.459303  46.648521  81.688176  18.984178
  13050.703  13050.700  0.500  1.460205  46.652023  81.694801  18.968608
  13051.008  13051.000  0.500  1.460619  46.675884  81.742341  18.971796
  13051.298  13051.300  0.500  1.460701  46.676462  81.737961  18.969216
  13051.595  13051.600  0.500  1.460502  46.677951  81.743866  18.974369
  13051.892  13051.900  0.500  1.460131  46.682104  81.739614  18.980415
  13052.189  13052.200  0.500  1.459428  46.671600  81.726917  18.990815
  13052.509  13052.500  0.500  1.458862  46.676140  81.738142  19.004182
  13052.791  13052.800  0.500  1.458227  46.677626  81.736764  19.015936
  13053.081  13053.100  0.500  1.457626  46.661732  81.710265  19.021190
  13053.379  13053.400  0.500  1.457025  46.672087  81.734145  19.038196
  13053.706  13053.700  0.500  1.456637  46.649989  81.685597  19.034260
  13053.996  13054.000  0.500  1.456484  46.652012  81.698659  19.040217
  13054.300  13054.300  0.500  1.456400  46.651604  81.695650  19.041127
  13054.598  13054.600  0.500  1.456506  46.656716  81.708682  19.042133
  13054.910  13054.900  0.500  1.456842  46.631349  81.665883  19.025774
  13055.207  13055.200  0.500  1.457377  46.631567  81.665891  19.015601
  13055.497  13055.500  0.500  1.458295  46.626387  81.655472  18.995721
  13055.825  13055.800  0.500  1.459398  46.630161  81.658741  18.975550
  13056.100  13056.100  0.500  1.460592  46.624167  81.651301  18.951170
  13056.420  13056.400  0.500  1.462261  46.615192  81.638298  18.916551
  13056.702  13056.700  0.500  1.464050  46.614158  81.635455  18.882090
  13057.007  13057.000  0.500  1.466097  46.606218  81.624523  18.840953
  13057.305  13057.300  0.500  1.468561  46.608206  81.622457  18.794117
  13057.610  13057.600  0.500  1.471421  46.621801  81.653539  18.747566
  13057.922  13057.900  0.500  1.474525  46.598853  81.613493  18.680298
  13058.197  13058.200  0.500  1.477743  46.600085  81.614588  18.620540
  13058.517  13058.500  0.500  1.481506  46.590150  81.600460  18.547388
  13058.785  13058.800  0.500  1.485194  46.583199  81.591282  18.477036
  13059.105  13059.100  0.500  1.489715  46.580224  81.586669  18.392640
  13059.395  13059.400  0.500  1.494068  46.592486  81.601601  18.316100
  13059.693  13059.700  0.500  1.498258  46.592238  81.599288  18.239001
  13059.998  13060.000  0.500  1.502962  46.592126  81.606047  18.154917
  13060.176  13060.200  0.500  1.505818  46.570431  81.564649  18.093953
  13061.188  13061.190  0.500  1.520908  46.557784  81.548996  17.819552
  13062.193  13062.190  0.500  1.532985  46.546740  81.530701  17.601683
  13063.228  13063.210  0.500  1.540342  46.535733  81.505546  17.467282
  13064.292  13064.260  0.500  1.542807  46.519106  81.485892  17.420072
  13065.313  13065.320  0.500  1.541492  46.511636  81.479173  17.441556
  13066.378  13066.400  0.500  1.537660  46.495557  81.454091  17.503135
  13067.495  13067.500  0.500  1.532073  46.494644  81.448171  17.599908
  13068.635  13068.620  0.500  1.525894  46.477010  81.419162  17.702683
  13069.767  13069.760  0.500  1.521005  46.457879  81.383483  17.781658
  13070.938  13070.910  0.500  1.517944  46.438340  81.363340  17.831752
  13072.100  13072.090  0.500  1.517010  46.366888  81.237899  17.820903
  13073.301  13073.280  0.500  1.517316  46.361525  81.229574  17.813629
  13074.501  13074.500  0.500  1.517904  46.387473  81.273718  17.812816
  13075.732  13075.730  0.500  1.518340  46.381041  81.269170  17.804065
  13076.978  13076.980  0.500  1.518380  46.368291  81.242083  17.797414
  13078.261  13078.250  0.500  1.518646  46.345658  81.210779  17.785836
  13079.545  13079.540  0.500  1.519688  46.336104  81.193583  17.763546
  13080.851  13080.850  0.500  1.521723  46.326307  81.177783  17.723975
  13082.135  13082.180  0.500  1.525155  46.305478  81.149578  17.657117
  13083.501  13083.530  0.500  1.529761  46.295744  81.137730  17.573410
  13084.876  13084.900  0.500  1.534890  46.279795  81.104879  17.476437
  13086.273  13086.280  0.500  1.539627  46.261169  81.077202  17.387913
  13087.677  13087.690  0.500  1.543145  46.246460  81.047831  17.320557
  13089.090  13089.110  0.500  1.544952  46.234650  81.035990  17.286760
  13090.525  13090.550  0.500  1.544451  46.224639  81.023208  17.292702
  13091.998  13092.010  0.500  1.542353  46.185428  80.958453  17.315166
  13093.943  13093.490  0.500  1.538594  46.106116  80.824340  17.351596
  13094.915  13094.990  0.500  1.535819  46.107503  80.828338  17.400670
  13096.539  13096.510  0.500  1.532642  46.128293  80.862323  17.463379
  13098.021  13098.050  0.500  1.529972  46.113121  80.841611  17.505587
  13099.645  13099.610  0.500  1.527668  46.089404  80.807157  17.538492
  13101.195  13101.180  0.500  1.525541  46.072380  80.769834  17.567702
  13102.783  13102.780  0.500  1.523547  46.043995  80.733809  17.594921
  13104.408  13104.390  0.500  1.522134  46.032170  80.715108  17.615715
  13106.042  13106.030  0.500  1.521083  45.989436  80.642244  17.618327
  13107.668  13107.680  0.500  1.521017  45.982468  80.637417  17.618441
  13109.347  13109.350  0.500  1.521516  45.997191  80.653964  17.613263
  13111.065  13111.040  0.500  1.522771  45.965619  80.605851  17.580666
  13112.767  13112.750  0.500  1.524681  45.960288  80.596069  17.544998
  13114.493  13114.480  0.500  1.526902  45.942907  80.570232  17.500460
  13116.227  13116.230  0.500  1.528938  45.905260  80.515460  17.452992
  13117.998  13117.990  0.500  1.530259  45.823498  80.367242  17.397873
  13119.770  13119.780  0.500  1.530985  45.859898  80.439071  17.400774
  13121.588  13121.580  0.500  1.530967  45.848935  80.429605  17.399052
  13123.421  13123.410  0.500  1.529933  45.832030  80.400298  17.410690
  13125.240  13125.250  0.500  1.528387  45.815236  80.365677  17.430123
  13127.134  13127.110  0.500  1.526252  45.789173  80.328741  17.459348
  13128.992  13128.990  0.500  1.524268  45.781117  80.317527  17.491577
  13130.887  13130.890  0.500  1.522335  45.754650  80.268730  17.514778
  13132.798  13132.810  0.500  1.520906  45.709716  80.198547  17.524493
  13134.733  13134.750  0.500  1.519669  45.710374  80.195698  17.545566
  13136.720  13136.710  0.500  1.519070  45.698448  80.189620  17.554745
  13138.678  13138.680  0.500  1.518481  45.670106  80.143911  17.555072
  13140.689  13140.680  0.500  1.518245  45.671887  80.144503  17.559347
  13142.694  13142.690  0.500  1.517805  45.629130  80.075838  17.552026
  13144.729  13144.720  0.500  1.517620  45.612402  80.050474  17.549707
  13146.772  13146.780  0.500  1.517126  45.588989  80.008296  17.549133
  13148.846  13148.850  0.500  1.516949  45.576303  79.994764  17.549271
  13150.944  13150.940  0.500  1.516819  45.539926  79.937775  17.539039
  13153.057  13153.050  0.500  1.516627  45.522922  79.913777  17.537144
  13155.209  13155.180  0.500  1.516228  45.493334  79.866349  17.533726
  13157.331  13157.320  0.500  1.516020  45.480783  79.842221  17.532090
  13159.507  13159.490  0.500  1.515637  45.595219  80.051404  17.584749
  13161.683  13161.680  0.500  1.515149  45.553304  79.976723  17.576919
  13163.868  13163.880  0.500  1.514657  45.544951  79.969844  17.584057
  13166.114  13166.100  0.500  1.513904  45.506986  79.900488  17.582032
  13168.369  13168.350  0.500  1.513402  45.457492  79.820151  17.573174
  13170.616  13170.610  0.500  1.512851  45.462419  79.834890  17.586115
  13172.902  13172.890  0.500  1.512302  45.464047  79.844763  17.597948
  13175.197  13175.190  0.500  1.511696  45.435024  79.790690  17.596686
  13177.500  13177.510  0.500  1.511283  45.402904  79.748431  17.594637
  13179.849  13179.850  0.500  1.510834  45.386203  79.721716  17.596635
  13182.215  13182.200  0.500  1.510333  45.357350  79.675284  17.595211
  13184.611  13184.580  0.500  1.509745  45.325707  79.623062  17.594008
  13187.001  13186.970  0.500  1.509182  45.308109  79.588325  17.596239
  13189.384  13189.390  0.500  1.508419  45.281224  79.554587  17.602212
  13191.813  13191.820  0.500  1.507751  45.264599  79.532756  17.609134
  13194.274  13194.270  0.500  1.506933  45.240992  79.492461  17.614627
  13196.774  13196.750  0.500  1.506024  45.201333  79.425677  17.615832
  13199.275  13199.240  0.500  1.505123  45.179510  79.394060  17.624686
  13201.776  13201.750  0.500  1.504338  45.148951  79.341937  17.626943
  13204.271  13204.270  0.500  1.503615  45.134207  79.331027  17.637265
  13206.805  13206.820  0.500  1.502814  45.087753  79.248009  17.632936
  13209.386  13209.390  0.500  1.502226  45.056879  79.201228  17.632882
  13211.983  13211.970  0.500  1.501649  45.034422  79.160736  17.634044
  13214.596  13214.580  0.500  1.501088  45.005450  79.112990  17.633290
  13217.195  13217.200  0.500  1.500695  44.986576  79.087801  17.634617
  13219.841  13219.850  0.500  1.500306  44.947800  79.030549  17.628697
  13222.533  13222.510  0.500  1.499962  44.906655  78.967108  17.620616
  13225.197  13225.190  0.500  1.499735  44.858965  78.887285  17.606798
  13227.892  13227.890  0.500  1.499404  44.832105  78.845191  17.603224
  13230.603  13230.610  0.500  1.499180  44.808753  78.803210  17.597803
  13233.361  13233.350  0.500  1.498965  44.782621  78.766727  17.593430
  13236.105  13236.100  0.500  1.498606  44.753154  78.714547  17.588087
  13238.896  13238.880  0.500  1.498131  44.720152  78.665111  17.585387
  13241.666  13241.670  0.500  1.497629  44.690002  78.608675  17.581605
  13244.505  13244.490  0.500  1.496956  44.648642  78.549592  17.580213
  13247.338  13247.320  0.500  1.496241  44.622007  78.504855  17.582779
  13250.188  13250.170  0.500  1.495592  44.590101  78.459656  17.584056
  13253.038  13253.050  0.500  1.494786  44.543016  78.374791  17.579208
  13255.967  13255.940  0.500  1.494037  44.501365  78.310739  17.577986
  13258.859  13258.850  0.500  1.493225  44.458898  78.240088  17.576399
  13261.790  13261.770  0.500  1.492674  44.412992  78.163910  17.568969
  13264.723  13264.720  0.500  1.492003  44.357871  78.069313  17.559477
  13267.680  13267.690  0.500  1.491483  44.263522  77.908959  17.532536
