# XDI/1.0 BlueSky/1.10.0 BMM/2023-1.0-py310-tiled
# Beamline.name: BMM (06BM) -- Beamline for Materials Measurement (NIST)
# Beamline.xray_source: NSLS-II three-pole wiggler
# Beamline.collimation: paraboloid mirror, 5 nm Rh on 30 nm Pt
# Beamline.focusing: not in use
# Beamline.harmonic_rejection: flat mirror, Pt stripe, pitch = 7.0 mrad relative to beam
# Beamline.software: Bluesky 1.10.0, Ophyd 1.7.0, DataBroker 2.0.0b13, Python 3.10.8, 2023-1.0-py310-tiled
# Detector.I0: 10 cm N2
# Detector.I1: 25 cm N2
# Detector.I2: 25 cm N2
# Element.symbol: Mo
# Element.edge: K
# Element.reference: Mo
# Element.reference_material: Mo foil
# Facility.name: NSLS-II
# Facility.energy: 3.0
# Facility.current: 399.3
# Facility.mode: top-off
# Facility.GUP: 301027
# Facility.SAF: 310583
# Facility.cycle: 2023-2
# Mono.name: Si(111)
# Mono.d_spacing: 3.1351860
# Mono.encoder_resolution: 0.0000050 deg/ct
# Mono.angle_offset: 16.0754326 deg
# Mono.scan_mode: pseudo channel cut
# Mono.scan_type: step
# Mono.direction: forward in energy
# Sample.name: CaMoO4
# Sample.prep: powder in PEG pellet
# Sample.x: 117.785 mm
# Sample.y: 114.695 mm
# Sample.SDD_position: 205.000 mm
# Scan.experimenters: Bruce Ravel
# Scan.edge_energy: 19999.5
# Scan.start_time: 2023-06-23T21:06:13
# Scan.end_time: 2023-06-23T21:13:43
# Scan.transient_id: 85033
# Scan.uid: 5fdb380f-2307-4e00-878d-ff4c4086331f
# Scan.plot_hint: ln(I0/It)  --  ln($5/$6)
# Column.1: energy eV
# Column.2: requested_energy eV
# Column.3: measurement_time seconds
# Column.4: xmu 
# Column.5: I0 nA
# Column.6: It nA
# Column.7: Ir nA
# ///////////
# sample courtesy Martin Stennett, University of Sheffield
# -----------
# energy  requested_energy  measurement_time  xmu  I0  It  Ir
  19799.393  19799.500  0.500  -0.102153  7.647844  8.470391  6.506718
  19809.504  19809.500  0.500  -0.102282  7.625199  8.446401  6.489969
  19819.503  19819.500  0.500  -0.102887  7.604524  8.428600  6.478242
  19829.548  19829.500  0.500  -0.103583  7.602139  8.431818  6.479958
  19839.586  19839.500  0.500  -0.104155  7.575790  8.407406  6.465382
  19849.581  19849.500  0.500  -0.104330  7.551251  8.381639  6.446687
  19859.587  19859.500  0.500  -0.104995  7.524715  8.357739  6.430052
  19869.604  19869.500  0.500  -0.105318  7.499051  8.331922  6.409992
  19879.595  19879.500  0.500  -0.105750  7.473693  8.307339  6.390138
  19889.597  19889.500  0.500  -0.106046  7.360432  8.183869  6.296619
  19899.522  19899.500  0.500  -0.106222  7.423092  8.254986  6.351406
  19909.561  19909.500  0.500  -0.106146  7.398391  8.226897  6.325622
  19919.575  19919.500  0.500  -0.106154  7.371878  8.197476  6.301931
  19929.548  19929.500  0.500  -0.105633  7.346531  8.165041  6.272608
  19939.478  19939.500  0.500  -0.104795  7.320997  8.129843  6.240574
  19949.488  19949.500  0.500  -0.103182  7.293665  8.086439  6.201514
  19959.473  19959.500  0.500  -0.100282  7.269194  8.035969  6.151332
  19969.660  19969.500  0.500  -0.096192  7.244080  7.975515  6.084348
  19971.342  19971.500  0.500  -0.095541  7.239798  7.965617  6.071241
  19973.321  19973.500  0.500  -0.094246  7.233845  7.948762  6.052720
  19975.371  19975.500  0.500  -0.092833  7.228942  7.932160  6.034063
  19977.422  19977.500  0.500  -0.090872  7.224659  7.911933  6.011795
  19979.403  19979.500  0.500  -0.089557  7.216172  7.892256  5.989328
  19981.366  19981.500  0.500  -0.087478  7.212239  7.871570  5.961543
  19983.418  19983.500  0.500  -0.084598  7.208438  7.844796  5.930120
  19985.383  19985.500  0.500  -0.081958  7.203796  7.819076  5.898875
  19987.365  19987.500  0.500  -0.078738  7.198221  7.787903  5.857674
  19989.400  19989.500  0.500  -0.074873  7.190346  7.749376  5.809875
  19989.628  19989.800  0.500  -0.074566  7.189699  7.746300  5.803582
  19989.927  19990.100  0.500  -0.073231  7.190478  7.736803  5.794898
  19990.243  19990.400  0.500  -0.072806  7.189411  7.732371  5.785024
  19990.541  19990.700  0.500  -0.072043  7.187906  7.724851  5.778340
  19990.857  19991.000  0.500  -0.071259  7.187391  7.718243  5.769681
  19991.173  19991.300  0.500  -0.070352  7.185714  7.709453  5.759221
  19991.454  19991.600  0.500  -0.069292  7.185709  7.701275  5.748741
  19991.770  19991.900  0.500  -0.068817  7.184364  7.696183  5.738856
  19992.086  19992.200  0.500  -0.067857  7.183291  7.687645  5.729674
  19992.384  19992.500  0.500  -0.066971  7.181997  7.679458  5.718777
  19992.665  19992.800  0.500  -0.066130  7.180598  7.671505  5.707414
  19992.963  19993.100  0.500  -0.065006  7.181514  7.663865  5.697553
  19993.244  19993.400  0.500  -0.064161  7.179753  7.655512  5.687231
  19993.578  19993.700  0.500  -0.063126  7.178946  7.646731  5.674552
  19993.876  19994.000  0.500  -0.061915  7.178707  7.637226  5.664111
  19994.192  19994.300  0.500  -0.060602  7.177975  7.626424  5.648921
  19994.508  19994.600  0.500  -0.059526  7.175850  7.615970  5.635421
  19994.842  19994.900  0.500  -0.057996  7.176164  7.604655  5.620197
  19995.140  19995.200  0.500  -0.057184  7.174385  7.596598  5.606624
  19995.421  19995.500  0.500  -0.055771  7.173532  7.584970  5.593514
  19995.720  19995.800  0.500  -0.054395  7.172323  7.573265  5.576198
  19996.036  19996.100  0.500  -0.053203  7.170626  7.562452  5.561345
  19996.317  19996.400  0.500  -0.051469  7.170933  7.549675  5.544754
  19996.633  19996.700  0.500  -0.049989  7.170494  7.538050  5.527023
  19996.931  19997.000  0.500  -0.048784  7.167209  7.525523  5.510240
  19997.265  19997.300  0.500  -0.046753  7.167951  7.511033  5.490437
  19997.564  19997.600  0.500  -0.044817  7.168045  7.496604  5.471460
  19997.862  19997.900  0.500  -0.043210  7.165049  7.481433  5.450986
  19998.161  19998.200  0.500  -0.040994  7.166256  7.466133  5.428178
  19998.477  19998.500  0.500  -0.038899  7.165307  7.449524  5.404129
  19998.758  19998.800  0.500  -0.036851  7.163481  7.432385  5.382135
  19999.074  19999.100  0.500  -0.034399  7.163743  7.414454  5.356155
  19999.338  19999.400  0.500  -0.032269  7.161699  7.396572  5.330931
  19999.654  19999.700  0.500  -0.029498  7.160161  7.374515  5.298590
  19999.953  20000.000  0.500  -0.026636  7.159736  7.353006  5.267884
  20000.269  20000.300  0.500  -0.023453  7.158928  7.328814  5.232967
  20000.585  20000.600  0.500  -0.019799  7.158781  7.301934  5.194592
  20000.901  20000.900  0.500  -0.016267  7.158568  7.275970  5.154474
  20001.200  20001.200  0.500  -0.012574  7.157303  7.247865  5.110387
  20001.499  20001.500  0.500  -0.009186  7.154864  7.220891  5.068853
  20001.780  20001.800  0.500  -0.004783  7.155356  7.189660  5.020775
  20002.096  20002.100  0.500  -0.000495  7.153517  7.157056  4.971675
  20002.360  20002.400  0.500  0.004711  7.152397  7.118781  4.915875
  20002.676  20002.700  0.500  0.009558  7.150516  7.082499  4.856108
  20002.992  20003.000  0.500  0.016089  7.151014  7.036882  4.788262
  20003.291  20003.300  0.500  0.022985  7.149336  6.986882  4.712046
  20003.590  20003.600  0.500  0.030413  7.148734  6.934596  4.631011
  20003.906  20003.900  0.500  0.038862  7.147326  6.874896  4.541359
  20004.222  20004.200  0.500  0.047157  7.147735  6.818492  4.456309
  20004.503  20004.500  0.500  0.056464  7.145664  6.753372  4.362473
  20004.785  20004.800  0.500  0.067285  7.142729  6.677941  4.262065
  20005.083  20005.100  0.500  0.078393  7.140876  6.602462  4.160516
  20005.382  20005.400  0.500  0.092438  7.143917  6.513148  4.045032
  20005.699  20005.700  0.500  0.107471  7.142057  6.414297  3.926252
  20005.997  20006.000  0.500  0.124512  7.139109  6.303319  3.799649
  20006.314  20006.300  0.500  0.142989  7.138221  6.187151  3.671872
  20006.613  20006.600  0.500  0.165351  7.138241  6.050343  3.532312
  20006.912  20006.900  0.500  0.187921  7.136153  5.913587  3.398749
  20007.193  20007.200  0.500  0.214407  7.134868  5.757980  3.257892
  20007.492  20007.500  0.500  0.242174  7.134929  5.600347  3.121723
  20007.791  20007.800  0.500  0.273998  7.133631  5.423939  2.976010
  20008.072  20008.100  0.500  0.303820  7.133084  5.264171  2.848705
  20008.353  20008.400  0.500  0.342670  7.130233  5.061554  2.698267
  20008.687  20008.700  0.500  0.383831  7.130094  4.857352  2.547748
  20009.004  20009.000  0.500  0.427101  7.131253  4.652412  2.404707
  20009.303  20009.300  0.500  0.470636  7.128481  4.452484  2.266654
  20009.602  20009.600  0.500  0.516073  7.127905  4.254359  2.133337
  20009.918  20009.900  0.500  0.561008  7.126386  4.066555  2.006722
  20010.217  20010.200  0.500  0.600109  7.125821  3.910307  1.902532
  20010.481  20010.500  0.500  0.638860  7.125793  3.761661  1.800853
  20010.797  20010.800  0.500  0.672170  7.122088  3.636533  1.714530
  20011.044  20011.100  0.500  0.702364  7.121905  3.528282  1.635628
  20011.395  20011.400  0.500  0.729384  7.122445  3.434483  1.562106
  20011.677  20011.700  0.500  0.746729  7.120309  3.374414  1.505172
  20012.028  20012.000  0.500  0.756169  7.118899  3.342049  1.463021
  20012.327  20012.300  0.500  0.756796  7.118980  3.339992  1.433799
  20012.644  20012.600  0.500  0.750530  7.116020  3.359588  1.415758
  20012.943  20012.900  0.500  0.739159  7.116500  3.398239  1.407731
  20013.225  20013.200  0.500  0.723209  7.114521  3.451915  1.407335
  20013.541  20013.500  0.500  0.703642  7.113912  3.519822  1.411068
  20013.805  20013.800  0.500  0.682492  7.111498  3.593840  1.418246
  20014.104  20014.100  0.500  0.660789  7.112030  3.672962  1.427475
  20014.386  20014.400  0.500  0.639152  7.111297  3.752915  1.436557
  20014.685  20014.700  0.500  0.617115  7.108791  3.835184  1.444902
  20015.001  20015.000  0.500  0.597984  7.105269  3.907322  1.448967
  20015.300  20015.300  0.500  0.581927  7.106721  3.971383  1.449255
  20015.635  20015.600  0.500  0.568062  7.105809  4.026312  1.444442
  20015.899  20015.900  0.500  0.557918  7.104955  4.066875  1.434880
  20016.198  20016.200  0.500  0.551269  7.104015  4.093461  1.419960
  20016.497  20016.500  0.500  0.547538  7.102393  4.107825  1.399800
  20016.778  20016.800  0.500  0.546284  7.101003  4.112176  1.376621
  20017.095  20017.100  0.500  0.547983  7.099465  4.104304  1.349300
  20017.394  20017.400  0.500  0.552476  7.099078  4.085684  1.316060
  20017.676  20017.700  0.500  0.558850  7.096122  4.058033  1.280355
  20017.993  20018.000  0.500  0.568619  7.097444  4.019334  1.241078
  20018.292  20018.300  0.500  0.579770  7.095982  3.973942  1.201909
  20018.609  20018.600  0.500  0.592528  7.093592  3.922244  1.161405
  20018.908  20018.900  0.500  0.607079  7.091811  3.864612  1.120130
  20019.207  20019.200  0.500  0.622811  7.090970  3.803842  1.081676
  20019.489  20019.500  0.500  0.639464  7.091262  3.741175  1.044759
  20019.788  20019.800  0.500  0.658258  7.089257  3.670481  1.006416
  20020.070  20020.100  0.500  0.676554  7.087859  3.603227  0.971935
  20020.369  20020.400  0.500  0.698768  7.088210  3.524241  0.935337
  20020.686  20020.700  0.500  0.722621  7.085332  3.439773  0.899334
  20021.003  20021.000  0.500  0.748533  7.086319  3.352256  0.865226
  20021.284  20021.300  0.500  0.775223  7.084320  3.263045  0.832180
  20021.584  20021.600  0.500  0.804200  7.082672  3.169113  0.800185
  20021.900  20021.900  0.500  0.835245  7.080987  3.071508  0.768831
  20022.200  20022.200  0.500  0.867684  7.082203  2.973981  0.738885
  20022.481  20022.500  0.500  0.898388  7.080872  2.883512  0.713123
  20022.728  20022.800  0.500  0.929998  7.078996  2.793049  0.688172
  20023.045  20023.100  0.500  0.965163  7.077936  2.696134  0.662042
  20023.344  20023.400  0.500  1.001646  7.077480  2.599377  0.638603
  20023.644  20023.700  0.500  1.037400  7.076770  2.507828  0.616617
  20023.978  20024.000  0.500  1.074696  7.076214  2.415830  0.595453
  20024.295  20024.300  0.500  1.110735  7.075448  2.330063  0.576080
  20024.506  20024.500  0.500  1.133548  7.074571  2.277229  0.564738
  20025.510  20025.490  0.500  1.227541  7.071003  2.071891  0.524120
  20026.444  20026.490  0.500  1.289772  7.070621  1.946780  0.504102
  20027.518  20027.510  0.500  1.320804  7.065583  1.885949  0.496953
  20028.522  20028.560  0.500  1.330606  7.067165  1.867972  0.495235
  20029.632  20029.620  0.500  1.335737  7.064053  1.857593  0.491957
  20030.725  20030.700  0.500  1.347289  7.061656  1.835635  0.481412
  20031.835  20031.800  0.500  1.369980  7.059951  1.794019  0.465240
  20032.928  20032.920  0.500  1.404115  7.057195  1.733137  0.445337
  20034.091  20034.060  0.500  1.451688  7.054457  1.651974  0.420798
  20035.219  20035.210  0.500  1.507569  7.051906  1.561628  0.396581
  20036.453  20036.390  0.500  1.576033  7.049504  1.457794  0.370071
  20037.635  20037.580  0.500  1.645680  7.048051  1.359437  0.344540
  20038.834  20038.800  0.500  1.714438  7.043194  1.268231  0.320602
  20040.104  20040.030  0.500  1.777114  7.039042  1.190482  0.298866
  20041.321  20041.280  0.500  1.820989  7.035158  1.138750  0.282794
  20042.609  20042.550  0.500  1.847224  7.034800  1.109207  0.271376
  20043.879  20043.840  0.500  1.855988  7.030130  1.098799  0.265487
  20045.203  20045.150  0.500  1.856493  7.026243  1.097636  0.260693
  20046.526  20046.480  0.500  1.856473  7.021791  1.096962  0.256343
  20047.885  20047.830  0.500  1.860811  7.017870  1.091605  0.251279
  20049.245  20049.200  0.500  1.865801  7.014068  1.085582  0.246369
  20050.604  20050.580  0.500  1.866530  7.010748  1.084278  0.244965
  20052.034  20051.990  0.500  1.856583  7.007460  1.094603  0.248711
  20053.429  20053.410  0.500  1.833972  7.003703  1.119035  0.258632
  20054.860  20054.850  0.500  1.800053  7.002067  1.157373  0.274592
  20056.326  20056.310  0.500  1.762532  7.020936  1.204861  0.294077
  20057.757  20057.790  0.500  1.726677  7.019630  1.248614  0.312281
  20059.242  20059.290  0.500  1.696306  7.015475  1.286354  0.327247
  20060.797  20060.810  0.500  1.670586  7.011657  1.319150  0.339599
  20062.335  20062.350  0.500  1.648088  7.007875  1.348437  0.348515
  20063.873  20063.910  0.500  1.628095  7.001882  1.374491  0.354674
  20065.500  20065.480  0.500  1.608616  7.000045  1.401160  0.358871
  20067.127  20067.080  0.500  1.590208  6.995552  1.426275  0.362557
  20068.701  20068.690  0.500  1.570592  6.989798  1.453333  0.366485
  20070.346  20070.330  0.500  1.547078  6.986762  1.487266  0.373575
  20071.974  20071.980  0.500  1.521585  6.982614  1.524762  0.382192
  20073.672  20073.650  0.500  1.497316  6.975584  1.560647  0.392525
  20075.354  20075.340  0.500  1.478060  6.972838  1.590363  0.401852
  20077.053  20077.050  0.500  1.467151  6.969191  1.606966  0.408714
  20078.771  20078.780  0.500  1.463262  6.964315  1.612099  0.412692
  20080.506  20080.530  0.500  1.461893  6.959941  1.613295  0.415009
  20082.224  20082.290  0.500  1.461332  6.956947  1.613505  0.415944
  20084.102  20084.080  0.500  1.457379  6.950904  1.618488  0.415636
  20085.927  20085.880  0.500  1.454539  6.946870  1.622150  0.413639
  20087.770  20087.710  0.500  1.448970  6.940796  1.629782  0.410164
  20089.595  20089.550  0.500  1.444135  6.936169  1.636590  0.404822
  20091.439  20091.410  0.500  1.438561  6.932008  1.644751  0.400691
  20093.301  20093.290  0.500  1.434358  6.928608  1.650867  0.398634
  20095.216  20095.190  0.500  1.432198  6.921450  1.652729  0.398608
  20097.149  20097.110  0.500  1.433635  6.917240  1.649351  0.401020
  20099.083  20099.050  0.500  1.436881  6.911954  1.642750  0.406565
  20101.053  20101.010  0.500  1.440233  6.909019  1.636557  0.413021
  20103.005  20102.980  0.500  1.442911  6.902846  1.630722  0.418080
  20104.957  20104.980  0.500  1.446713  6.896672  1.623080  0.420665
  20106.964  20106.990  0.500  1.453552  6.893207  1.611208  0.419761
  20109.006  20109.020  0.500  1.464437  6.888783  1.592743  0.413779
  20111.084  20111.080  0.500  1.480530  6.881828  1.565733  0.405280
  20113.180  20113.150  0.500  1.499825  6.876839  1.534698  0.396022
  20115.277  20115.240  0.500  1.519723  6.871336  1.503260  0.386632
  20117.392  20117.350  0.500  1.540298  6.866975  1.471711  0.378261
  20119.508  20119.480  0.500  1.558056  6.859919  1.444321  0.370928
  20121.677  20121.620  0.500  1.573003  6.857330  1.422356  0.364500
  20123.847  20123.790  0.500  1.584104  6.851419  1.405442  0.359295
  20126.017  20125.980  0.500  1.589651  6.844237  1.396202  0.354970
  20128.205  20128.180  0.500  1.592524  6.839433  1.391219  0.350969
  20130.412  20130.400  0.500  1.592031  6.833174  1.390632  0.347757
  20132.690  20132.650  0.500  1.590943  6.827854  1.391063  0.344970
  20134.951  20134.910  0.500  1.588364  6.822675  1.393596  0.343693
  20137.231  20137.190  0.500  1.582632  6.816098  1.400256  0.345903
  20139.582  20139.490  0.500  1.573812  6.810976  1.411599  0.350767
  20141.880  20141.810  0.500  1.563402  6.805426  1.425209  0.357904
  20144.179  20144.150  0.500  1.553719  6.799878  1.437902  0.364781
  20146.568  20146.500  0.500  1.546115  6.793565  1.447533  0.372185
  20148.903  20148.880  0.500  1.539683  6.785794  1.455207  0.379534
  20151.257  20151.270  0.500  1.534937  6.782290  1.461375  0.386236
  20153.648  20153.690  0.500  1.530732  6.774884  1.465931  0.390907
  20156.092  20156.120  0.500  1.526233  6.769752  1.471425  0.394321
  20158.555  20158.570  0.500  1.521962  6.763182  1.476288  0.396115
  20161.072  20161.050  0.500  1.518576  6.755610  1.479638  0.398026
  20163.589  20163.540  0.500  1.516021  6.748780  1.481923  0.399414
  20166.107  20166.050  0.500  1.513971  6.744682  1.484063  0.398443
  20168.626  20168.570  0.500  1.509460  6.737656  1.489219  0.398127
  20171.146  20171.120  0.500  1.500427  6.729375  1.500886  0.398464
  20173.701  20173.690  0.500  1.489647  6.722810  1.515673  0.400307
  20176.240  20176.270  0.500  1.478134  6.718122  1.532154  0.402900
  20178.851  20178.880  0.500  1.466513  6.710995  1.548419  0.406375
  20181.480  20181.500  0.500  1.455728  6.704881  1.563783  0.410440
  20184.182  20184.150  0.500  1.447250  6.698544  1.575606  0.414010
  20186.848  20186.810  0.500  1.441472  6.689273  1.582543  0.415946
  20189.515  20189.490  0.500  1.438657  6.681050  1.585053  0.413802
  20192.219  20192.190  0.500  1.436683  6.674820  1.586705  0.409020
  20194.942  20194.910  0.500  1.436649  6.672403  1.586183  0.401753
  20197.683  20197.650  0.500  1.437220  6.663734  1.583219  0.394811
  20200.424  20200.400  0.500  1.438720  6.657439  1.579353  0.390780
  20203.149  20203.180  0.500  1.441264  6.649348  1.573426  0.389551
  20205.982  20205.970  0.500  1.444373  6.643096  1.567065  0.391559
  20208.816  20208.790  0.500  1.447285  6.635355  1.560689  0.397041
  20211.668  20211.620  0.500  1.450257  6.627272  1.554162  0.404787
  20214.486  20214.470  0.500  1.453181  6.622139  1.548423  0.414008
  20217.430  20217.350  0.500  1.456061  6.612133  1.541638  0.423694
  20220.320  20220.240  0.500  1.458669  6.605123  1.535992  0.431342
  20223.194  20223.150  0.500  1.459083  6.599850  1.534131  0.435153
  20226.051  20226.070  0.500  1.456931  6.591877  1.535579  0.435533
  20229.016  20229.020  0.500  1.453864  6.585615  1.538832  0.432951
  20232.036  20231.990  0.500  1.450838  6.578796  1.541897  0.429957
  20234.967  20234.970  0.500  1.449454  6.570200  1.542015  0.427909
  20238.061  20237.980  0.500  1.449487  6.562607  1.540183  0.426360
  20241.048  20241.000  0.500  1.451467  6.556314  1.535661  0.423762
  20244.107  20244.050  0.500  1.453837  6.546179  1.529658  0.420184
  20247.186  20247.110  0.500  1.457395  6.537396  1.522181  0.415481
  20250.229  20250.190  0.500  1.460562  6.531469  1.515991  0.409238
  20253.274  20253.290  0.500  1.463972  6.524870  1.509304  0.403323
  20256.445  20256.410  0.500  1.466255  6.516126  1.503844  0.397118
  20259.546  20259.550  0.500  1.467848  6.508089  1.499599  0.392611
