# XDI/1.0 BlueSky/1.10.0 BMM/2023-1.0-py310-tiled
# Beamline.name: BMM (06BM) -- Beamline for Materials Measurement (NIST)
# Beamline.xray_source: NSLS-II three-pole wiggler
# Beamline.collimation: paraboloid mirror, 5 nm Rh on 30 nm Pt
# Beamline.focusing: not in use
# Beamline.harmonic_rejection: flat mirror, Pt stripe, pitch = 7.0 mrad relative to beam
# Beamline.software: Bluesky 1.10.0, Ophyd 1.7.0, DataBroker 2.0.0b13, Python 3.10.8, 2023-1.0-py310-tiled
# Detector.I0: 10 cm N2
# Detector.I1: 25 cm N2
# Detector.I2: 25 cm N2
# Element.symbol: Rb
# Element.edge: K
# Element.reference: Rb
# Element.reference_material: RbCO3
# Facility.name: NSLS-II
# Facility.energy: 3.0
# Facility.current: 400.3
# Facility.mode: top-off
# Facility.GUP: 301027
# Facility.SAF: 310583
# Facility.cycle: 2023-2
# Mono.name: Si(111)
# Mono.d_spacing: 3.1351860
# Mono.encoder_resolution: 0.0000050 deg/ct
# Mono.angle_offset: 16.0754326 deg
# Mono.scan_mode: pseudo channel cut
# Mono.scan_type: step
# Mono.direction: forward in energy
# Sample.name: RbCO3
# Sample.prep: PEG pellet
# Sample.x: 109.138 mm
# Sample.y: 153.150 mm
# Sample.SDD_position: 205.000 mm
# Scan.experimenters: Bruce Ravel
# Scan.edge_energy: 15199.7
# Scan.start_time: 2023-05-28T21:26:24
# Scan.end_time: 2023-05-28T21:33:50
# Scan.transient_id: 79029
# Scan.uid: 443654f0-7c7c-4ede-a9e6-600d3d982c80
# Scan.plot_hint: ln(It/Ir)  --  ln($6/$7)
# Column.1: energy eV
# Column.2: requested_energy eV
# Column.3: measurement_time seconds
# Column.4: xmu 
# Column.5: I0 nA
# Column.6: It nA
# Column.7: Ir nA
# ///////////
# sample courtesy Martin Stennett, University of Sheffield
# -----------
# energy  requested_energy  measurement_time  xmu  I0  It  Ir
  14999.605  14999.700  0.500  0.319689  27.732196  50.355347  36.576877
  15009.632  15009.700  0.500  0.319283  27.693653  50.299106  36.550832
  15019.623  15019.700  0.500  0.318592  27.631194  50.192757  36.498783
  15029.785  15029.700  0.500  0.318013  27.574249  50.092420  36.446899
  15039.675  15039.700  0.500  0.317648  27.528669  50.016918  36.405266
  15049.687  15049.700  0.500  0.317037  27.490565  49.949578  36.378458
  15059.712  15059.700  0.500  0.316708  27.415181  49.827030  36.301149
  15069.681  15069.700  0.500  0.316288  27.362551  49.735331  36.249563
  15079.713  15079.700  0.500  0.315922  27.283807  49.597398  36.162264
  15089.689  15089.700  0.500  0.315598  27.244544  49.536257  36.129408
  15099.678  15099.700  0.500  0.315113  27.182781  49.431370  36.070377
  15109.711  15109.700  0.500  0.314786  27.122759  49.330504  36.008540
  15119.727  15119.700  0.500  0.314480  27.080970  49.256261  35.965386
  15129.696  15129.700  0.500  0.314262  27.015540  49.148135  35.894256
  15139.729  15139.700  0.500  0.314249  26.945556  49.023861  35.803934
  15149.715  15149.700  0.500  0.314528  26.897640  48.939071  35.732059
  15159.714  15159.700  0.500  0.315229  26.783778  48.744959  35.565388
  15169.696  15169.700  0.500  0.316983  26.798914  48.777735  35.526933
  15171.630  15171.700  0.500  0.317371  26.777842  48.737548  35.483884
  15173.654  15173.700  0.500  0.318036  26.757946  48.699940  35.432922
  15175.639  15175.700  0.500  0.318702  26.752973  48.695040  35.405773
  15177.645  15177.700  0.500  0.319612  26.752059  48.698338  35.375987
  15179.661  15179.700  0.500  0.320560  26.733301  48.666895  35.319626
  15181.658  15181.700  0.500  0.321674  26.735118  48.673282  35.284928
  15183.665  15183.700  0.500  0.323016  26.706359  48.619642  35.198792
  15185.633  15185.700  0.500  0.325006  26.699951  48.606326  35.119196
  15187.651  15187.700  0.500  0.327372  26.697042  48.606503  35.036327
  15189.620  15189.700  0.500  0.330353  26.669678  48.561729  34.899874
  15189.902  15190.000  0.500  0.330873  26.676054  48.573483  34.890155
  15190.215  15190.300  0.500  0.331288  26.673123  48.562969  34.868118
  15190.518  15190.600  0.500  0.331994  26.668070  48.557418  34.839548
  15190.831  15190.900  0.500  0.332549  26.668831  48.557658  34.820394
  15191.124  15191.200  0.500  0.333156  26.676219  48.570004  34.808107
  15191.417  15191.500  0.500  0.333870  26.677545  48.574706  34.786639
  15191.730  15191.800  0.500  0.334511  26.672199  48.560029  34.753818
  15192.053  15192.100  0.500  0.335189  26.656706  48.533342  34.711187
  15192.366  15192.400  0.500  0.335946  26.656244  48.530302  34.682757
  15192.649  15192.700  0.500  0.336822  26.655490  48.534231  34.655194
  15192.942  15193.000  0.500  0.337653  26.654273  48.530990  34.624074
  15193.245  15193.300  0.500  0.338600  26.643704  48.515726  34.580419
  15193.568  15193.600  0.500  0.339568  26.660869  48.542273  34.565862
  15193.892  15193.900  0.500  0.340491  26.642077  48.502026  34.505351
  15194.174  15194.200  0.500  0.341790  26.645389  48.517227  34.471365
  15194.467  15194.500  0.500  0.342895  26.638924  48.511074  34.428934
  15194.770  15194.800  0.500  0.344119  26.622755  48.470214  34.357857
  15195.074  15195.100  0.500  0.345400  26.626449  48.476558  34.318370
  15195.397  15195.400  0.500  0.347051  26.622085  48.477169  34.262180
  15195.710  15195.700  0.500  0.348401  26.648987  48.524617  34.249425
  15195.983  15196.000  0.500  0.349991  26.623204  48.480205  34.163742
  15196.256  15196.300  0.500  0.351677  26.620366  48.468023  34.097610
  15196.589  15196.600  0.500  0.353582  26.634667  48.493254  34.050444
  15196.903  15196.900  0.500  0.355799  26.613240  48.458821  33.950893
  15197.196  15197.200  0.500  0.357979  26.602272  48.438814  33.862970
  15197.479  15197.500  0.500  0.360214  26.591933  48.422540  33.776037
  15197.782  15197.800  0.500  0.362629  26.603580  48.439041  33.706056
  15198.065  15198.100  0.500  0.365327  26.603244  48.442065  33.617337
  15198.408  15198.400  0.500  0.368838  26.603797  48.445128  33.501613
  15198.712  15198.700  0.500  0.372064  26.607910  48.451287  33.397954
  15198.995  15199.000  0.500  0.375571  26.620197  48.472541  33.295646
  15199.278  15199.300  0.500  0.379462  26.605526  48.449203  33.150368
  15199.581  15199.600  0.500  0.383749  26.596375  48.431770  32.996698
  15199.874  15199.900  0.500  0.388592  26.593704  48.425844  32.833243
  15200.188  15200.200  0.500  0.394409  26.595274  48.430001  32.645603
  15200.461  15200.500  0.500  0.400411  26.593844  48.428966  32.449557
  15200.774  15200.800  0.500  0.407594  26.587990  48.419284  32.210888
  15201.077  15201.100  0.500  0.415961  26.587004  48.413389  31.938596
  15201.401  15201.400  0.500  0.426355  26.590505  48.422140  31.614058
  15201.704  15201.700  0.500  0.437619  26.584205  48.411290  31.252946
  15202.008  15202.000  0.500  0.449746  26.602177  48.448272  30.899830
  15202.281  15202.300  0.500  0.464039  26.581105  48.407273  30.435557
  15202.574  15202.600  0.500  0.481190  26.574522  48.395486  29.910715
  15202.878  15202.900  0.500  0.500852  26.591162  48.425418  29.346487
  15203.201  15203.200  0.500  0.525668  26.566861  48.379982  28.600317
  15203.484  15203.500  0.500  0.550089  26.579498  48.406991  27.925917
  15203.778  15203.800  0.500  0.578408  26.574687  48.402523  27.143670
  15204.071  15204.100  0.500  0.611072  26.559778  48.372476  26.255056
  15204.385  15204.400  0.500  0.648274  26.556325  48.366896  25.293354
  15204.688  15204.700  0.500  0.683456  26.569862  48.389780  24.430502
  15204.971  15205.000  0.500  0.719113  26.549535  48.357313  23.558917
  15205.265  15205.300  0.500  0.753690  26.560827  48.377557  22.767770
  15205.578  15205.600  0.500  0.790710  26.564281  48.387765  21.944959
  15205.892  15205.900  0.500  0.824702  26.555634  48.373179  21.205138
  15206.165  15206.200  0.500  0.854354  26.545550  48.350730  20.576047
  15206.469  15206.500  0.500  0.881088  26.532433  48.330652  20.024927
  15206.772  15206.800  0.500  0.904833  26.544182  48.349008  19.562474
  15207.066  15207.100  0.500  0.924976  26.560413  48.379110  19.184299
  15207.390  15207.400  0.500  0.942990  26.541615  48.353675  18.831893
  15207.693  15207.700  0.500  0.955538  26.525878  48.324634  18.585908
  15208.007  15208.000  0.500  0.965545  26.534026  48.337135  18.405607
  15208.280  15208.300  0.500  0.972763  26.542044  48.350228  18.278182
  15208.604  15208.600  0.500  0.977813  26.528596  48.330115  18.178538
  15208.898  15208.900  0.500  0.980731  26.521767  48.317655  18.120895
  15209.181  15209.200  0.500  0.982113  26.534735  48.344510  18.105928
  15209.495  15209.500  0.500  0.982474  26.528543  48.330462  18.094134
  15209.789  15209.800  0.500  0.982278  26.524591  48.321173  18.094200
  15210.112  15210.100  0.500  0.981776  26.519849  48.311340  18.099610
  15210.406  15210.400  0.500  0.981628  26.509663  48.297413  18.097068
  15210.700  15210.700  0.500  0.981692  26.536344  48.345926  18.114088
  15211.003  15211.000  0.500  0.982346  26.539657  48.349569  18.103605
  15211.307  15211.300  0.500  0.983881  26.561841  48.388019  18.090209
  15211.611  15211.600  0.500  0.986218  26.597949  48.450836  18.071424
  15211.894  15211.900  0.500  0.988966  26.589088  48.437940  18.017033
  15212.188  15212.200  0.500  0.992450  26.579651  48.427575  17.950518
  15212.512  15212.500  0.500  0.996262  26.571991  48.414101  17.877250
  15212.826  15212.800  0.500  0.999973  26.587493  48.439467  17.820357
  15213.120  15213.100  0.500  1.003362  26.577272  48.418632  17.752441
  15213.403  15213.400  0.500  1.005871  26.571971  48.413696  17.706142
  15213.697  15213.700  0.500  1.007189  26.583333  48.432498  17.689699
  15214.001  15214.000  0.500  1.007240  26.564033  48.394119  17.674771
  15214.325  15214.300  0.500  1.005571  26.577193  48.419214  17.713473
  15214.599  15214.600  0.500  1.002585  26.569105  48.403046  17.760508
  15214.892  15214.900  0.500  0.997461  26.561431  48.386411  17.845613
  15215.206  15215.200  0.500  0.991479  26.550135  48.370771  17.946893
  15215.520  15215.500  0.500  0.983394  26.549364  48.367568  18.091386
  15215.824  15215.800  0.500  0.975368  26.553361  48.378026  18.241102
  15216.098  15216.100  0.500  0.966587  26.553968  48.377342  18.401726
  15216.402  15216.400  0.500  0.957366  26.541628  48.351549  18.562294
  15216.716  15216.700  0.500  0.947799  26.542373  48.355854  18.742408
  15217.010  15217.000  0.500  0.938636  26.542043  48.354263  18.914308
  15217.324  15217.300  0.500  0.930348  26.539270  48.349931  19.070007
  15217.577  15217.600  0.500  0.922646  26.547208  48.359404  19.221221
  15217.881  15217.900  0.500  0.914567  26.550939  48.375957  19.383760
  15218.216  15218.200  0.500  0.906599  26.536217  48.347073  19.527160
  15218.510  15218.500  0.500  0.900062  26.534130  48.348499  19.655824
  15218.804  15218.800  0.500  0.893919  26.535787  48.347109  19.776365
  15219.067  15219.100  0.500  0.888759  26.531533  48.343862  19.877330
  15219.391  15219.400  0.500  0.883228  26.533695  48.340383  19.986150
  15219.696  15219.700  0.500  0.878202  26.513314  48.308560  20.073630
  15219.989  15220.000  0.500  0.874337  26.518249  48.314247  20.153731
  15220.263  15220.300  0.500  0.870457  26.516465  48.309977  20.230287
  15220.598  15220.600  0.500  0.866816  26.509427  48.292963  20.296925
  15220.892  15220.900  0.500  0.863445  26.512064  48.303372  20.369858
  15221.186  15221.200  0.500  0.860613  26.508207  48.295250  20.424192
  15221.480  15221.500  0.500  0.858030  26.505592  48.293536  20.476294
  15221.764  15221.800  0.500  0.855592  26.503997  48.282986  20.521789
  15222.078  15222.100  0.500  0.853224  26.505934  48.289010  20.573019
  15222.392  15222.400  0.500  0.851145  26.490309  48.263433  20.604900
  15222.697  15222.700  0.500  0.849549  26.492327  48.267968  20.639761
  15222.980  15223.000  0.500  0.848227  26.503151  48.287261  20.675325
  15223.275  15223.300  0.500  0.847390  26.491117  48.265108  20.683143
  15223.609  15223.600  0.500  0.846585  26.490134  48.262842  20.698832
  15223.914  15223.900  0.500  0.846356  26.479411  48.241485  20.694410
  15224.197  15224.200  0.500  0.846490  26.483763  48.251562  20.695955
  15224.492  15224.500  0.500  0.846936  26.481454  48.250767  20.686378
  15224.705  15224.700  0.500  0.847559  26.481685  48.253037  20.674466
  15225.709  15225.690  0.500  0.851263  26.471951  48.229941  20.588175
  15226.723  15226.690  0.500  0.857108  26.473873  48.234197  20.469991
  15227.748  15227.710  0.500  0.864264  26.476191  48.242344  20.327464
  15228.793  15228.760  0.500  0.873241  26.463570  48.216910  20.135191
  15229.849  15229.820  0.500  0.883050  26.469156  48.226112  19.942452
  15230.905  15230.900  0.500  0.893432  26.451006  48.197341  19.724700
  15232.032  15232.000  0.500  0.903996  26.459360  48.210114  19.522606
  15233.128  15233.120  0.500  0.913156  26.446101  48.194281  19.338232
  15234.276  15234.260  0.500  0.920811  26.435848  48.170085  19.181130
  15235.413  15235.410  0.500  0.925348  26.424803  48.152572  19.087360
  15236.612  15236.590  0.500  0.927785  26.412376  48.128394  19.031350
  15237.791  15237.780  0.500  0.928851  26.411150  48.125505  19.009936
  15239.030  15239.000  0.500  0.929737  26.418122  48.144466  19.000578
  15240.260  15240.230  0.500  0.930062  26.394859  48.099246  18.976557
  15241.510  15241.480  0.500  0.928856  26.398799  48.110731  19.003992
  15242.771  15242.750  0.500  0.925259  26.381059  48.076323  19.058827
  15244.083  15244.040  0.500  0.919220  26.368831  48.056433  19.166345
  15245.374  15245.350  0.500  0.912570  26.364147  48.047586  19.290679
  15246.707  15246.680  0.500  0.906524  26.361582  48.048266  19.407934
  15248.030  15248.030  0.500  0.901083  26.340079  48.010312  19.498404
  15249.403  15249.400  0.500  0.896241  26.322975  47.976567  19.579280
  15250.777  15250.780  0.500  0.892232  26.325803  47.985288  19.661499
  15252.192  15252.190  0.500  0.889077  26.320436  47.972722  19.718457
  15253.628  15253.610  0.500  0.886778  26.319249  47.967905  19.761859
  15255.074  15255.050  0.500  0.884967  26.323289  47.981206  19.803178
  15256.551  15256.510  0.500  0.883476  26.302365  47.940356  19.815847
  15258.007  15257.990  0.500  0.881811  26.311336  47.952316  19.853818
  15259.525  15259.490  0.500  0.880797  26.279920  47.901985  19.853103
  15261.003  15261.010  0.500  0.880473  26.270008  47.885444  19.852666
  15262.542  15262.550  0.500  0.880950  26.264127  47.879589  19.840777
  15264.112  15264.110  0.500  0.882053  26.270103  47.890327  19.823348
  15265.703  15265.680  0.500  0.883607  26.243701  47.842671  19.772868
  15267.315  15267.280  0.500  0.884848  26.235348  47.827001  19.741874
  15268.916  15268.890  0.500  0.886402  26.222908  47.809485  19.704005
  15270.549  15270.530  0.500  0.887882  26.221898  47.805911  19.673399
  15272.202  15272.180  0.500  0.889086  26.204212  47.775269  19.637136
  15273.856  15273.850  0.500  0.890162  26.194628  47.755098  19.607732
  15275.531  15275.540  0.500  0.890870  26.180602  47.735879  19.585958
  15277.246  15277.250  0.500  0.891167  26.167837  47.713137  19.570822
  15278.952  15278.980  0.500  0.890972  26.161528  47.695720  19.567492
  15280.761  15280.730  0.500  0.890784  26.152915  47.689751  19.568715
  15282.508  15282.490  0.500  0.890180  26.142312  47.665265  19.570499
  15284.287  15284.280  0.500  0.889295  26.132855  47.650073  19.581575
  15286.107  15286.080  0.500  0.887982  26.111525  47.609846  19.590745
  15287.907  15287.910  0.500  0.886561  26.111396  47.616148  19.621212
  15289.779  15289.750  0.500  0.884910  26.100497  47.599538  19.646762
  15291.600  15291.610  0.500  0.882881  26.087032  47.574635  19.676368
  15293.504  15293.490  0.500  0.881054  26.076680  47.555302  19.704356
  15295.408  15295.390  0.500  0.878965  26.087588  47.577639  19.754830
  15297.344  15297.310  0.500  0.877117  26.071084  47.547859  19.778979
  15299.290  15299.250  0.500  0.875170  26.031090  47.472002  19.785916
  15301.236  15301.210  0.500  0.873737  26.021831  47.460347  19.809411
  15303.173  15303.180  0.500  0.872540  26.026359  47.473203  19.838524
  15305.182  15305.180  0.500  0.871384  26.020505  47.461033  19.856378
  15307.202  15307.190  0.500  0.870616  26.006772  47.432642  19.859744
  15309.222  15309.220  0.500  0.870412  26.002243  47.431919  19.863487
  15311.305  15311.280  0.500  0.870481  25.972554  47.371415  19.836779
  15313.367  15313.350  0.500  0.870701  25.966105  47.359173  19.827286
  15315.441  15315.440  0.500  0.870895  25.941091  47.323949  19.808711
  15317.545  15317.550  0.500  0.871199  25.946797  47.332468  19.806252
  15319.692  15319.680  0.500  0.871276  25.940606  47.319349  19.799225
  15321.849  15321.820  0.500  0.871445  25.925838  47.296981  19.786533
  15324.017  15323.990  0.500  0.871439  25.915296  47.281635  19.780239
  15326.196  15326.180  0.500  0.871237  25.915638  47.277367  19.782437
  15328.417  15328.380  0.500  0.870990  25.874194  47.210450  19.759310
  15330.598  15330.600  0.500  0.870815  25.868093  47.196167  19.756806
  15332.840  15332.850  0.500  0.870472  25.850804  47.163435  19.749875
  15335.094  15335.110  0.500  0.870107  25.847830  47.156399  19.754138
  15337.410  15337.390  0.500  0.869747  25.828512  47.131265  19.750723
  15339.727  15339.690  0.500  0.869470  25.819028  47.112540  19.748329
  15342.024  15342.010  0.500  0.869376  25.789515  47.065267  19.730376
  15344.363  15344.350  0.500  0.869295  25.663981  46.836434  19.636044
  15346.692  15346.700  0.500  0.869645  25.772067  47.027097  19.709065
  15349.104  15349.080  0.500  0.869192  25.778962  47.049178  19.727256
  15351.517  15351.470  0.500  0.868309  25.777678  47.044932  19.742904
  15353.921  15353.890  0.500  0.867696  25.746496  46.991881  19.732731
  15356.325  15356.320  0.500  0.866974  25.731906  46.966196  19.736183
  15358.782  15358.770  0.500  0.866200  25.727446  46.957784  19.747928
  15361.281  15361.250  0.500  0.865697  25.702513  46.914437  19.739631
  15363.770  15363.740  0.500  0.865301  25.696700  46.902002  19.742211
  15366.281  15366.250  0.500  0.864888  25.664633  46.847428  19.727398
  15368.793  15368.770  0.500  0.864763  25.668229  46.848490  19.730304
  15371.316  15371.320  0.500  0.864442  25.660000  46.840350  19.733203
  15373.881  15373.890  0.500  0.864078  25.636099  46.802670  19.724518
  15376.488  15376.470  0.500  0.863701  25.614290  46.760965  19.714371
  15379.096  15379.080  0.500  0.863310  25.596194  46.733765  19.710608
  15381.705  15381.700  0.500  0.862934  25.585247  46.709817  19.707913
  15384.347  15384.350  0.500  0.862810  25.579491  46.707071  19.709196
  15386.999  15387.010  0.500  0.862366  25.539226  46.635678  19.687805
  15389.714  15389.690  0.500  0.862197  25.523444  46.611910  19.681108
  15392.400  15392.390  0.500  0.862066  25.513710  46.587750  19.673490
  15395.127  15395.110  0.500  0.861662  25.506137  46.573976  19.675612
  15397.835  15397.850  0.500  0.861527  25.498547  46.556299  19.670801
  15400.617  15400.600  0.500  0.861207  25.479110  46.530498  19.666182
  15403.400  15403.380  0.500  0.860793  25.463463  46.501078  19.661887
  15406.173  15406.170  0.500  0.860216  25.444619  46.468864  19.659611
  15409.020  15408.990  0.500  0.859761  25.434669  46.451245  19.661104
  15411.826  15411.820  0.500  0.859076  25.410190  46.412413  19.658128
  15414.655  15414.670  0.500  0.858612  25.387179  46.363458  19.646517
  15417.557  15417.550  0.500  0.858045  25.373300  46.344619  19.649659
  15420.491  15420.440  0.500  0.857542  25.368143  46.334438  19.655238
  15423.365  15423.350  0.500  0.856859  25.330050  46.262864  19.638276
  15426.260  15426.270  0.500  0.856259  25.311097  46.238817  19.639858
  15429.229  15429.220  0.500  0.855806  25.310819  46.238854  19.648770
  15432.189  15432.190  0.500  0.855307  25.293460  46.211373  19.646889
